FFT,Power Spectrum
Frequency[Hz],Level-L[dB],Level-R[dB]
11.719,-5.0318,-63.005
23.438,15.189,-56.467
35.156,14.864,-41.279
46.875,20.021,-26.831
58.594,21.812,-24.41
70.313,17.223,-29.786
82.031,16.766,-28.81
93.75,21.84,-25.453
105.47,19.741,-24.439
117.19,16.38,-22.636
128.91,18.863,-20.121
140.63,19.926,-14.765
152.34,19.431,-13.487
164.06,18.493,-16.812
175.78,13.337,-15.072
187.5,18.235,-14.208
199.22,19.799,-15.272
210.94,16.893,-16.315
222.66,15.651,-18.364
234.38,20.82,-18.799
246.09,21.328,-15.561
257.81,17.062,-16.631
269.53,14.711,-17.202
281.25,16.083,-17.707
292.97,16.409,-17.8
304.69,16.449,-16.95
316.41,14.517,-18.019
328.13,14.522,-16.553
339.84,15.717,-15.304
351.56,15.749,-13.253
363.28,16.599,-12.709
375,16.704,-14.335
386.72,14.201,-13.7
398.44,16.019,-10.962
410.16,17.129,-10.151
421.88,15.135,-12.79
433.59,16.56,-13.058
445.31,15.326,-13.147
457.03,14.94,-12.175
468.75,18.047,-9.981
480.47,20.848,-8.9182
492.19,20.66,-11.678
503.91,18.455,-11.991
515.63,18.588,-10.671
527.34,17.436,-8.7947
539.06,15.484,-7.2279
550.78,11.637,-8.1572
562.5,19.365,-10.462
574.22,20.37,-14.289
585.94,16.845,-10.45
597.66,15.936,-8.5217
609.38,18.37,-8.9914
621.09,20.798,-10.576
632.81,22.903,-12.479
644.53,22.171,-10.857
656.25,19.366,-7.1515
667.97,16.18,-7.865
679.69,16.825,-11.824
691.41,17.146,-11.441
703.13,14.279,-10.205
714.84,15.622,-11.139
726.56,17.106,-11.8
738.28,17.236,-9.701
750,14.356,-10.583
761.72,15.411,-14.748
773.44,16.145,-10.993
785.16,15.588,-10.065
796.88,16.668,-10.878
808.59,17.454,-9.62
820.31,17.802,-8.7349
832.03,15.326,-8.1629
843.75,14.018,-10.689
855.47,15.196,-12.23
867.19,17.024,-12.084
878.91,16.626,-10.559
890.63,15.978,-8.7102
902.34,12.366,-10.199
914.06,12.504,-10.703
925.78,10.183,-11.764
937.5,16.628,-9.0168
949.22,15.712,-7.3928
960.94,15.271,-8.5749
972.66,16.756,-12.067
984.38,31.747,-11.95
996.09,42.3,-9.1773
1007.8,40.313,-8.0952
1019.5,23.785,-10.246
1031.3,18.949,-10.661
1043,17.627,-11.81
1054.7,16.262,-11.508
1066.4,14.942,-9.2047
1078.1,15.353,-8.5368
1089.8,16.13,-5.9353
1101.6,14.042,-5.777
1113.3,13.957,-6.1474
1125,13.082,-6.0515
1136.7,13.999,-6.8358
1148.4,16.172,-7.72
1160.2,15.453,-6.5757
1171.9,18.376,-6.1286
1183.6,14.499,-11.382
1195.3,11.758,-10.715
1207,13.01,-5.8746
1218.8,13.876,-4.9594
1230.5,13.627,-7.5166
1242.2,13.399,-7.1043
1253.9,11.902,-8.0323
1265.6,12.447,-8.8106
1277.3,11.936,-6.4052
1289.1,12.04,-5.3917
1300.8,13.728,-8.2295
1312.5,14.628,-7.6767
1324.2,13.282,-4.756
1335.9,12.927,-4.9628
1347.7,13.858,-6.491
1359.4,14.898,-9.5961
1371.1,17.645,-9.5604
1382.8,19.65,-6.2765
1394.5,19.177,-8.9535
1406.3,15.629,-12.904
1418,16.781,-11.572
1429.7,17.76,-8.2305
1441.4,14.689,-5.5146
1453.1,14.26,-3.142
1464.8,14.028,-5.5779
1476.6,14.335,-7.1935
1488.3,16.507,-8.7484
1500,17.509,-7.1962
1511.7,17.504,-8.0757
1523.4,16.802,-9.147
1535.2,13.588,-8.7372
1546.9,12.959,-9.1715
1558.6,15.126,-11.475
1570.3,15.137,-10.004
1582,13.317,-7.2827
1593.8,14.7,-9.6811
1605.5,16.629,-9.6493
1617.2,15.102,-7.417
1628.9,15.719,-10.541
1640.6,15.722,-8.5626
1652.3,14.909,-7.0181
1664.1,12.37,-8.4525
1675.8,11.646,-7.5858
1687.5,14.729,-7.9646
1699.2,15.809,-8.186
1710.9,13.913,-3.8741
1722.7,14.966,-3.3825
1734.4,13.896,-6.555
1746.1,12.876,-7.2404
1757.8,10.9,-4.8417
1769.5,14.749,-5.3086
1781.3,16.464,-5.9538
1793,16.622,-7.9002
1804.7,18.423,-9.9548
1816.4,19.904,-7.2756
1828.1,20.579,-8.3826
1839.8,23.978,-8.8199
1851.6,23.525,-9.9439
1863.3,21.376,-7.8162
1875,17.239,-6.4639
1886.7,17.506,-7.4698
1898.4,18.911,-8.9982
1910.2,18.089,-8.1504
1921.9,15.428,-6.268
1933.6,16.653,-4.8838
1945.3,14.328,-6.2074
1957,13.071,-7.3957
1968.8,11.533,-4.9034
1980.5,10.316,-5.7349
1992.2,9.9788,-8.7116
2003.9,13.974,-9.8534
2015.6,13.756,-9.6539
2027.3,11.641,-10.618
2039.1,14.447,-10.839
2050.8,14.934,-11.064
2062.5,14.849,-11.771
2074.2,15.077,-10.823
2085.9,12.801,-8.5384
2097.7,13.136,-5.3425
2109.4,17.028,-9.3973
2121.1,16.508,-8.3135
2132.8,15.976,-7.8422
2144.5,12.718,-5.9134
2156.3,9.4842,-3.2912
2168,10.234,-7.7493
2179.7,12.34,-7.7204
2191.4,13.946,-5.7274
2203.1,12.052,-6.7087
2214.8,13.184,-8.7775
2226.6,11.695,-11.685
2238.3,12.836,-8.6914
2250,13.942,-6.0524
2261.7,15.713,-6.8834
2273.4,15.392,-6.2223
2285.2,13.954,-6.2344
2296.9,10.54,-7.3713
2308.6,10.121,-8.1644
2320.3,11.899,-8.0182
2332,13.363,-8.493
2343.8,13.281,-8.262
2355.5,14.739,-6.1809
2367.2,12.687,-7.9602
2378.9,12.917,-8.8116
2390.6,15.748,-8.4534
2402.3,14.647,-6.2512
2414.1,12.593,-6.374
2425.8,12.657,-9.3424
2437.5,14.03,-7.9653
2449.2,14.102,-6.1657
2460.9,11.321,-9.0244
2472.7,12.427,-6.3486
2484.4,13.743,-5.7592
2496.1,10.394,-6.9869
2507.8,15.622,-7.0324
2519.5,15.32,-6.5665
2531.3,14.887,-6.287
2543,13.564,-6.8659
2554.7,11.735,-8.8822
2566.4,11.146,-7.6396
2578.1,12.878,-4.9885
2589.8,12.835,-3.9746
2601.6,14.816,-6.2949
2613.3,14.486,-8.1932
2625,13.284,-7.0174
2636.7,12.384,-6.1295
2648.4,11.302,-5.6788
2660.2,10.722,-7.9305
2671.9,13.417,-5.774
2683.6,14.036,-8.4534
2695.3,13.937,-8.3491
2707,12.254,-6.4838
2718.8,14.041,-7.6269
2730.5,13.289,-10.233
2742.2,13.22,-7.413
2753.9,11.718,-6.9911
2765.6,11.315,-8.1877
2777.3,9.8694,-8.5482
2789.1,10.079,-11.314
2800.8,12.606,-7.2363
2812.5,14.772,-7.2039
2824.2,13.652,-10.161
2835.9,10.89,-9.19
2847.7,7.6108,-6.9476
2859.4,7.3669,-7.7224
2871.1,9.9391,-5.9157
2882.8,10.921,-8.0266
2894.5,10.767,-10.057
2906.3,10.602,-6.2512
2918,13.932,-3.259
2929.7,11.677,-4.5979
2941.4,6.5976,-7.7607
2953.1,7.2583,-6.5976
2964.8,11.601,-4.6557
2976.6,12.177,-4.8419
2988.3,13.436,-5.5193
3000,14.078,-5.776
3011.7,12.213,-6.9059
3023.4,11.028,-8.0769
3035.2,11.119,-9.422
3046.9,9.5479,-4.9724
3058.6,12.733,-6.3156
3070.3,12.413,-7.0522
3082,12.403,-4.5298
3093.8,10.144,-5.9332
3105.5,10.713,-8.7293
3117.2,10.297,-11.16
3128.9,10.134,-7.6055
3140.6,12.668,-9.2581
3152.3,10.45,-7.1679
3164.1,8.8624,-5.9828
3175.8,10.677,-8.2871
3187.5,10.88,-6.1524
3199.2,12.752,-7.4388
3210.9,13.216,-7.4238
3222.7,11.483,-5.8303
3234.4,11.176,-5.53
3246.1,12.546,-6.2793
3257.8,13.407,-7.1329
3269.5,14.059,-6.8272
3281.3,12.962,-7.8309
3293,12.161,-7.3516
3304.7,13.047,-7.3072
3316.4,12.212,-7.8894
3328.1,9.0805,-7.3095
3339.8,5.8515,-7.785
3351.6,9.0017,-8.8189
3363.3,10.962,-7.1301
3375,8.5484,-7.1026
3386.7,7.9062,-7.3319
3398.4,10.676,-6.9663
3410.2,10.676,-5.8863
3421.9,10.352,-7.9997
3433.6,11.999,-7.7425
3445.3,12.215,-7.0201
3457,11.761,-7.2437
3468.8,13.046,-9.7907
3480.5,11.656,-6.3149
3492.2,9.2313,-5.8655
3503.9,10.877,-6.8373
3515.6,12.178,-6.1577
3527.3,9.676,-8.0637
3539.1,9.4806,-6.9968
3550.8,10.41,-5.5706
3562.5,9.7335,-8.8557
3574.2,11.025,-8.5517
3585.9,10.737,-8.853
3597.7,12.251,-10.09
3609.4,12.637,-9.2542
3621.1,8.6734,-8.0735
3632.8,8.1644,-6.9417
3644.5,9.3927,-5.5674
3656.3,11.455,-6.255
3668,10.058,-8.0286
3679.7,10.59,-9.6992
3691.4,11.614,-9.3878
3703.1,10.155,-6.5939
3714.8,10.589,-7.6378
3726.6,9.9104,-9.1603
3738.3,7.6308,-10.563
3750,8.7219,-9.2495
3761.7,7.0189,-7.8165
3773.4,5.1139,-7.1119
3785.2,10.88,-7.3364
3796.9,10.334,-6.7039
3808.6,11.206,-7.2913
3820.3,13.312,-4.9032
3832,10.532,-5.091
3843.8,9.1826,-7.9976
3855.5,8.6597,-6.6384
3867.2,8.6789,-8.3826
3878.9,9.6711,-11.762
3890.6,9.2006,-10.46
3902.3,5.5381,-8.2201
3914.1,3.9358,-7.3776
3925.8,4.5849,-7.2425
3937.5,9.4835,-8.8311
3949.2,12.541,-6.8701
3960.9,13.867,-7.9977
3972.7,11.277,-8.5014
3984.4,7.9126,-8.7682
3996.1,6.4879,-8.5008
4007.8,8.243,-5.764
4019.5,7.7425,-6.8355
4031.3,10.633,-10.703
4043,8.7248,-5.2281
4054.7,7.5027,-6.1807
4066.4,9.3091,-8.0214
4078.1,8.2109,-7.452
4089.8,8.3358,-7.813
4101.6,9.5772,-5.8145
4113.3,9.9827,-5.0902
4125,11.042,-5.8599
4136.7,9.8504,-4.6358
4148.4,7.7034,-4.4197
4160.2,6.021,-8.3219
4171.9,9.0795,-10.266
4183.6,9.5589,-7.7576
4195.3,7.5314,-7.5581
4207,8.6803,-7.7207
4218.8,8.9381,-10.138
4230.5,8.636,-11.441
4242.2,7.3995,-8.6135
4253.9,6.5174,-8.5678
4265.6,8.0759,-5.641
4277.3,7.8925,-7.6193
4289.1,6.491,-7.4663
4300.8,6.0761,-8.3051
4312.5,7.6977,-6.6147
4324.2,6.8728,-4.6396
4335.9,7.1835,-6.7988
4347.7,8.0364,-7.9705
4359.4,8.3965,-6.1442
4371.1,9.0484,-7.3585
4382.8,8.0114,-9.9945
4394.5,9.2123,-7.4103
4406.3,7.5556,-6.0834
4418,6.9151,-8.1441
4429.7,7.1959,-8.6751
4441.4,11.686,-8.3968
4453.1,11.737,-10.228
4464.8,10.987,-9.5181
4476.6,8.7436,-10.218
4488.3,7.7602,-7.8686
4500,9.868,-7.5346
4511.7,10.958,-10.195
4523.4,10.837,-9.9921
4535.2,9.6916,-5.9427
4546.9,11.286,-7.1428
4558.6,11.288,-7.8846
4570.3,8.1645,-8.6206
4582,6.3817,-9.4054
4593.8,5.9356,-8.2143
4605.5,7.7988,-9.397
4617.2,10.307,-11.59
4628.9,7.8032,-7.7325
4640.6,7.1302,-7.9894
4652.3,9.2838,-10.584
4664.1,9.591,-8.8188
4675.8,10.533,-9.6824
4687.5,8.2842,-11.585
4699.2,5.7656,-7.8643
4710.9,5.8194,-7.9268
4722.7,7.9702,-6.1039
4734.4,6.1996,-6.2073
4746.1,6.7045,-8.0871
4757.8,6.8351,-5.8301
4769.5,4.6696,-4.4183
4781.3,8.6628,-6.8341
4793,9.4305,-7.0001
4804.7,5.5763,-7.6347
4816.4,3.4588,-9.4403
4828.1,6.3312,-9.3379
4839.8,7.7324,-9.9282
4851.6,6.3549,-7.2176
4863.3,5.5813,-8.4185
4875,7.6426,-9.3605
4886.7,9.7936,-9.2457
4898.4,9.1169,-5.6828
4910.2,8.9161,-6.0973
4921.9,9.3208,-4.6418
4933.6,8.4075,-6.4344
4945.3,11.299,-9.2683
4957,10.835,-10.264
4968.8,8.8838,-7.8163
4980.5,8.3758,-9.0647
4992.2,4.8782,-10.438
5003.9,2.8579,-5.4933
5015.6,2.4001,-4.2781
5027.3,8.3733,-5.8372
5039.1,8.0047,-9.2564
5050.8,8.4151,-12.748
5062.5,6.3771,-11.895
5074.2,7.162,-9.3039
5085.9,6.3859,-8.3905
5097.7,6.1817,-9.3937
5109.4,5.4763,-13.15
5121.1,7.626,-9.0288
5132.8,9.0537,-11.107
5144.5,10.238,-11.919
5156.3,8.7791,-8.3979
5168,3.2503,-8.0733
5179.7,7.8635,-7.484
5191.4,6.9015,-8.0969
5203.1,5.4736,-10.829
5214.8,7.2364,-11.601
5226.6,6.9594,-10.692
5238.3,6.7625,-8.1493
5250,5.0013,-4.734
5261.7,6.3196,-4.1794
5273.4,7.6247,-6.4319
5285.2,7.0115,-6.9701
5296.9,7.1988,-7.8464
5308.6,7.0735,-8.6233
5320.3,7.9565,-7.0887
5332,7.6848,-8.8611
5343.8,6.2723,-8.8458
5355.5,6.3041,-7.4064
5367.2,5.1186,-7.2322
5378.9,4.5507,-7.1766
5390.6,7.188,-8.737
5402.3,8.4677,-11.771
5414.1,6.2962,-8.5098
5425.8,7.4213,-9.367
5437.5,7.302,-7.6343
5449.2,4.5545,-9.9269
5460.9,6.2852,-11.446
5472.7,7.2386,-9.2914
5484.4,6.2086,-8.228
5496.1,4.8255,-10.81
5507.8,3.3876,-9.294
5519.5,1.3345,-8.1493
5531.3,1.9706,-10.538
5543,1.8304,-11.591
5554.7,8.4002,-10.304
5566.4,6.8409,-13.531
5578.1,5.6384,-11.024
5589.8,8.4875,-5.9392
5601.6,8.8482,-4.4383
5613.3,6.8494,-8.3833
5625,5.4172,-8.6908
5636.7,3.8101,-9.48
5648.4,3.9195,-10.399
5660.2,8.4635,-10.793
5671.9,5.7721,-8.9789
5683.6,3.2004,-7.918
5695.3,6.0909,-6.7346
5707,5.9691,-4.6619
5718.8,4.1472,-4.5641
5730.5,4.7631,-5.938
5742.2,7.3327,-7.4171
5753.9,5.7776,-9.9306
5765.6,5.2336,-8.006
5777.3,1.3954,-8.4878
5789.1,4.5216,-12.258
5800.8,4.8625,-10.879
5812.5,5.2442,-5.2948
5824.2,5.1027,-8.9477
5835.9,5.7662,-10.168
5847.7,7.3522,-9.5342
5859.4,6.6072,-8.6264
5871.1,4.8257,-7.8231
5882.8,5.2658,-7.8689
5894.5,4.5379,-5.4987
5906.3,3.6607,-4.3073
5918,4.2172,-6.6049
5929.7,7.0051,-10.825
5941.4,7.2019,-10.902
5953.1,7.4811,-8.7971
5964.8,5.477,-9.4315
5976.6,5.9141,-9.2403
5988.3,5.1185,-10.2
6000,3.8835,-11.13
6011.7,3.2388,-10.787
6023.4,4.3655,-8.3784
6035.2,4.743,-6.9182
6046.9,4.4209,-7.7279
6058.6,6.4372,-6.1166
6070.3,7.0996,-6.4805
6082,6.5832,-10.569
6093.8,5.9185,-11.076
6105.5,5.5814,-10.736
6117.2,3.8154,-6.8857
6128.9,2.9959,-7.6964
6140.6,0.31291,-10.207
6152.3,4.2585,-9.3554
6164.1,7.5043,-7.3692
6175.8,6.4122,-7.0209
6187.5,6.6863,-8.9837
6199.2,5.716,-10.711
6210.9,3.7553,-7.3659
6222.7,6.3723,-9.5211
6234.4,7.5991,-10.428
6246.1,6.8455,-8.4185
6257.8,3.5949,-6.4923
6269.5,1.8847,-6.971
6281.3,1.3176,-6.5409
6293,6.4098,-9.1595
6304.7,6.4236,-7.8095
6316.4,4.5038,-6.3791
6328.1,4.5066,-6.8288
6339.8,3.4955,-8.1834
6351.6,3.834,-10.448
6363.3,5.369,-7.8852
6375,4.345,-10.32
6386.7,4.5994,-7.8077
6398.4,4.8428,-9.4701
6410.2,2.6323,-9.4649
6421.9,4.7372,-7.9599
6433.6,3.5583,-9.3191
6445.3,-0.46651,-10.573
6457,4.0469,-6.7118
6468.8,4.0239,-6.6321
6480.5,3.905,-7.6151
6492.2,1.1994,-9.186
6503.9,4.3694,-9.436
6515.6,5.6706,-6.293
6527.3,5.241,-5.6071
6539.1,3.4284,-8.9738
6550.8,3.6993,-6.9905
6562.5,2.0338,-9.5943
6574.2,4.3006,-11.577
6585.9,7.3684,-8.7093
6597.7,4.1345,-8.4184
6609.4,3.9436,-7.2182
6621.1,6.4602,-6.3102
6632.8,6.8984,-6.1725
6644.5,7.1369,-8.4807
6656.3,4.7429,-10.311
6668,5.413,-8.5088
6679.7,7.4835,-8.108
6691.4,8.9238,-9.8088
6703.1,6.5755,-11.683
6714.8,4.1331,-11.67
6726.6,4.6564,-8.2252
6738.3,3.0614,-9.3886
6750,7.4332,-11.565
6761.7,6.6186,-11.256
6773.4,4.6867,-8.0136
6785.2,8.0301,-8.4311
6796.9,6.003,-13.095
6808.6,3.2558,-10.728
6820.3,0.86126,-7.6227
6832,1.9473,-8.9342
6843.8,2.8566,-8.3679
6855.5,5.7328,-6.2907
6867.2,5.6852,-6.4873
6878.9,2.4694,-9.0036
6890.6,4.0999,-7.3629
6902.3,4.2791,-10.059
6914.1,0.93836,-8.0607
6925.8,2.3178,-7.0379
6937.5,5.2488,-9.4773
6949.2,4.2876,-8.515
6960.9,2.1296,-5.8741
6972.7,3.2839,-8.2177
6984.4,3.1777,-7.2526
6996.1,3.4232,-3.916
7007.8,1.8979,-4.6826
7019.5,4.2466,-9.1561
7031.3,6.2154,-9.6906
7043,6.1265,-7.7227
7054.7,5.3567,-11.943
7066.4,3.7502,-12.194
7078.1,5.235,-9.4091
7089.8,5.7479,-7.567
7101.6,7.2484,-7.9602
7113.3,5.9218,-10.13
7125,5.3333,-10.72
7136.7,5.2104,-8.8398
7148.4,5.2071,-10.807
7160.2,6.2378,-10.397
7171.9,7.2708,-8.4785
7183.6,8.504,-7.9116
7195.3,8.4048,-10.405
7207,6.0089,-8.3444
7218.8,6.7774,-7.9238
7230.5,6.9398,-7.3513
7242.2,5.0236,-8.1331
7253.9,2.8776,-8.8427
7265.6,2.727,-6.9209
7277.3,2.3221,-8.3346
7289.1,2.1399,-10.294
7300.8,1.8705,-10.183
7312.5,4.2064,-9.7409
7324.2,2.4251,-8.3794
7335.9,3.3016,-9.3711
7347.7,4.626,-11.059
7359.4,5.298,-9.1805
7371.1,4.0972,-10.785
7382.8,3.8568,-12.053
7394.5,4.5777,-9.3722
7406.3,2.2768,-7.8284
7418,3.4082,-9.4844
7429.7,4.9444,-10.354
7441.4,3.8262,-9.6268
7453.1,4.8033,-7.4678
7464.8,6.2471,-8.87
7476.6,3.6271,-9.9152
7488.3,5.5488,-10.557
7500,3.3259,-10.14
7511.7,1.3125,-10.538
7523.4,3.7516,-10.145
7535.2,5.4284,-13.873
7546.9,3.1056,-11.26
7558.6,-0.89651,-11.959
7570.3,-2.7322,-9.7021
7582,0.13208,-9.2406
7593.8,4.8285,-10.037
7605.5,3.6778,-9.3777
7617.2,4.648,-10.102
7628.9,3.5862,-8.958
7640.6,4.1537,-8.8614
7652.3,3.1908,-9.9039
7664.1,2.63,-10.401
7675.8,1.2906,-9.2116
7687.5,-0.99639,-7.673
7699.2,-1.1749,-9.0041
7710.9,3.9471,-12.37
7722.7,4.7125,-10.971
7734.4,4.4109,-9.3065
7746.1,4.9461,-8.9386
7757.8,3.1426,-9.1075
7769.5,-0.54799,-8.8127
7781.3,-0.27164,-9.6268
7793,-0.37399,-10.042
7804.7,1.5251,-11.634
7816.4,4.4054,-11.674
7828.1,5.3679,-9.7549
7839.8,3.0751,-9.0105
7851.6,-0.86448,-9.7049
7863.3,1.8182,-9.6855
7875,2.3874,-10.279
7886.7,2.7215,-9.4216
7898.4,2.8918,-8.6847
7910.2,4.4965,-8.6777
7921.9,3.2656,-10.915
7933.6,2.2396,-10.294
7945.3,3.1327,-11.548
7957,-0.23688,-13.812
7968.8,2.9295,-12.879
7980.5,3.2503,-13.509
7992.2,-1.1783,-10.082
8003.9,0.54538,-11.409
8015.6,0.57954,-15.585
8027.3,-0.076024,-11.67
8039.1,2.641,-11.633
8050.8,1.8172,-10.552
8062.5,3.0215,-8.4316
8074.2,0.75522,-6.151
8085.9,0.4802,-7.0179
8097.7,2.8123,-10.649
8109.4,0.65358,-11.101
8121.1,0.4507,-9.0975
8132.8,2.6905,-12.552
8144.5,1.4071,-11.334
8156.3,0.26674,-9.3678
8168,-0.27915,-12.313
8179.7,0.95914,-8.6609
8191.4,0.95199,-7.1543
8203.1,-1.9607,-7.3879
8214.8,0.57165,-9.9151
8226.6,2.3113,-11.694
8238.3,3.3803,-13.9
8250,3.7301,-10.825
8261.7,2.1886,-10.15
8273.4,1.2147,-10.267
8285.2,2.1064,-7.991
8296.9,3.2245,-8.0662
8308.6,2.5887,-9.0455
8320.3,-0.23368,-9.4289
8332,-0.40998,-9.4939
8343.8,-0.42383,-10.921
8355.5,-1.3716,-9.6527
8367.2,0.51949,-8.4743
8378.9,3.7806,-9.2902
8390.6,3.4737,-9.1465
8402.3,0.23184,-6.248
8414.1,-0.77451,-7.2692
8425.8,2.1489,-9.6977
8437.5,2.494,-8.2748
8449.2,2.3913,-8.6045
8460.9,1.3599,-10.118
8472.7,-0.36686,-9.5322
8484.4,-2.4156,-9.6682
8496.1,1.0879,-8.1739
8507.8,2.4936,-7.4637
8519.5,-0.84242,-9.0283
8531.3,1.1284,-8.6322
8543,1.4261,-7.9304
8554.7,-0.50529,-8.01
8566.4,-3.1769,-9.9189
8578.1,2.2761,-12.038
8589.8,3.7532,-10.244
8601.6,2.9502,-8.1565
8613.3,1.2623,-10.046
8625,1.9167,-8.5625
8636.7,-0.10714,-8.7964
8648.4,0.32928,-9.8971
8660.2,1.3617,-10.259
8671.9,1.2433,-8.2248
8683.6,3.0357,-8.1118
8695.3,1.8849,-7.9405
8707,0.28916,-8.9772
8718.8,1.0572,-9.3732
8730.5,0.33501,-10.814
8742.2,0.34981,-11.179
8753.9,0.68227,-9.9528
8765.6,0.45951,-8.8077
8777.3,-1.468,-7.4569
8789.1,1.5589,-8.5662
8800.8,4.1705,-8.0922
8812.5,1.6987,-6.7588
8824.2,0.9082,-8.6677
8835.9,0.36537,-14.011
8847.7,0.17217,-11.028
8859.4,1.5267,-10.42
8871.1,2.2325,-10.807
8882.8,2.4157,-10.6
8894.5,1.8399,-12.761
8906.3,3.2572,-12.663
8918,3.8196,-12.013
8929.7,2.2225,-11.77
8941.4,0.73366,-10.065
8953.1,2.8129,-10.263
8964.8,-0.0097115,-8.1776
8976.6,-1.3813,-7.112
8988.3,-1.5213,-8.2129
9000,4.1445,-8.4654
9011.7,6.3362,-8.8271
9023.4,3.3577,-9.3378
9035.2,-0.16751,-10.051
9046.9,2.8134,-14.565
9058.6,3.0836,-15.746
9070.3,3.0119,-12.434
9082,0.87119,-15.089
9093.8,0.1257,-13.16
9105.5,1.1833,-11.787
9117.2,-0.92255,-9.9009
9128.9,2.3671,-7.3494
9140.6,2.7114,-7.6713
9152.3,-1.6051,-7.9923
9164.1,1.6102,-10.01
9175.8,2.4421,-13.633
9187.5,2.1941,-12.698
9199.2,0.68283,-13.173
9210.9,-0.11818,-10.725
9222.7,1.8365,-10.719
9234.4,1.0318,-10.298
9246.1,0.23204,-10.126
9257.8,0.2476,-10.508
9269.5,1.953,-10.988
9281.3,1.1929,-11.692
9293,1.3478,-11.462
9304.7,0.97175,-8.1454
9316.4,0.098803,-8.5563
9328.1,2.5123,-11.619
9339.8,2.5277,-13.886
9351.6,0.59067,-9.4577
9363.3,-0.85512,-7.4282
9375,-1.8078,-10.938
9386.7,-1.5904,-8.4898
9398.4,-2.357,-9.7495
9410.2,0.47487,-12.123
9421.9,-0.49719,-12.162
9433.6,-2.2336,-10.883
9445.3,-1.894,-8.2212
9457,1.6259,-7.2532
9468.8,0.98491,-9.6328
9480.5,2.4644,-11.96
9492.2,0.60545,-14.35
9503.9,-1.2036,-10.963
9515.6,-3.0514,-11.492
9527.3,0.49121,-12.38
9539.1,1.0396,-9.4605
9550.8,0.78655,-10.812
9562.5,0.19462,-13.078
9574.2,-0.96267,-12.148
9585.9,-0.48643,-11.618
9597.7,0.11639,-11.554
9609.4,3.8807,-13.131
9621.1,1.7748,-13.762
9632.8,-1.7138,-13.611
9644.5,-0.78145,-12.874
9656.3,-0.95264,-11.793
9668,-0.13619,-10.358
9679.7,-0.79362,-13.06
9691.4,-4.7058,-15.726
9703.1,-3.848,-15.335
9714.8,-2.8958,-11.631
9726.6,0.62196,-10.731
9738.3,1.6199,-9.1753
9750,0.5866,-11.237
9761.7,-1.3388,-13.382
9773.4,-2.405,-13.879
9785.2,-2.9701,-9.0637
9796.9,-0.15151,-8.2851
9808.6,0.61709,-10.058
9820.3,-1.9092,-13.012
9832,-0.71799,-14.41
9843.8,-2.1005,-10.551
9855.5,-2.3576,-10.147
9867.2,-2.9497,-11.611
9878.9,-0.43944,-10.295
9890.6,3.5266,-12.361
9902.3,3.0145,-14.112
9914.1,2.7416,-13.278
9925.8,4.006,-11.82
9937.5,3.1876,-12.111
9949.2,0.34855,-12.313
9960.9,-2.1593,-10.906
9972.7,-1.4669,-11.837
9984.4,0.24761,-9.6379
9996.1,0.025668,-11.658
10008,-1.4596,-14.126
10020,1.0994,-12.972
10031,0.35365,-10.882
10043,-0.059792,-8.9415
10055,0.69086,-10.034
10066,0.32781,-12.644
10078,1.7593,-12.53
10090,1.9307,-11.11
10102,0.10506,-10.46
10113,-2.2774,-11.336
10125,0.418,-11.013
10137,-1.1912,-11.552
10148,0.10271,-13.167
10160,-1.3703,-12.148
10172,-2.7253,-9.4837
10184,-0.55953,-9.8499
10195,-0.16996,-10.448
10207,-1.788,-11.715
10219,-2.327,-13.838
10230,-3.4087,-13.715
10242,-4.0825,-10.252
10254,-2.4028,-10.207
10266,-6.7124,-11.914
10277,-1.8844,-14.179
10289,-2.5676,-14.956
10301,-0.37736,-9.6814
10313,-0.27,-9.9667
10324,0.044433,-11.089
10336,0.67239,-11.707
10348,-1.7604,-12.675
10359,-1.1621,-13.312
10371,0.36674,-11.24
10383,-2.5989,-9.4911
10395,-3.3435,-10.483
10406,-2.1847,-11.256
10418,-2.0139,-10.626
10430,-6.0777,-12.157
10441,-1.1918,-11.801
10453,3.1443,-11.892
10465,1.4215,-12.457
10477,-0.70914,-15.61
10488,-2.5506,-12.619
10500,-3.5455,-12.17
10512,-0.8114,-14.559
10523,-2.7824,-12.437
10535,-6.6938,-10.292
10547,-4.6533,-7.7103
10559,-1.8276,-7.1959
10570,-2.131,-11.328
10582,0.75215,-9.6623
10594,-0.91328,-8.4649
10605,-2.5705,-12.03
10617,-1.1522,-12.696
10629,-2.0239,-9.6964
10641,-2.9291,-9.8289
10652,0.61463,-10.807
10664,2.4951,-10.673
10676,-1.4101,-10.726
10688,-2.7876,-14.585
10699,0.95268,-12.902
10711,0.7409,-13.165
10723,-2.9618,-13.747
10734,-0.63802,-11.6
10746,-0.48927,-12.094
10758,-2.3384,-11.718
10770,-1.0158,-11.552
10781,1.2935,-14.37
10793,1.5904,-14.077
10805,-2.3494,-10.18
10816,-3.3347,-10.554
10828,-0.90227,-11.025
10840,1.578,-10.399
10852,2.8115,-10.667
10863,-1.1438,-10.898
10875,-1.1802,-10.376
10887,-1.5601,-12.419
10898,-1.7261,-12.596
10910,0.58649,-11.985
10922,0.40336,-13.342
10934,-0.89032,-14.485
10945,-2.6954,-11.296
10957,-2.2797,-9.3716
10969,-2.1752,-11.242
10980,-1.7147,-13.462
10992,2.1302,-13.157
11004,2.7097,-9.3587
11016,-0.13107,-12.099
11027,-0.019102,-14.368
11039,0.27455,-11.907
11051,-1.0337,-11.066
11063,-2.382,-9.5449
11074,-2.9122,-12.298
11086,-2.11,-13.733
11098,1.1445,-12.801
11109,-1.4294,-11.321
11121,-0.18119,-12.194
11133,0.99173,-15.624
11145,-2.2589,-12.888
11156,-3.9663,-8.281
11168,-3.29,-11.944
11180,-1.3392,-15.179
11191,-1.4475,-15.822
11203,-2.7209,-15.267
11215,-0.9723,-15.374
11227,-1.1945,-17.099
11238,-2.341,-14.981
11250,-3.5606,-10.739
11262,-3.663,-12.277
11273,-2.0632,-11.909
11285,-1.6162,-11.716
11297,-1.6415,-11.809
11309,-0.10959,-12.879
11320,0.68997,-11.531
11332,0.49272,-11.18
11344,-0.72148,-12.538
11355,0.30987,-12.906
11367,-2.0121,-16.387
11379,-5.0292,-14.926
11391,-2.79,-11.162
11402,-0.1075,-9.7648
11414,-1.983,-10.398
11426,-3.836,-11.176
11438,-3.1351,-12.725
11449,-2.6022,-12.274
11461,-0.55001,-11.752
11473,1.0819,-9.0386
11484,-1.0412,-10.857
11496,-3.6097,-14.301
11508,-3.5454,-16.768
11520,-2.7627,-13.916
11531,-1.2416,-10.855
11543,-0.34705,-11.656
11555,-0.52448,-11.462
11566,-2.7785,-13.464
11578,-2.6489,-13.15
11590,-1.9171,-12.523
11602,-2.235,-12.339
11613,-0.74726,-12.071
11625,-1.4844,-11.467
11637,-3.3646,-12.697
11648,-1.1923,-13.777
11660,-2.1781,-14.677
11672,-1.0613,-13.588
11684,-1.139,-10.256
11695,-1.6095,-10.672
11707,-1.3223,-13.928
11719,-2.6965,-12.924
11730,-4.3877,-12.438
11742,-2.3793,-11.377
11754,-3.6594,-9.9315
11766,-2.0593,-10.76
11777,-0.10282,-14.117
11789,0.21175,-11.727
11801,-0.71959,-13.146
11813,-4.769,-11.855
11824,-0.32683,-12.251
11836,0.030862,-12.381
11848,-0.81883,-13.279
11859,-0.92322,-15
11871,-2.69,-12.243
11883,-3.0856,-11.287
11895,-1.5483,-13.849
11906,-2.2233,-14.494
11918,-0.98901,-15.02
11930,-2.439,-12.452
11941,-5.7645,-11.781
11953,-4.4447,-17.416
11965,-1.6257,-14.084
11977,-1.1172,-12.847
11988,-2.2953,-10.558
12000,-3.1288,-10.714
12012,-2.9476,-11.106
12023,-2.5362,-9.7937
12035,-1.2087,-9.8047
12047,-4.1788,-14.163
12059,-1.7139,-16.323
12070,-0.1784,-14.016
12082,-2.1617,-12.765
12094,-2.8664,-11.819
12105,-2.3994,-10.989
12117,-1.9207,-11.683
12129,-0.61891,-12.018
12141,-2.0949,-13.063
12152,-3.5273,-13.677
12164,-0.94899,-14.63
12176,1.2637,-14.406
12188,-3.5304,-14.788
12199,-5.0836,-14.8
12211,-4.0401,-13.982
12223,-4.9432,-12.981
12234,-0.47568,-11.534
12246,1.3472,-12.228
12258,-3.1111,-14.422
12270,-3.0911,-13.454
12281,-2.6373,-14.41
12293,-3.1209,-15.568
12305,-1.4303,-15.618
12316,0.57131,-15.623
12328,-6.0885,-12.329
12340,-4.9118,-13.258
12352,-4.2734,-13.387
12363,-5.9436,-12.579
12375,-5.5184,-11.411
12387,-1.2779,-13.07
12398,-3.0334,-10.587
12410,-6.3414,-10.53
12422,-7.7581,-13.775
12434,-5.0707,-14.629
12445,-0.37716,-14.537
12457,-3.0119,-17.074
12469,-0.45109,-15.282
12480,-1.9387,-11.843
12492,-4.9074,-12.029
12504,-1.2049,-12.692
12516,-2.6368,-11.544
12527,-5.6562,-11.616
12539,-3.3902,-14.208
12551,-0.9052,-13.282
12563,-0.91436,-15.116
12574,-1.8953,-15.495
12586,-1.3566,-17.361
12598,0.94018,-16.214
12609,-0.85012,-16.442
12621,-1.7312,-15.869
12633,-7.9573,-15.804
12645,-4.0666,-17.748
12656,-3.5045,-14.282
12668,-3.5699,-12.181
12680,-6.2783,-12.332
12691,-3.9668,-12.414
12703,-4.3914,-9.9902
12715,-3.3334,-10.941
12727,-4.1561,-12.947
12738,-2.7157,-12.367
12750,-1.6923,-9.6373
12762,-4.8863,-10.943
12773,-6.4029,-15.073
12785,-4.635,-11.638
12797,-2.567,-13.264
12809,-1.2943,-14.377
12820,-0.75821,-12.406
12832,-1.2986,-12.851
12844,-3.2707,-14.195
12855,-2.137,-12.704
12867,-1.0982,-14.048
12879,-2.006,-13.089
12891,-5.1478,-13.798
12902,-5.3779,-17.571
12914,-2.227,-13.869
12926,-3.0349,-11.584
12938,-3.4837,-11.892
12949,-4.1234,-10.22
12961,-4.143,-10.863
12973,-3.4332,-11.547
12984,-4.4484,-15.768
12996,-4.6278,-14.142
13008,-3.2094,-12.997
13020,-4.4126,-14.342
13031,-2.0295,-12.719
13043,-2.7553,-11.404
13055,-6.188,-9.0843
13066,-3.7753,-9.6337
13078,1.1926,-12.857
13090,-1.4231,-13.996
13102,-4.2217,-12.607
13113,-1.3555,-15.921
13125,-2.8036,-17.676
13137,-4.6158,-14.033
13148,-3.8823,-15.353
13160,-6.3029,-14.91
13172,-5.8384,-13.98
13184,-3.262,-12.779
13195,-3.5589,-15.552
13207,-4.7124,-14.9
13219,-5.0181,-13.489
13230,-3.8794,-14.479
13242,-5.1609,-15.05
13254,-6.7913,-13.32
13266,-4.611,-11.8
13277,-3.8462,-14.899
13289,-1.7418,-17.133
13301,-6.0855,-11.741
13313,-3.6013,-11.487
13324,-2.0883,-12.777
13336,-0.11359,-13.613
13348,-2.1705,-13.654
13359,-4.0434,-17.175
13371,-4.4377,-15.618
13383,-5.1519,-13.567
13395,-4.6721,-14.689
13406,-1.2122,-14.8
13418,-3.257,-15.865
13430,-3.7127,-13.587
13441,-3.7541,-13.337
13453,-8.1888,-15.332
13465,-4.2134,-15.798
13477,-1.7934,-13.427
13488,-3.1403,-13.065
13500,-4.1438,-10.952
13512,-4.5536,-9.9638
13523,-4.2022,-15.093
13535,-5.4974,-11.856
13547,-6.2013,-14.938
13559,-3.4895,-16.551
13570,-3.7682,-14.64
13582,-2.0736,-16.287
13594,-4.2933,-14.937
13605,-8.0203,-14.417
13617,-3.1767,-14.432
13629,-3.0496,-15.004
13641,-2.096,-13.133
13652,-2.0062,-11.076
13664,-3.8981,-14.694
13676,-6.1367,-14.784
13688,-5.4429,-15.379
13699,-4.4373,-14.819
13711,-2.7305,-15.039
13723,-2.0494,-15.384
13734,-3.263,-14.446
13746,-7.1756,-13.383
13758,-7.736,-13.58
13770,-4.2434,-12.25
13781,-3.2105,-13.006
13793,-5.5059,-13.996
13805,-8.0134,-13.636
13816,-6.1838,-13.101
13828,-6.0608,-17.364
13840,-6.5352,-16.92
13852,-8.3084,-15.326
13863,-5.1644,-16.582
13875,-5.1374,-16.524
13887,-6.3734,-15.794
13898,-7.1296,-13.359
13910,-7.9003,-14.394
13922,-5.467,-17.349
13934,-7.1374,-13.449
13945,-5.7685,-15.047
13957,-4.7776,-16.871
13969,-6.2059,-13.705
13980,-7.5458,-12.23
13992,-5.9844,-11.568
14004,-7.1109,-13.253
14016,-6.6833,-13.819
14027,-6.3787,-12.34
14039,-5.0887,-11.979
14051,-6.1456,-12.403
14063,-4.9622,-16.939
14074,-6.4502,-16.406
14086,-5.6464,-15.104
14098,-7.5036,-14.103
14109,-9.362,-11.683
14121,-9.2812,-12.358
14133,-6.2572,-16.684
14145,-5.7811,-16.3
14156,-9.0485,-13.57
14168,-6.116,-11.613
14180,-4.295,-12.995
14191,-3.4002,-15.533
14203,-4.0661,-15.596
14215,-6.8067,-16.317
14227,-7.0659,-14.35
14238,-6.6919,-14.039
14250,-6.1184,-15.117
14262,-6.756,-14.054
14273,-6.2961,-12.532
14285,-4.2525,-12.327
14297,-4.6118,-13.791
14309,-7.3877,-15.403
14320,-6.0518,-14.176
14332,-4.2928,-13.934
14344,-1.9433,-15.639
14355,-6.1515,-13.031
14367,-4.013,-14.025
14379,-4.253,-13.935
14391,-3.9409,-11.656
14402,-4.9612,-12.71
14414,-5.5908,-14.957
14426,-5.5185,-15.579
14438,-4.0881,-16.885
14449,-6.2787,-19.325
14461,-6.7714,-15.772
14473,-3.6283,-12.537
14484,-6.8038,-13.327
14496,-8.8664,-12.979
14508,-5.8293,-13.749
14520,-5.7321,-15.805
14531,-3.1208,-18.787
14543,-3.3946,-17.602
14555,-3.5692,-15.795
14566,-7.3332,-14.042
14578,-9.7196,-15.132
14590,-8.1422,-14.31
14602,-5.2305,-17.098
14613,-5.1204,-20.221
14625,-6.5127,-15.309
14637,-6.5998,-12.842
14648,-5.3555,-16.902
14660,-5.3703,-15.028
14672,-7.0816,-16.685
14684,-7.0427,-15.873
14695,-4.8825,-16.697
14707,-4.4167,-15.592
14719,-4.6862,-14.644
14730,-5.1913,-14.715
14742,-7.1478,-17.091
14754,-6.8471,-14.29
14766,-5.4557,-16.46
14777,-5.5882,-16.193
14789,-4.7271,-15.646
14801,-4.8962,-13.451
14813,-5.4283,-12.336
14824,-8.6187,-12.356
14836,-3.4526,-13.406
14848,-3.7023,-18.122
14859,-7.4655,-16.108
14871,-6.7857,-16.758
14883,-6.1739,-15.259
14895,-6.5297,-16.228
14906,-6.4694,-15.904
14918,-7.0315,-16.13
14930,-5.3391,-16.354
14941,-5.4989,-14.888
14953,-7.7667,-14.795
14965,-8.7007,-13.483
14977,-5.8031,-13.815
14988,-7.9977,-14.003
15000,-6.7059,-12.011
15012,-5.1013,-12.151
15023,-5.7685,-13.558
15035,-8.611,-12.133
15047,-5.7396,-12.237
15059,-3.6362,-14.086
15070,-4.9827,-16.568
15082,-4.3679,-14.532
15094,-4.1401,-16.52
15105,-6.3473,-17.15
15117,-6.3269,-14.167
15129,-6.5713,-15.721
15141,-6.8761,-16.314
15152,-6.2949,-16.617
15164,-4.6495,-16.624
15176,-6.8799,-13.763
15188,-6.9952,-12.019
15199,-5.4692,-13.269
15211,-7.6531,-14.954
15223,-7.5482,-16.613
15234,-7.7861,-17.824
15246,-6.2153,-18.216
15258,-5.6569,-13.073
15270,-6.7678,-13.374
15281,-8.6099,-15.777
15293,-7.3662,-15.204
15305,-7.531,-17.184
15316,-7.1209,-17.01
15328,-8.295,-16.934
15340,-8.2685,-15.4
15352,-8.6391,-16.067
15363,-8.3869,-16.342
15375,-7.5117,-19.142
15387,-6.8581,-17.069
15398,-5.1329,-16.333
15410,-4.257,-14.584
15422,-3.139,-16.049
15434,-2.7826,-14.328
15445,-5.7241,-13.204
15457,-6.7818,-14.056
15469,-7.3791,-14.793
15480,-4.2712,-14.768
15492,-6.6231,-13.065
15504,-6.6322,-13.922
15516,-4.355,-19.13
15527,-4.5103,-18.521
15539,-6.6714,-16.443
15551,-11.186,-15.924
15563,-7.9832,-18.105
15574,-8.7708,-18.585
15586,-9.2184,-17.21
15598,-10.357,-15.438
15609,-8.1749,-15.836
15621,-5.8932,-14.835
15633,-6.5728,-14.045
15645,-7.2524,-14.091
15656,-6.9868,-13.16
15668,-6.0829,-14.972
15680,-5.1136,-20.129
15691,-7.3402,-18.582
15703,-12.469,-15.551
15715,-10.65,-14.889
15727,-7.3374,-14.297
15738,-7.1497,-17.764
15750,-7.4678,-17.228
15762,-8.0145,-19.095
15773,-9.0267,-15.365
15785,-8.5911,-14.414
15797,-6.7301,-15.627
15809,-6.3838,-13.372
15820,-7.5489,-13.456
15832,-8.5097,-15.607
15844,-6.5185,-16.526
15855,-8.0698,-15.818
15867,-7.36,-17.441
15879,-9.4468,-15.629
15891,-7.4786,-15.444
15902,-5.6596,-17.117
15914,-6.3477,-16.893
15926,-7.1824,-15.738
15938,-6.5393,-15.955
15949,-8.0535,-16.609
15961,-8.3661,-15.719
15973,-9.7511,-15.133
15984,-9.8491,-14.169
15996,-9.4348,-12.17
16008,-8.659,-13.741
16020,-8.2476,-14.165
16031,-8.0198,-13.031
16043,-7.3481,-14.549
16055,-7.8362,-14.071
16066,-6.2141,-15.416
16078,-5.0895,-12.702
16090,-5.2578,-13.396
16102,-8.4369,-15.74
16113,-5.8336,-17.172
16125,-5.2689,-14.438
16137,-6.6728,-16.622
16148,-4.7919,-18.373
16160,-3.9732,-15.892
16172,-7.1373,-15.872
16184,-7.1269,-16.137
16195,-6.3918,-15.939
16207,-5.8046,-12.536
16219,-5.0968,-13.959
16230,-5.3961,-17.259
16242,-4.3736,-16.235
16254,-6.8275,-14.894
16266,-8.2942,-16.174
16277,-7.1229,-15.958
16289,-7.092,-14.419
16301,-8.4755,-13.877
16313,-7.1906,-13.533
16324,-5.2239,-15.263
16336,-7.4484,-17.24
16348,-12.908,-20.012
16359,-10.32,-17.522
16371,-8.3841,-14.76
16383,-8.7431,-16.154
16395,-8.3418,-17.302
16406,-9.4351,-13.619
16418,-9.4342,-13.571
16430,-10.732,-17.588
16441,-7.7546,-16.374
16453,-6.6504,-16.653
16465,-6.7314,-16.531
16477,-7.2022,-15.735
16488,-6.381,-16.459
16500,-6.6528,-18.795
16512,-5.3524,-17.717
16523,-5.9263,-16.102
16535,-8.555,-16.528
16547,-9.6639,-16.037
16559,-8.6341,-15.162
16570,-6.5558,-16.069
16582,-9.7086,-16.548
16594,-11.714,-16.027
16605,-10.65,-16.544
16617,-9.772,-15.693
16629,-8.4637,-16.304
16641,-8.2875,-16.269
16652,-8.3528,-15.799
16664,-7.2021,-16.062
16676,-7.691,-13.612
16688,-8.7599,-13.039
16699,-9.8595,-15.101
16711,-9.1881,-13.713
16723,-9.9054,-13.569
16734,-11.484,-15.729
16746,-11.551,-15.036
16758,-12.67,-15.206
16770,-8.9938,-18.324
16781,-6.5391,-20.088
16793,-7.544,-16.061
16805,-6.0861,-14.053
16816,-6.5965,-14.398
16828,-11.554,-16.588
16840,-11.761,-17.782
16852,-9.9226,-17.573
16863,-10.145,-17.794
16875,-11.604,-15.041
16887,-11.891,-13.333
16898,-10.982,-14.954
16910,-11.018,-18.964
16922,-8.8454,-16.353
16934,-9.7837,-17.927
16945,-9.9723,-17.645
16957,-7.2762,-14.962
16969,-7.0896,-13.338
16980,-10.257,-14.937
16992,-10.96,-15.711
17004,-12.69,-13.587
17016,-12.082,-14.785
17027,-9.4769,-14.321
17039,-9.331,-14.196
17051,-8.4283,-14.981
17063,-12.048,-14.896
17074,-12.257,-14.571
17086,-11.118,-15.364
17098,-13.105,-15.27
17109,-11.851,-16.645
17121,-10.65,-15.058
17133,-12.589,-17.175
17145,-11.901,-17.981
17156,-13.815,-15.702
17168,-7.8154,-16.162
17180,-8.9261,-16.948
17191,-8.7365,-15.865
17203,-9.7276,-13.947
17215,-8.6085,-14.395
17227,-9.4622,-16.32
17238,-10.924,-18.24
17250,-13.012,-16.959
17262,-12.09,-17.676
17273,-11.158,-19.374
17285,-10.382,-16.798
17297,-9.4301,-15.702
17309,-9.4694,-13.95
17320,-11.226,-15.772
17332,-12.846,-18.895
17344,-13.815,-15.544
17355,-12.317,-14.453
17367,-11.631,-16.163
17379,-10.365,-15.751
17391,-12.461,-14.512
17402,-10.75,-13.566
17414,-9.6597,-13.566
17426,-10.689,-16.937
17438,-11.383,-17.903
17449,-14.184,-14.871
17461,-13.029,-12.589
17473,-10.551,-13.728
17484,-9.1049,-15.258
17496,-9.3184,-17.748
17508,-11.142,-18.066
17520,-11.702,-19.989
17531,-10.462,-18.578
17543,-10.413,-18.365
17555,-12.869,-15.779
17566,-14.184,-16.436
17578,-13.268,-17.776
17590,-11.765,-16.788
17602,-8.8593,-17.147
17613,-7.873,-17.851
17625,-10.984,-14.893
17637,-13.099,-17.271
17648,-13.613,-16.283
17660,-9.4133,-14.841
17672,-9.1899,-18.713
17684,-8.3133,-14.639
17695,-10.099,-14.457
17707,-12.682,-17.629
17719,-9.9719,-15.048
17730,-13.992,-17.355
17742,-11.393,-19.324
17754,-7.009,-17.472
17766,-5.7618,-13.832
17777,-6.9273,-13.124
17789,-9.4142,-16.895
17801,-8.2948,-14.798
17813,-6.7076,-14.042
17824,-9.4556,-15.716
17836,-12.482,-16.237
17848,-12.164,-16.723
17859,-9.5495,-15.899
17871,-10.088,-14.179
17883,-11.088,-14.895
17895,-12.368,-13.391
17906,-12.484,-10.821
17918,-12.647,-13.84
17930,-12.444,-16.424
17941,-11.927,-18.653
17953,-11.015,-18.007
17965,-8.9595,-17.804
17977,-11.102,-20.092
17988,-10.41,-16.745
18000,-11.983,-15.992
18012,-14.212,-16.858
18023,-13.552,-14.798
18035,-11.365,-19.075
18047,-12.037,-17.437
18059,-12.053,-18.124
18070,-12.529,-19.25
18082,-11.065,-19.695
18094,-9.9473,-19.273
18105,-10.853,-18.142
18117,-11.28,-17.575
18129,-9.817,-18.253
18141,-7.5341,-16.708
18152,-8.8827,-16.191
18164,-13.801,-16.275
18176,-14.63,-16.76
18188,-11.651,-17.259
18199,-12.335,-15.646
18211,-11.628,-18.649
18223,-12.491,-19.58
18234,-7.4071,-16.708
18246,-9.7845,-15.863
18258,-13.824,-14.31
18270,-14.842,-17.193
18281,-12.844,-19.085
18293,-12.375,-18.724
18305,-12.123,-17.945
18316,-11.428,-18.162
18328,-12.597,-19.05
18340,-13.751,-20.481
18352,-13.082,-17.973
18363,-11.731,-16.538
18375,-11.024,-19.357
18387,-13.787,-17.921
18398,-15.147,-17.528
18410,-10.589,-14.718
18422,-11.362,-16.703
18434,-13.173,-18.66
18445,-10.054,-20.629
18457,-11.776,-16.611
18469,-13.882,-12.497
18480,-16.859,-12.75
18492,-13.21,-16.933
18504,-11.67,-17.996
18516,-13.747,-15.822
18527,-14.067,-18.342
18539,-15.496,-16.869
18551,-14.72,-17.45
18563,-15.477,-17.727
18574,-13.329,-16.764
18586,-14.679,-18.172
18598,-13.845,-18.764
18609,-15.497,-16.813
18621,-14.514,-18.61
18633,-15.692,-18.614
18645,-14.778,-18.515
18656,-12.805,-17.057
18668,-12.265,-15.946
18680,-12.574,-16.835
18691,-9.5757,-16.124
18703,-9.4226,-16.128
18715,-10.948,-18.889
18727,-12.81,-19.497
18738,-13.607,-19.31
18750,-11.857,-20.13
18762,-9.8897,-19.177
18773,-10.388,-17.037
18785,-11.013,-16.52
18797,-11.991,-19.189
18809,-12.962,-19.827
18820,-14.106,-19.064
18832,-13.438,-20.845
18844,-12.056,-18.517
18855,-12.607,-17.08
18867,-11.624,-18.31
18879,-13.636,-18.455
18891,-12.462,-18.098
18902,-11.223,-15.977
18914,-13.481,-16.86
18926,-13.318,-19.591
18938,-12.002,-19.183
18949,-12.506,-17.211
18961,-10.743,-17.463
18973,-11.323,-18.34
18984,-9.7919,-18.621
18996,-11.125,-16.447
19008,-13.82,-14.895
19020,-14.412,-17.864
19031,-13.003,-16.209
19043,-13.685,-15.486
19055,-14.495,-17.446
19066,-12.577,-18.537
19078,-14.768,-17.251
19090,-11.951,-18.796
19102,-10.608,-19.733
19113,-9.8306,-17.854
19125,-9.8371,-17.578
19137,-13.926,-19.718
19148,-15.13,-18.913
19160,-12.282,-19.339
19172,-12.578,-22.36
19184,-15.172,-19.631
19195,-13.221,-18.184
19207,-11.828,-18.996
19219,-13.577,-15.766
19230,-14.845,-17.098
19242,-14.611,-19.249
19254,-15.311,-16.719
19266,-17.237,-19.72
19277,-16.019,-19.712
19289,-11.942,-17.084
19301,-12.784,-16.945
19313,-10.26,-18.267
19324,-12.418,-19.034
19336,-12.449,-20.003
19348,-12.957,-20.114
19359,-15.299,-18.507
19371,-16.8,-18.528
19383,-10.375,-16.89
19395,-8.4767,-15.663
19406,-10.124,-15.817
19418,-11.682,-16.175
19430,-13.31,-16.849
19441,-15.177,-16.351
19453,-13.676,-16.723
19465,-14.205,-14.881
19477,-12.936,-14.213
19488,-10.656,-18.554
19500,-11.667,-16.669
19512,-15.338,-14.883
19523,-14.783,-15.502
19535,-11.966,-19.084
19547,-12.11,-17.461
19559,-13.291,-18.918
19570,-10.821,-18.855
19582,-10.895,-16.015
19594,-12.506,-14.682
19605,-12.673,-14.49
19617,-13.774,-17.354
19629,-14.579,-19.909
19641,-13.617,-23.172
19652,-14.751,-19.646
19664,-12.877,-17.981
19676,-11.916,-17.943
19688,-13.301,-18.454
19699,-14.765,-18.973
19711,-13.453,-17.461
19723,-14.953,-17.797
19734,-15.391,-18.259
19746,-13.813,-16.854
19758,-15.558,-15.487
19770,-14.525,-16.221
19781,-17.148,-19.716
19793,-17.081,-19.803
19805,-13.856,-19.363
19816,-14.541,-21.029
19828,-13.651,-21.742
19840,-12.361,-21.013
19852,-10.855,-19.237
19863,-10.273,-21.141
19875,-11.607,-19.613
19887,-15.729,-16.945
19898,-18.159,-16.902
19910,-17.593,-17.833
19922,-17.938,-20.54
19934,-16.903,-21.21
19945,-14.866,-20.038
19957,-12.896,-21.623
19969,-11.032,-19.103
19980,-12.78,-16.294
19992,-14.721,-15.895
20004,-12.651,-14.228
20016,-11.443,-16.397
20027,-14.395,-20.561
20039,-15.658,-17.885
20051,-14.794,-17.33
20063,-15.943,-18.9
20074,-13.086,-20.279
20086,-12.021,-19.017
20098,-12.489,-21.051
20109,-12.213,-21.602
20121,-13.196,-21.025
20133,-14.05,-19.137
20145,-15.525,-20.985
20156,-15.586,-20.281
20168,-12.742,-17.595
20180,-13.054,-17.082
20191,-15.382,-17.392
20203,-13.574,-21.193
20215,-14.102,-20.402
20227,-13.476,-19.195
20238,-14.544,-18.997
20250,-15.842,-21.311
20262,-15.379,-19.563
20273,-13.895,-17.94
20285,-14.356,-18.782
20297,-16.242,-18.869
20309,-15.977,-18.099
20320,-15.491,-19.257
20332,-16.833,-17.25
20344,-14.081,-19.084
20355,-13.223,-19.414
20367,-14.31,-18.285
20379,-15.171,-18.152
20391,-15.411,-20.01
20402,-15.455,-18.307
20414,-16.046,-17.54
20426,-15.351,-17.695
20438,-15.105,-16.688
20449,-15.694,-16.758
20461,-18.51,-18.393
20473,-18.524,-17.991
20484,-17.808,-18.725
20496,-15.136,-18.263
20508,-14.504,-17.551
20520,-10.559,-19.164
20531,-13.942,-22.212
20543,-18.076,-22.985
20555,-15.597,-18.198
20566,-14.628,-16.037
20578,-15.234,-17.12
20590,-18.355,-18.051
20602,-16.077,-15.82
20613,-13.837,-18.567
20625,-16.528,-20.93
20637,-18.199,-19.06
20648,-15.128,-20.496
20660,-12.24,-20.105
20672,-13.766,-18.427
20684,-13.921,-16.294
20695,-16.144,-17.942
20707,-16.988,-22.485
20719,-14.846,-16.568
20730,-12.642,-13.879
20742,-14.47,-16.278
20754,-19.011,-18.679
20766,-19.385,-19.471
20777,-19.96,-18.429
20789,-15.865,-20.337
20801,-14.168,-22.337
20813,-14.97,-19.394
20824,-16.057,-18.037
20836,-15.978,-17.811
20848,-12.261,-18.863
20859,-14.71,-19.605
20871,-14.586,-18.507
20883,-13.328,-20.174
20895,-14.9,-21.764
20906,-16.163,-21.213
20918,-16.369,-17.69
20930,-15.293,-23.481
20941,-13.209,-18.79
20953,-14.606,-18.934
20965,-14.773,-20.925
20977,-13.893,-21.1
20988,-14.69,-19.67
21000,-15.437,-14.447
21012,-17.396,-15.091
21023,-16.152,-16.701
21035,-17.173,-17.871
21047,-14.348,-19.339
21059,-15.867,-18.562
21070,-17.925,-18.741
21082,-17.679,-20.558
21094,-13.324,-22.628
21105,-14.431,-18.337
21117,-19.78,-18.464
21129,-16.803,-19.51
21141,-14.575,-21.602
21152,-13.379,-21.962
21164,-17.315,-18.884
21176,-15.651,-19.565
21188,-15.207,-22.298
21199,-18.915,-20.888
21211,-17.157,-19.792
21223,-14.572,-20.582
21234,-16.663,-20.176
21246,-15.244,-17.611
21258,-14.491,-19.143
21270,-14.476,-18.99
21281,-14.938,-19.202
21293,-13.956,-21.322
21305,-13.88,-21.27
21316,-13.293,-20.295
21328,-12.804,-19.403
21340,-14.651,-18.163
21352,-17.026,-19.562
21363,-18.161,-22.025
21375,-14.132,-19.464
21387,-12.254,-17.426
21398,-14.084,-18.043
21410,-18.534,-18.386
21422,-17.419,-19.098
21434,-18.462,-20.686
21445,-17.408,-19.558
21457,-15.486,-17.577
21469,-14.37,-19.869
21480,-12.997,-18.637
21492,-14.413,-18.096
21504,-15.299,-19.024
21516,-17.223,-19.196
21527,-14.373,-16.293
21539,-15.233,-16.513
21551,-15.418,-20.23
21563,-16.278,-20.74
21574,-15.787,-21.878
21586,-16.986,-19.622
21598,-18.856,-17.609
21609,-17.464,-17.498
21621,-13.943,-19.588
21633,-13.003,-20.465
21645,-16.277,-17.407
21656,-16.262,-19.8
21668,-15.632,-22.238
21680,-16.486,-20.007
21691,-16.344,-19.73
21703,-14.438,-21.116
21715,-13.515,-17.253
21727,-14.497,-19.591
21738,-15.194,-19.944
21750,-16.171,-19.104
21762,-15.903,-18.912
21773,-19.238,-18.99
21785,-19.638,-20.404
21797,-15.123,-20.674
21809,-13.589,-20.87
21820,-18.368,-20.887
21832,-17.771,-20.805
21844,-18.145,-18.514
21855,-16.435,-19.565
21867,-16.728,-20.893
21879,-16.34,-20.627
21891,-13.26,-22.655
21902,-12.404,-18.827
21914,-17.085,-18.591
21926,-17.401,-21.542
21938,-18.814,-20.019
21949,-15.838,-20.737
21961,-16.911,-20.316
21973,-18.495,-20.861
21984,-17.046,-18.766
21996,-14.773,-17.542
22008,-14.748,-17.372
22020,-14.901,-19.05
22031,-15.244,-20.137
22043,-17.242,-19.851
22055,-18.243,-22.213
22066,-19.401,-18.153
22078,-19.473,-19.99
22090,-19.686,-19.496
22102,-17.945,-20.704
22113,-17.562,-25.811
22125,-15.088,-21.276
22137,-15.772,-18.761
22148,-18.173,-20.444
22160,-21.337,-19.742
22172,-18.956,-19.972
22184,-17.163,-22.939
22195,-15.863,-19.08
22207,-15.612,-20.505
22219,-12.088,-19.39
22230,-15.047,-19.307
22242,-15.069,-20.453
22254,-13.437,-21.219
22266,-14.42,-20.636
22277,-16.11,-19.794
22289,-16.129,-19.107
22301,-16.515,-22.705
22313,-17.58,-25.768
22324,-17.217,-25.085
22336,-15.71,-20.475
22348,-15.609,-20.393
22359,-15.462,-20.695
22371,-18.675,-18.979
22383,-17.13,-21.987
22395,-17.707,-20.431
22406,-17.639,-20.98
22418,-18.302,-19.204
22430,-17.903,-20.283
22441,-15.445,-20.245
22453,-16.29,-21.36
22465,-19.311,-21.1
22477,-17.485,-21.774
22488,-16.678,-18.876
22500,-17.213,-19.656
22512,-20.092,-19.583
22523,-15.709,-19.002
22535,-14.141,-16.939
22547,-14.847,-19.068
22559,-15.677,-19.628
22570,-19.024,-19.332
22582,-20.553,-17.347
22594,-19.019,-18.395
22605,-16.379,-19.927
22617,-16.09,-18.982
22629,-14.926,-18.659
22641,-16.754,-20.265
22652,-15.96,-22.957
22664,-16.088,-23.294
22676,-18.834,-19.181
22688,-16.069,-21.174
22699,-14.807,-21.516
22711,-15.92,-18.961
22723,-18.437,-18.958
22734,-19.559,-22.529
22746,-17.633,-20.942
22758,-18.052,-20.761
22770,-17.763,-20.725
22781,-16.699,-20.237
22793,-17.644,-20.671
22805,-16.712,-19.03
22816,-16.751,-19.471
22828,-18.094,-22.048
22840,-17.851,-20.605
22852,-19.734,-19.262
22863,-17.471,-19.083
22875,-17.762,-21.669
22887,-17.521,-22.02
22898,-15.754,-20.016
22910,-13.913,-18.039
22922,-14.223,-19.907
22934,-16.404,-19.418
22945,-15.309,-19.542
22957,-16.953,-20.385
22969,-17.335,-19.655
22980,-17.629,-18.812
22992,-19.789,-18.323
23004,-18.636,-19.012
23016,-18.695,-17.506
23027,-19.673,-16.127
23039,-17.263,-17.352
23051,-15.781,-18.308
23063,-17.172,-21.648
23074,-21.534,-22.543
23086,-16.844,-18.71
23098,-15.933,-19.459
23109,-17.224,-22.021
23121,-18.346,-19.965
23133,-24.154,-21.474
23145,-17.632,-22.853
23156,-14.852,-20.127
23168,-15.013,-20.485
23180,-14.956,-21.572
23191,-14.944,-20.18
23203,-14.422,-21.213
23215,-14.041,-24.232
23227,-15.881,-21.993
23238,-19.004,-21.095
23250,-17.601,-22.619
23262,-16.844,-21.002
23273,-20.314,-21.843
23285,-19.128,-21.311
23297,-17.617,-21.416
23309,-14.73,-20.622
23320,-15.173,-20.596
23332,-18.179,-20.001
23344,-18.593,-17.11
23355,-18.618,-17.463
23367,-18.238,-16.978
23379,-16.625,-15.525
23391,-18.114,-19.023
23402,-19.959,-18.713
23414,-18.722,-18.88
23426,-17.543,-22.177
23438,-15.816,-20.7
23449,-17.9,-20.782
23461,-19.306,-21.737
23473,-20.702,-20.976
23484,-18.36,-20.369
23496,-19.112,-17.664
23508,-19.325,-21.865
23520,-18.722,-22.082
23531,-18.622,-20.935
23543,-20.405,-22.598
23555,-19.978,-23.596
23566,-18.203,-20.061
23578,-15.919,-18.206
23590,-15.879,-20.214
23602,-13.989,-22.669
23613,-14.343,-22.772
23625,-14.726,-22.241
23637,-17.178,-22.801
23648,-15.741,-19.178
23660,-15.663,-17.18
23672,-16.638,-20.851
23684,-17.9,-23.95
23695,-19.633,-25.589
23707,-19.828,-25.89
23719,-17.18,-23.328
23730,-17.082,-21.442
23742,-14.599,-21.462
23754,-17.331,-19.943
23766,-20.348,-21.493
23777,-19.579,-19.999
23789,-19.371,-19.016
23801,-18.962,-20.538
23813,-16.334,-21.506
23824,-16.983,-22.606
23836,-16.599,-21.676
23848,-17.97,-21.222
23859,-17.697,-19.626
23871,-16.37,-19.427
23883,-17.302,-17.815
23895,-17.748,-20.219
23906,-16.971,-19.93
23918,-17.409,-18.582
23930,-20.969,-22.462
23941,-18.131,-23.398
23953,-18.764,-19.596
23965,-20.844,-20.809
23977,-20.908,-21.892
23988,-20.226,-20.566
