FFT,Power Spectrum
Frequency[Hz],Level-L[dB],Level-R[dB]
11.719,-4.0067,-62.441
23.438,16.373,-53.465
35.156,16.001,-40.82
46.875,19.102,-27.83
58.594,19.17,-27.087
70.313,16.861,-29.771
82.031,16.107,-28.914
93.75,21.505,-27.875
105.47,17.77,-24.262
117.19,12.382,-19.616
128.91,16.224,-18.867
140.63,20.979,-14.606
152.34,19.565,-11.428
164.06,16.49,-13.957
175.78,18.393,-15.219
187.5,21.274,-14.856
199.22,21.133,-15.621
210.94,17.284,-19.209
222.66,15.577,-20.713
234.38,19.112,-16.938
246.09,20.427,-16.944
257.81,20.241,-14.285
269.53,18.022,-16.682
281.25,15.746,-17.219
292.97,15.614,-16.73
304.69,13.886,-16.396
316.41,15.721,-15.583
328.13,10.993,-12.791
339.84,17.245,-13.026
351.56,17.515,-13.891
363.28,15.175,-13.789
375,15.303,-14.252
386.72,16.906,-16.784
398.44,18.427,-15.768
410.16,17.018,-15.493
421.88,15.953,-16.927
433.59,13.727,-15.616
445.31,14.987,-13.259
457.03,14.801,-12.454
468.75,18.053,-10.997
480.47,18.055,-9.5722
492.19,15.964,-13.368
503.91,17.814,-12.426
515.63,16.106,-13.245
527.34,14.76,-12.375
539.06,14.57,-12.69
550.78,14.663,-12.779
562.5,15.258,-10.667
574.22,18.437,-11.624
585.94,18.517,-11.831
597.66,17.401,-11.217
609.38,19.386,-11.529
621.09,22.686,-10.995
632.81,23.253,-9.5885
644.53,18.777,-9.3066
656.25,15.608,-8.5664
667.97,15.997,-9.5043
679.69,17.382,-9.5552
691.41,18.96,-13.266
703.13,15.709,-10.574
714.84,19.384,-8.9221
726.56,20.736,-12.318
738.28,20.19,-9.5392
750,16.218,-8.682
761.72,15.916,-8.0239
773.44,15.909,-8.0846
785.16,14.362,-8.1731
796.88,14.692,-9.0493
808.59,15.837,-8.2689
820.31,13.296,-8.0886
832.03,15.745,-8.5057
843.75,17.373,-10.724
855.47,15.913,-8.3512
867.19,21.301,-7.8395
878.91,21.006,-9.2596
890.63,23.751,-9.0782
902.34,27.075,-6.9512
914.06,29.175,-7.8644
925.78,33.869,-10.236
937.5,38.06,-12.074
949.22,43.712,-9.2974
960.94,50.974,-6.9268
972.66,61.232,-9.2382
984.38,81.282,-10.025
996.09,92.192,-3.2946
1007.8,90.291,-4.9529
1019.5,72.281,-9.6011
1031.3,57.494,-8.8543
1043,48.639,-9.7511
1054.7,42.006,-10.033
1066.4,37.045,-7.1092
1078.1,32.516,-6.7084
1089.8,29.476,-6.1153
1101.6,26.231,-6.2816
1113.3,23.163,-5.2107
1125,22.067,-8.2166
1136.7,18.733,-9.7839
1148.4,18.511,-9.252
1160.2,20.949,-10.291
1171.9,16.244,-8.5922
1183.6,17.928,-6.0818
1195.3,15.675,-7.1295
1207,15.724,-7.7595
1218.8,18.554,-5.7521
1230.5,16.738,-7.7659
1242.2,15.807,-6.399
1253.9,13.003,-6.4664
1265.6,12.77,-10.411
1277.3,15.176,-7.3632
1289.1,15.401,-6.1277
1300.8,15.89,-7.5281
1312.5,14.095,-8.2694
1324.2,16.131,-6.5543
1335.9,14.991,-6.2051
1347.7,16.091,-8.5321
1359.4,16.411,-5.7898
1371.1,15.635,-6.5623
1382.8,17.011,-4.229
1394.5,18.095,-4.3355
1406.3,16.506,-7.1844
1418,15.403,-8.0202
1429.7,15.03,-7.1755
1441.4,14.185,-6.9191
1453.1,13.484,-8.0556
1464.8,11.253,-10.161
1476.6,12.554,-12.102
1488.3,11.56,-8.4284
1500,12.688,-6.6969
1511.7,13.812,-6.5087
1523.4,15.943,-5.9423
1535.2,13.4,-4.6161
1546.9,13.746,-8.2579
1558.6,16.865,-9.7758
1570.3,15.528,-8.3682
1582,13.661,-9.1862
1593.8,12.527,-7.8651
1605.5,12.699,-6.9472
1617.2,12.75,-6.8199
1628.9,12.905,-5.0115
1640.6,9.8636,-5.0267
1652.3,10.285,-6.746
1664.1,9.9986,-8.6058
1675.8,13.169,-8.5273
1687.5,14.592,-8.9461
1699.2,12.519,-8.5718
1710.9,16.038,-6.8663
1722.7,17.184,-7.5038
1734.4,15.788,-10.263
1746.1,14.605,-8.1512
1757.8,14.48,-6.3567
1769.5,13.378,-4.1661
1781.3,15.991,-4.0113
1793,16.306,-7.2825
1804.7,16.082,-7.4384
1816.4,17.484,-8.7568
1828.1,15.445,-8.0893
1839.8,16.24,-5.9647
1851.6,17.458,-7.975
1863.3,17.165,-6.2655
1875,14.278,-6.6028
1886.7,15.304,-8.2719
1898.4,14.83,-7.7665
1910.2,15.878,-6.8547
1921.9,14.142,-7.6817
1933.6,16.638,-5.856
1945.3,17.115,-5.688
1957,15.684,-8.1526
1968.8,11.486,-8.3511
1980.5,13.284,-9.0414
1992.2,26.122,-3.4454
2003.9,27.466,-6.3551
2015.6,16.901,-8.4758
2027.3,10.358,-8.6231
2039.1,10.721,-6.4246
2050.8,10.505,-7.7923
2062.5,11.011,-9.6291
2074.2,10.571,-7.5813
2085.9,10.906,-10.732
2097.7,10.534,-8.8912
2109.4,13.338,-6.6891
2121.1,13.421,-6.3963
2132.8,10.616,-7.0881
2144.5,13.554,-4.3496
2156.3,14.566,-5.7155
2168,14.091,-7.5669
2179.7,12.781,-8.1317
2191.4,9.8989,-9.0324
2203.1,10.257,-7.6646
2214.8,14.798,-7.0946
2226.6,14.666,-7.4023
2238.3,16.329,-6.587
2250,16.385,-7.8261
2261.7,12.647,-9.3096
2273.4,10.415,-7.2659
2285.2,10.76,-5.1861
2296.9,12.219,-6.2966
2308.6,10.239,-7.4778
2320.3,9.304,-10.994
2332,9.8736,-11.904
2343.8,11.377,-11.695
2355.5,11.381,-9.8456
2367.2,11.704,-7.1242
2378.9,12.734,-6.8769
2390.6,12.235,-7.5914
2402.3,14.435,-6.9937
2414.1,14.75,-6.5726
2425.8,16.084,-6.8869
2437.5,17.017,-6.9706
2449.2,13.575,-10.406
2460.9,12.815,-7.8905
2472.7,12.764,-7.5981
2484.4,11.946,-10.147
2496.1,11.399,-7.7833
2507.8,11.779,-6.7632
2519.5,14.567,-4.6423
2531.3,16.177,-3.0096
2543,14.986,-3.3447
2554.7,12.242,-6.4822
2566.4,12.57,-8.1735
2578.1,12.281,-5.2835
2589.8,11.841,-5.812
2601.6,14.365,-5.9161
2613.3,11.052,-6.0695
2625,13.879,-5.4018
2636.7,14.322,-8.3173
2648.4,11.121,-8.4453
2660.2,9.8784,-9.6721
2671.9,8.4274,-4.712
2683.6,11.13,-5.7131
2695.3,11.492,-10.284
2707,10.307,-7.4199
2718.8,11.6,-7.4433
2730.5,10.13,-8.4798
2742.2,7.8793,-7.8533
2753.9,10.483,-6.339
2765.6,12.403,-7.333
2777.3,11.98,-5.813
2789.1,9.2541,-8.0654
2800.8,12.383,-7.0998
2812.5,12.863,-6.9569
2824.2,13.737,-7.4527
2835.9,10.701,-6.2546
2847.7,10.493,-6.6955
2859.4,8.2139,-5.9295
2871.1,8.7914,-6.9778
2882.8,12.642,-12.072
2894.5,12.157,-9.6376
2906.3,11.134,-6.7995
2918,12.899,-5.0157
2929.7,12.026,-5.9439
2941.4,12.592,-9.4395
2953.1,9.772,-12.854
2964.8,10.345,-7.4366
2976.6,9.5676,-5.8988
2988.3,10.983,-9.2106
3000,11.386,-6.0388
3011.7,10.504,-6.3727
3023.4,11.941,-8.5954
3035.2,12.38,-7.9852
3046.9,12.095,-6.0716
3058.6,13.299,-7.0863
3070.3,10.547,-7.2254
3082,11.438,-7.3492
3093.8,10.045,-12.662
3105.5,8.6407,-6.7857
3117.2,9.2737,-4.8776
3128.9,8.855,-7.4393
3140.6,8.7937,-6.51
3152.3,10.973,-6.5892
3164.1,12.488,-7.1288
3175.8,13.811,-6.1515
3187.5,13.834,-6.6518
3199.2,13.246,-5.5836
3210.9,12.397,-5.5696
3222.7,10.022,-9.359
3234.4,9.8599,-6.9105
3246.1,11.105,-4.7542
3257.8,13.354,-5.1497
3269.5,13.993,-6.4597
3281.3,13.396,-8.048
3293,9.4448,-9.2823
3304.7,11.296,-9.7552
3316.4,12.082,-5.509
3328.1,12.378,-3.6169
3339.8,11.503,-4.6291
3351.6,8.854,-4.524
3363.3,7.3415,-5.212
3375,9.1925,-7.6514
3386.7,7.7046,-10.043
3398.4,9.6243,-7.9104
3410.2,11.284,-5.9928
3421.9,11.174,-5.8101
3433.6,12.104,-7.3884
3445.3,10.379,-8.1284
3457,9.6247,-8.9037
3468.8,9.2288,-7.3326
3480.5,10.284,-7.8875
3492.2,11.727,-10.868
3503.9,11.906,-10.843
3515.6,11.838,-7.4414
3527.3,11.95,-4.8846
3539.1,8.8276,-5.7663
3550.8,5.8566,-6.051
3562.5,7.0725,-5.3877
3574.2,8.4144,-8.4015
3585.9,9.2548,-10.428
3597.7,11.369,-8.0951
3609.4,9.3985,-7.3479
3621.1,9.9228,-9.3585
3632.8,7.8197,-8.2773
3644.5,8.0623,-7.4232
3656.3,12.384,-9.593
3668,11.382,-8.6037
3679.7,10.904,-7.6287
3691.4,10.443,-8.2255
3703.1,11.027,-5.0029
3714.8,9.3769,-4.3082
3726.6,8.3422,-7.6526
3738.3,9.984,-8.7001
3750,7.8727,-9.2142
3761.7,5.9532,-10.632
3773.4,7.2199,-9.6196
3785.2,10.382,-9.616
3796.9,8.6083,-10.786
3808.6,7.7076,-7.5862
3820.3,6.0835,-7.8319
3832,9.5181,-9.5212
3843.8,11.196,-8.2992
3855.5,6.3395,-7.6932
3867.2,6.7738,-7.1426
3878.9,8.9869,-5.8429
3890.6,11,-8.0931
3902.3,9.6539,-7.3125
3914.1,10.735,-6.6606
3925.8,9.7449,-7.4797
3937.5,11.49,-9.7326
3949.2,10.19,-6.6698
3960.9,8.2099,-4.9353
3972.7,7.637,-5.1768
3984.4,10.414,-6.4417
3996.1,10.879,-7.2421
4007.8,11.892,-8.088
4019.5,11.843,-8.7849
4031.3,13.04,-9.193
4043,11.24,-8.6359
4054.7,7.751,-7.789
4066.4,6.2286,-8.2721
4078.1,6.3589,-9.2151
4089.8,7.3367,-9.087
4101.6,11.478,-8.9653
4113.3,11.37,-7.3163
4125,9.7605,-8.6839
4136.7,8.7769,-9.2236
4148.4,8.2427,-7.1853
4160.2,9.7132,-7.488
4171.9,9.1094,-9.4486
4183.6,7.6645,-6.5145
4195.3,7.2714,-6.9961
4207,7.3259,-6.4601
4218.8,8.4361,-6.764
4230.5,9.3036,-8.727
4242.2,5.4526,-9.0108
4253.9,10.742,-7.562
4265.6,11.625,-7.8721
4277.3,8.581,-9.2286
4289.1,6.5364,-8.559
4300.8,6.9451,-9.4585
4312.5,9.5605,-10.247
4324.2,9.4064,-10.731
4335.9,5.4962,-10.329
4347.7,7.5474,-7.3069
4359.4,8.445,-4.5633
4371.1,10.026,-6.9048
4382.8,6.7999,-8.3825
4394.5,9.6946,-8.2255
4406.3,9.7504,-11.321
4418,8.8613,-7.8805
4429.7,10.106,-5.3523
4441.4,6.5867,-8.7666
4453.1,8.5377,-6.9627
4464.8,10.787,-5.9431
4476.6,11.411,-7.8941
4488.3,10.481,-9.1407
4500,10.989,-10.478
4511.7,9.8744,-8.4449
4523.4,4.9819,-9.7331
4535.2,7.1151,-10.752
4546.9,9.4407,-8.1132
4558.6,6.5045,-4.2282
4570.3,7.1305,-6.0503
4582,9.0637,-7.7305
4593.8,10.91,-8.0331
4605.5,9.2155,-8.0596
4617.2,8.4672,-9.0536
4628.9,9.9608,-7.998
4640.6,7.1466,-7.7703
4652.3,4.464,-8.6989
4664.1,4.5217,-7.8149
4675.8,4.3245,-6.6209
4687.5,4.1273,-8.3441
4699.2,8.5572,-9.4696
4710.9,10.515,-6.811
4722.7,8.03,-5.7303
4734.4,8.2051,-6.0217
4746.1,8.0081,-7.6377
4757.8,7.5635,-8.2526
4769.5,6.9657,-6.9873
4781.3,7.0736,-8.242
4793,5.6792,-8.8414
4804.7,5.3857,-8.9382
4816.4,3.5925,-7.4152
4828.1,5.1001,-7.545
4839.8,5.4548,-5.7359
4851.6,4.7751,-5.9745
4863.3,5.4797,-7.2889
4875,5.8329,-8.202
4886.7,8.6202,-9.8246
4898.4,7.4553,-11.768
4910.2,7.3796,-9.3127
4921.9,5.6396,-6.1184
4933.6,6.0713,-6.031
4945.3,6.2608,-6.4637
4957,7.64,-8.8923
4968.8,6.0689,-8.4253
4980.5,5.6004,-10.513
4992.2,8.7668,-9.8448
5003.9,8.9623,-6.529
5015.6,7.2717,-4.9732
5027.3,9.5075,-8.6483
5039.1,8.466,-7.0474
5050.8,7.8781,-8.1267
5062.5,7.3662,-7.2692
5074.2,8.0374,-6.2887
5085.9,7.6217,-7.3645
5097.7,8.6841,-8.2646
5109.4,6.8106,-9.5261
5121.1,6.986,-11.958
5132.8,6.3348,-9.2197
5144.5,5.5984,-5.779
5156.3,6.9034,-6.2944
5168,5.2684,-7.2049
5179.7,5.1916,-6.0265
5191.4,6.9178,-6.5814
5203.1,7.6564,-7.2661
5214.8,7.4871,-9.4247
5226.6,7.8752,-10.162
5238.3,6.2824,-9.4302
5250,5.3071,-8.5741
5261.7,5.8047,-8.2448
5273.4,6.3944,-8.9242
5285.2,7.9927,-4.9533
5296.9,8.108,-6.4337
5308.6,9.8682,-9.1813
5320.3,8.1884,-10.061
5332,5.5266,-8.4283
5343.8,7.2853,-7.9672
5355.5,7.1501,-10.059
5367.2,5.7566,-10.366
5378.9,4.306,-7.9574
5390.6,3.3822,-7.3515
5402.3,3.4282,-13.843
5414.1,5.4747,-8.7886
5425.8,8.104,-9.9496
5437.5,8.885,-10.213
5449.2,7.5382,-9.1026
5460.9,6.3208,-4.5133
5472.7,4.3205,-3.3492
5484.4,7.0066,-5.3263
5496.1,6.3369,-8.6385
5507.8,6.618,-6.4651
5519.5,4.6374,-9.5851
5531.3,7.3214,-8.0653
5543,5.2463,-6.9398
5554.7,7.474,-7.4654
5566.4,8.9262,-6.7213
5578.1,5.4541,-7.3811
5589.8,5.5607,-5.641
5601.6,7.4285,-5.4386
5613.3,6.493,-7.9112
5625,8.0546,-11.562
5636.7,5.9487,-10.496
5648.4,3.6641,-9.543
5660.2,6.1208,-7.5019
5671.9,7.2315,-9.3207
5683.6,6.4147,-8.0501
5695.3,7.3572,-7.1396
5707,6.1913,-8.0299
5718.8,5.3708,-10.256
5730.5,6.5023,-10.511
5742.2,5.2583,-7.0042
5753.9,3.8039,-8.2807
5765.6,6.1495,-7.8155
5777.3,6.5954,-6.3783
5789.1,6.688,-9.5685
5800.8,1.7239,-8.6454
5812.5,6.3029,-7.2978
5824.2,6.4454,-8.0412
5835.9,6.4748,-4.2182
5847.7,6.222,-6.8266
5859.4,3.9096,-7.59
5871.1,6.4778,-6.3778
5882.8,7.9194,-7.1431
5894.5,6.7957,-7.3084
5906.3,6.4623,-5.919
5918,6.4311,-6.5862
5929.7,3.5495,-8.4846
5941.4,3.5425,-8.7251
5953.1,3.9209,-9.5366
5964.8,1.7241,-8.9506
5976.6,4.4711,-6.6398
5988.3,5.044,-3.972
6000,5.6883,-5.4762
6011.7,3.3357,-8.3139
6023.4,3.0917,-8.7162
6035.2,3.5087,-10.117
6046.9,4.592,-10.092
6058.6,4.9409,-7.632
6070.3,7.1905,-8.5937
6082,3.7549,-11.322
6093.8,0.28816,-9.104
6105.5,4.0762,-7.132
6117.2,2.9123,-7.4941
6128.9,4.9445,-7.8816
6140.6,2.4766,-9.5869
6152.3,4.0172,-12.726
6164.1,8.0825,-10.371
6175.8,7.8955,-7.9743
6187.5,6.4127,-8.4917
6199.2,5.3204,-9.5335
6210.9,4.7018,-5.9176
6222.7,3.9779,-5.6427
6234.4,5.6712,-6.0605
6246.1,4.0699,-8.332
6257.8,5.5398,-7.6329
6269.5,6.6504,-5.6399
6281.3,7.2666,-6.7903
6293,7.913,-9.9641
6304.7,8.002,-12.5
6316.4,6.8528,-11.377
6328.1,6.8502,-10.278
6339.8,5.1251,-6.9056
6351.6,3.0312,-6.9384
6363.3,4.4517,-8.4538
6375,4.7292,-8.1073
6386.7,6.9423,-7.2603
6398.4,3.7695,-5.4191
6410.2,3.9249,-6.2992
6421.9,2.4477,-9.2389
6433.6,3.5312,-9.176
6445.3,1.8523,-11.441
6457,1.2905,-13.149
6468.8,2.479,-11.629
6480.5,3.4849,-11.176
6492.2,5.1237,-9.5196
6503.9,5.6659,-7.786
6515.6,4.6046,-10.664
6527.3,2.209,-10.413
6539.1,2.9989,-8.8011
6550.8,4.5833,-9.492
6562.5,4.1821,-9.7879
6574.2,1.3164,-7.8002
6585.9,1.7397,-7.6782
6597.7,1.6628,-6.765
6609.4,2.4941,-9.8209
6621.1,5.1547,-9.9402
6632.8,6.1518,-9.9149
6644.5,5.0643,-9.1935
6656.3,3.9023,-8.8137
6668,2.6587,-8.4592
6679.7,3.1516,-8.4905
6691.4,3.8286,-9.1768
6703.1,2.2928,-8.7094
6714.8,2.7453,-9.6935
6726.6,4.2247,-8.9161
6738.3,3.3089,-8.2255
6750,3.0509,-5.9418
6761.7,5.4251,-6.6327
6773.4,5.8748,-8.5231
6785.2,4.424,-6.6767
6796.9,5.6858,-7.3818
6808.6,7.0041,-8.4938
6820.3,7.2643,-9.4419
6832,8.075,-8.8555
6843.8,6.1892,-6.1371
6855.5,2.1168,-6.8429
6867.2,2.1851,-7.2877
6878.9,3.2131,-10.707
6890.6,2.8118,-8.9158
6902.3,1.3245,-5.8597
6914.1,-0.17046,-6.7345
6925.8,0.72966,-9.4012
6937.5,2.6731,-10.653
6949.2,3.1126,-12.503
6960.9,1.5613,-10.82
6972.7,5.0665,-9.8986
6984.4,4.3109,-9.4876
6996.1,1.398,-8.0838
7007.8,0.85475,-6.9512
7019.5,-0.24954,-8.3781
7031.3,0.33534,-8.7203
7043,3.169,-8.1459
7054.7,7.0198,-8.2848
7066.4,3.9322,-9.5307
7078.1,3.4964,-9.1929
7089.8,2.8528,-9.5162
7101.6,2.2826,-8.9084
7113.3,2.4705,-10.393
7125,2.3918,-9.4708
7136.7,1.238,-10.916
7148.4,5.9229,-8.9939
7160.2,4.6691,-7.226
7171.9,0.36547,-7.4562
7183.6,4.0735,-11.811
7195.3,4.5102,-8.5464
7207,4.4218,-8.5093
7218.8,3.3151,-10.173
7230.5,3.139,-6.6045
7242.2,2.2714,-9.2759
7253.9,3.4922,-7.7668
7265.6,1.913,-8.3364
7277.3,2.6844,-11.834
7289.1,0.91841,-11.77
7300.8,1.4597,-11.211
7312.5,4.1643,-9.6654
7324.2,3.6123,-10.583
7335.9,2.1099,-6.4141
7347.7,2.4876,-6.6159
7359.4,4.4237,-12.485
7371.1,2.8119,-15.188
7382.8,5.7255,-11.881
7394.5,5.1858,-9.5092
7406.3,0.59418,-10.458
7418,4.6258,-13.555
7429.7,4.6008,-11.635
7441.4,1.1345,-9.5994
7453.1,2.496,-9.5033
7464.8,2.7689,-11.295
7476.6,1.6053,-9.1381
7488.3,3.7464,-9.2596
7500,3.2939,-13.026
7511.7,3.1226,-9.2029
7523.4,2.5748,-9.7573
7535.2,4.1865,-12.417
7546.9,3.784,-12.41
7558.6,4.7873,-11.757
7570.3,4.9509,-12.528
7582,3.3998,-8.8573
7593.8,1.3534,-5.9495
7605.5,2.3357,-8.2155
7617.2,3.7231,-11.108
7628.9,2.1032,-11.285
7640.6,2.9317,-9.1019
7652.3,2.6619,-8.3877
7664.1,0.80874,-12.367
7675.8,1.5258,-8.2359
7687.5,1.784,-7.384
7699.2,1.0187,-6.8259
7710.9,-2.7808,-8.8267
7722.7,-1.3185,-6.6601
7734.4,2.6886,-8.1276
7746.1,3.1386,-11.3
7757.8,1.9493,-11.171
7769.5,1.6174,-7.8911
7781.3,6.4065,-7.4121
7793,2.5126,-11.889
7804.7,-0.32854,-10.834
7816.4,2.9784,-9.131
7828.1,4.4091,-8.9265
7839.8,3.147,-8.8713
7851.6,3.0267,-11.825
7863.3,3.34,-11.15
7875,3.3658,-11.85
7886.7,4.4392,-10.015
7898.4,2.4661,-8.8772
7910.2,0.59994,-7.2581
7921.9,-0.2221,-6.9596
7933.6,3.8626,-9.0833
7945.3,4.6079,-11.143
7957,4.4612,-12.78
7968.8,1.4119,-11.345
7980.5,4.1777,-10.183
7992.2,3.2789,-8.6532
8003.9,1.2376,-10.274
8015.6,0.70555,-10.744
8027.3,1.0937,-7.0061
8039.1,1.8435,-9.89
8050.8,1.4467,-12.672
8062.5,2.9307,-9.5114
8074.2,2.7495,-8.043
8085.9,1.5961,-8.1054
8097.7,2.2468,-9.9012
8109.4,0.86924,-8.7462
8121.1,-0.24031,-9.9888
8132.8,1.3596,-11.786
8144.5,3.3955,-11.426
8156.3,3.6197,-11.3
8168,0.014503,-10.884
8179.7,2.1203,-11.471
8191.4,5.7392,-10.278
8203.1,2.6343,-11.417
8214.8,0.33133,-9.9822
8226.6,4.3534,-8.7204
8238.3,4.097,-10.091
8250,2.7646,-6.5582
8261.7,1.4245,-7.6433
8273.4,4.0597,-12.515
8285.2,2.8431,-10.742
8296.9,1.044,-11.1
8308.6,4.5094,-12.281
8320.3,4.9617,-14.161
8332,0.13726,-11.677
8343.8,0.8558,-9.5431
8355.5,2.79,-11.232
8367.2,3.5221,-9.8887
8378.9,1.6925,-8.829
8390.6,1.8504,-6.7741
8402.3,-1.0056,-6.453
8414.1,0.66076,-11.184
8425.8,1.4816,-13.268
8437.5,1.4117,-12.2
8449.2,1.8748,-8.7835
8460.9,1.8296,-7.4286
8472.7,1.0881,-9.4634
8484.4,3.8167,-9.0717
8496.1,1.4726,-9.1291
8507.8,1.9926,-9.2217
8519.5,3.8366,-10.256
8531.3,3.72,-7.2555
8543,1.6851,-7.6843
8554.7,0.92028,-9.5362
8566.4,0.83405,-7.9217
8578.1,0.088517,-7.2733
8589.8,4.0764,-10.053
8601.6,1.4088,-9.7096
8613.3,-2.7928,-12.101
8625,0.50386,-10.441
8636.7,3.6704,-11.47
8648.4,1.4939,-10.743
8660.2,-0.77372,-9.5781
8671.9,1.0962,-10.916
8683.6,-1.1961,-11.332
8695.3,-0.11226,-8.7197
8707,1.8445,-9.4498
8718.8,2.9866,-12.116
8730.5,5.1092,-11.462
8742.2,2.1685,-10.773
8753.9,2.8746,-10.288
8765.6,0.55192,-9.8906
8777.3,0.45679,-12.111
8789.1,1.0017,-11.356
8800.8,0.16519,-9.331
8812.5,2.0249,-8.9565
8824.2,1.9058,-12.617
8835.9,1.0439,-12.801
8847.7,0.99597,-11.648
8859.4,0.98175,-10.073
8871.1,3.2068,-10.409
8882.8,1.676,-13.967
8894.5,0.11974,-11.786
8906.3,-1.3335,-10.401
8918,2.2081,-8.6187
8929.7,3.5601,-10.756
8941.4,-0.44055,-12.315
8953.1,0.59765,-12.797
8964.8,0.56772,-9.7577
8976.6,2.2277,-11.851
8988.3,3.1052,-9.3136
9000,-0.74182,-10.931
9011.7,1.2185,-12.946
9023.4,2.2688,-11.885
9035.2,1.5329,-10.83
9046.9,0.67761,-10.631
9058.6,0.6659,-10.493
9070.3,-0.23143,-10.567
9082,-0.60152,-10.584
9093.8,0.17029,-11.88
9105.5,-1.0835,-10.902
9117.2,-1.877,-11.023
9128.9,2.4016,-11.942
9140.6,1.6248,-11.063
9152.3,1.0684,-8.1347
9164.1,2.134,-8.6348
9175.8,1.7066,-10.708
9187.5,0.62726,-10.468
9199.2,-1.5145,-11.34
9210.9,-0.93112,-12.31
9222.7,0.33933,-12.663
9234.4,-0.064092,-12.316
9246.1,-0.74703,-10.726
9257.8,-0.025997,-11.363
9269.5,-1.0276,-12.165
9281.3,0.036446,-11.301
9293,0.85174,-10.748
9304.7,0.89242,-9.1217
9316.4,1.3778,-7.9148
9328.1,-0.87297,-9.5042
9339.8,0.37888,-13.424
9351.6,-2.4478,-10.755
9363.3,-2.4532,-9.5298
9375,-1.3384,-9.8195
9386.7,0.36546,-10.36
9398.4,2.0569,-10.073
9410.2,1.1805,-10.894
9421.9,-1.301,-10.551
9433.6,2.1668,-6.3658
9445.3,3.6103,-9.8709
9457,2.2401,-11.563
9468.8,3.1763,-9.1171
9480.5,1.1952,-6.7487
9492.2,2.3084,-7.6953
9503.9,1.7928,-11.586
9515.6,3.2581,-11.212
9527.3,2.1857,-14.36
9539.1,-0.89314,-14.482
9550.8,-0.82472,-15.654
9562.5,0.75143,-13.367
9574.2,3.7459,-10.208
9585.9,1.8207,-11.498
9597.7,-2.302,-14.828
9609.4,1.9261,-12.877
9621.1,3.115,-10.441
9632.8,1.3151,-9.6704
9644.5,-2.0717,-10.647
9656.3,-1.1076,-12.238
9668,-1.0996,-10.164
9679.7,0.95123,-11.704
9691.4,1.7395,-12.101
9703.1,-2.1336,-11.697
9714.8,-1.0298,-15.314
9726.6,-1.1976,-13.553
9738.3,-2.4909,-12.534
9750,-3.2153,-11.989
9761.7,-2.2301,-8.5968
9773.4,-1.5958,-8.2862
9785.2,0.90304,-9.6826
9796.9,3.2959,-11.167
9808.6,-1.287,-11.927
9820.3,-1.9766,-13.217
9832,1.1159,-12.471
9843.8,2.2468,-11.185
9855.5,0.26703,-11.549
9867.2,-0.9005,-8.877
9878.9,-0.26298,-10.859
9890.6,-2.3747,-10.583
9902.3,0.69592,-9.8085
9914.1,-0.66913,-9.3217
9925.8,-1.9699,-8.8318
9937.5,-2.0126,-8.4701
9949.2,-0.47076,-8.4414
9960.9,-1.8902,-8.8066
9972.7,-1.0135,-8.9893
9984.4,-0.063953,-8.892
9996.1,-0.81641,-9.3612
10008,1.6846,-10.067
10020,2.4275,-14.571
10031,0.72905,-11.649
10043,-2.1631,-8.7094
10055,-4.9089,-5.2892
10066,-3.8341,-5.4991
10078,-2.4613,-6.9714
10090,-0.83312,-7.955
10102,-0.83127,-9.7427
10113,-3.7452,-11.646
10125,-4.3472,-10.289
10137,-0.084084,-9.5789
10148,0.15491,-10.549
10160,-0.31463,-10.799
10172,-0.34957,-10.546
10184,2.3395,-11.161
10195,0.12649,-10.371
10207,-0.36032,-13.24
10219,-0.44679,-11.084
10230,-0.81317,-14.938
10242,0.14179,-12.225
10254,0.68564,-11.623
10266,-1.7319,-13.121
10277,1.2723,-13.314
10289,0.52839,-11.364
10301,0.78163,-11.962
10313,-0.081571,-11.295
10324,-5.1756,-9.3117
10336,-2.9851,-7.9373
10348,-2.6843,-11.175
10359,-1.436,-12.059
10371,-2.2562,-10.043
10383,1.0428,-12.402
10395,4.0805,-10.491
10406,0.83945,-10.62
10418,-1.0298,-11.807
10430,-2.0682,-12.483
10441,-1.9474,-11.623
10453,-1.862,-12.322
10465,-0.52008,-11.892
10477,-1.4624,-11.816
10488,-1.7528,-10.199
10500,-1.2093,-9.8728
10512,-3.9906,-11.583
10523,0.062178,-9.744
10535,-0.97826,-11.222
10547,-2.1394,-11.375
10559,0.28578,-11.263
10570,0.93071,-11.457
10582,0.95787,-10.481
10594,2.4302,-11.315
10605,-1.6865,-12.835
10617,-0.79644,-14.041
10629,-0.39533,-12.431
10641,-3.6722,-11.335
10652,-3.8548,-10.638
10664,-0.9373,-11.118
10676,-1.7639,-13.314
10688,-4.1086,-13.539
10699,-3.2145,-11.407
10711,-1.9956,-13.419
10723,-1.9438,-13.474
10734,-1.7429,-14.027
10746,-1.1676,-15.367
10758,-0.55292,-15.088
10770,0.025553,-12.274
10781,-0.32808,-10.987
10793,-2.5471,-10.771
10805,-4.1011,-9.7806
10816,-2.5891,-13.453
10828,-0.92735,-10.863
10840,-1.6457,-12.673
10852,-4.9406,-12.446
10863,-3.4114,-9.8813
10875,-1.7413,-10.805
10887,-2.1399,-15.12
10898,-3.4152,-15.003
10910,-6.1026,-10.718
10922,-3.9917,-11.517
10934,-3.9332,-9.6822
10945,-3.1718,-9.1045
10957,-0.95507,-10.34
10969,-1.4846,-10.48
10980,-1.6265,-11.818
10992,-0.77632,-14.106
11004,-0.30955,-8.2048
11016,-0.65553,-9.5837
11027,-1.4041,-14.042
11039,-3.2951,-11.779
11051,-4.6276,-13.108
11063,-3.648,-11.601
11074,-2.3809,-12.77
11086,-3.7501,-14.047
11098,-2.2558,-13.507
11109,-1.5104,-11.512
11121,-0.84306,-10.514
11133,-1.4658,-12.682
11145,-1.2957,-14.512
11156,-1.0585,-14.711
11168,-0.7711,-15.627
11180,-2.5909,-12.356
11191,-2.0119,-12.377
11203,-0.89848,-10.961
11215,-5.231,-10.925
11227,-3.9442,-10.607
11238,1.0359,-9.3375
11250,0.89208,-9.4465
11262,-2.4555,-11.695
11273,-4.1403,-13.865
11285,-1.2759,-13.073
11297,-1.2088,-12.685
11309,-3.5538,-12.615
11320,-4.1419,-13.517
11332,-1.3028,-14.328
11344,-0.96245,-11.7
11355,-2.8775,-13.788
11367,-2.7895,-9.999
11379,-0.4181,-10.33
11391,-2.4767,-12.712
11402,-1.5893,-12.223
11414,-0.33842,-10.062
11426,1.5054,-10.464
11438,0.037164,-12.529
11449,-2.7426,-10.291
11461,-5.0041,-10.807
11473,-2.8561,-13.415
11484,-2.9775,-13.702
11496,-3.448,-12.416
11508,0.18777,-13.355
11520,1.9102,-12.767
11531,-1.2453,-16.604
11543,-3.9104,-13.35
11555,-5.5674,-14.446
11566,-5.1939,-12.308
11578,-4.2086,-9.816
11590,-2.4301,-10.334
11602,-2.1482,-16.136
11613,-2.5577,-12.557
11625,-1.4768,-11.805
11637,-2.416,-9.8619
11648,-1.9496,-12.359
11660,-3.1553,-16.307
11672,-4.1694,-13.221
11684,-3.7614,-14.352
11695,0.16446,-10.772
11707,1.4741,-10.391
11719,-1.0314,-10.46
11730,-1.4385,-9.9862
11742,-0.17372,-12.542
11754,0.79584,-13.468
11766,-0.083108,-11.004
11777,-1.1721,-10.397
11789,-2.277,-12.642
11801,-1.9643,-11.571
11813,-4.5579,-12.964
11824,-8.6089,-12.618
11836,-8.0497,-11.416
11848,-3.2948,-12.388
11859,-1.7456,-15.208
11871,-0.97513,-16.163
11883,-0.60052,-13.902
11895,-4.5316,-12.811
11906,-4.5929,-12.237
11918,-4.9957,-12.406
11930,-2.0864,-12.563
11941,-3.1292,-12.177
11953,-3.7258,-12.776
11965,-1.8646,-12.679
11977,-0.87591,-13.158
11988,-2.8649,-13.08
12000,-0.98004,-13.274
12012,-1.7368,-12.018
12023,-2.7747,-14.224
12035,-5.691,-13.676
12047,-3.2641,-12.212
12059,-2.7491,-13.683
12070,-2.4509,-13.71
12082,0.48626,-10.724
12094,-1.8911,-11.887
12105,-4.8786,-13.487
12117,-3.9486,-15.491
12129,-3.1941,-14.093
12141,0.27971,-10.694
12152,0.17629,-9.2389
12164,-1.2372,-9.9445
12176,0.86134,-8.9912
12188,-0.33351,-8.8049
12199,-0.94924,-10.238
12211,-2.4606,-10.246
12223,-5.1592,-10.756
12234,-3.4477,-11.408
12246,-2.2216,-14.121
12258,-3.4162,-13.282
12270,-3.9022,-13.49
12281,-2.7666,-13.228
12293,-4.0568,-15.092
12305,-2.3899,-14.249
12316,-1.8149,-13.442
12328,-5.404,-13.29
12340,-3.8884,-15.353
12352,-2.6424,-14.035
12363,-3.6738,-14.038
12375,-2.5006,-17.385
12387,-7.2311,-14.453
12398,-3.0282,-12.23
12410,-1.8281,-13.848
12422,-3.1695,-13.092
12434,-0.70022,-14.069
12445,-1.1827,-13.501
12457,-0.4301,-10.719
12469,0.48895,-11.624
12480,-2.3084,-14.272
12492,-5.4299,-15.805
12504,-2.5779,-14.06
12516,-7.0145,-11.513
12527,-4.6848,-13.622
12539,-1.6956,-13.436
12551,-4.0917,-12.318
12563,-4.3301,-9.6786
12574,-2.6712,-9.2804
12586,-1.5801,-12.165
12598,-2.8669,-14.687
12609,-2.3795,-14.289
12621,-4.8927,-12.848
12633,-12.185,-13.963
12645,-7.3726,-14.009
12656,-1.6854,-13.856
12668,0.19764,-13.961
12680,-1.6047,-12.493
12691,-0.89981,-11.478
12703,-2.0987,-12.239
12715,-2.1577,-10.636
12727,-0.68174,-10.115
12738,-1.5572,-12.996
12750,-3.297,-13.889
12762,-4.1014,-13.411
12773,-4.812,-12.444
12785,-3.2249,-12.259
12797,-3.2954,-12.099
12809,-3.0478,-11.832
12820,-4.3568,-12.971
12832,-2.323,-14.023
12844,-3.0051,-14.879
12855,-4.0209,-14.198
12867,-3.2387,-15.774
12879,-4.002,-16.404
12891,-2.898,-15.766
12902,-2.8674,-16.095
12914,-4.0051,-14.251
12926,-3.9645,-15.085
12938,-1.2243,-11.624
12949,-1.6339,-8.2101
12961,-4.0309,-10.875
12973,-3.0001,-13.663
12984,-3.8789,-14.766
12996,-3.6795,-16.514
13008,-2.5698,-14.945
13020,-3.825,-12.987
13031,-5.4416,-12.393
13043,-5.7043,-12.252
13055,-6.058,-12.558
13066,-5.4818,-14.386
13078,-2.4724,-14.348
13090,-3.1437,-14.363
13102,-4.5017,-13.492
13113,-5.2537,-9.2251
13125,-5.5209,-11.312
13137,-6.1228,-14.041
13148,-0.59732,-10.977
13160,-1.4654,-10.897
13172,-2.6218,-13.457
13184,-1.4535,-16.077
13195,-4.4624,-13.455
13207,-3.2969,-12.226
13219,-5.8104,-13.996
13230,-4.2721,-13.43
13242,-2.6082,-15.821
13254,-2.145,-16.174
13266,-3.1645,-14.85
13277,-5.8983,-13.486
13289,-7.2611,-14.273
13301,-9.5545,-13.304
13313,-3.5242,-12.981
13324,-2.0557,-15.39
13336,-2.1725,-16.976
13348,-6.5744,-16.642
13359,-6.7427,-16.116
13371,-6.8521,-14.974
13383,-3.4304,-10.38
13395,-3.1537,-13.212
13406,-6.0282,-13.557
13418,-4.7398,-15.277
13430,-3.3997,-13.612
13441,-3.5851,-12.76
13453,-4.715,-11.099
13465,-5.27,-11.462
13477,-3.6928,-12.032
13488,-5.12,-13.922
13500,-8.5017,-15.574
13512,-9.815,-16.597
13523,-3.5239,-17.274
13535,-2.5673,-15.561
13547,-3.2061,-15.645
13559,-2.6485,-13.523
13570,-3.0463,-12.557
13582,-3.2548,-14.464
13594,-4.1471,-13.267
13605,-5.8326,-15.321
13617,-8.6069,-14.334
13629,-3.6648,-13.585
13641,-4.1634,-15.097
13652,-6.7542,-15.264
13664,-5.9082,-15.109
13676,-4.1083,-15.898
13688,-3.634,-13.668
13699,-5.2359,-16.019
13711,-1.7945,-16.205
13723,-2.9154,-14.692
13734,-5.374,-12.739
13746,-6.98,-12.511
13758,-6.2266,-15.333
13770,-6.1281,-18.852
13781,-3.8828,-14.536
13793,-3.0289,-17.212
13805,-5.8846,-13.117
13816,-3.6955,-13.294
13828,-3.4773,-13.681
13840,-8.5122,-12.49
13852,-6.2086,-13.283
13863,-3.4941,-14.082
13875,-6.2796,-12.215
13887,-3.0534,-15.651
13898,-2.7943,-12.529
13910,-5.2062,-11.801
13922,-2.8285,-12.425
13934,-3.2626,-13.015
13945,-0.41269,-14.189
13957,-3.8597,-13.065
13969,-5.8226,-13.672
13980,-6.2745,-13.474
13992,-4.151,-12.66
14004,-5.2212,-14.363
14016,-4.855,-13.692
14027,-5.9222,-14.401
14039,-7.5239,-15.688
14051,-6.9203,-17.494
14063,-7.2315,-15.167
14074,-7.3893,-15.384
14086,-7.2069,-15.914
14098,-8.7219,-16.878
14109,-6.4684,-12.67
14121,-7.1132,-10.21
14133,-6.1636,-10.343
14145,-7.9106,-12.013
14156,-6.6204,-12.779
14168,-5.4423,-12.309
14180,-6.4924,-12.234
14191,-3.3296,-12.179
14203,-4.913,-13.76
14215,-7.9268,-14.262
14227,-9.1856,-14.198
14238,-5.8934,-11.936
14250,-4.5295,-12.154
14262,-4.1374,-15.324
14273,-5.9008,-12.44
14285,-4.4904,-13.174
14297,-2.1463,-15.778
14309,-3.2579,-14.111
14320,-6.8999,-14.862
14332,-8.4373,-15.209
14344,-6.7104,-13.556
14355,-5.758,-14.025
14367,-5.2478,-18.701
14379,-6.3306,-14.723
14391,-4.6381,-16.012
14402,-5.9625,-17.348
14414,-4.1454,-15.662
14426,-3.9608,-15.754
14438,-7.7828,-15.142
14449,-4.4103,-13.122
14461,-3.9828,-14.581
14473,-8.3767,-15.009
14484,-10.955,-11.947
14496,-9.6587,-13.356
14508,-6.3744,-15.492
14520,-5.1394,-15.223
14531,-4.9428,-17.841
14543,-4.0311,-18.412
14555,-4.5419,-14.973
14566,-4.073,-14.431
14578,-5.193,-14.978
14590,-5.3764,-15.214
14602,-6.6255,-15.866
14613,-3.6667,-17.706
14625,-1.4267,-18.18
14637,-5.2511,-17.709
14648,-6.9934,-14.179
14660,-8.666,-16.029
14672,-4.0957,-13.154
14684,-3.1344,-17.388
14695,-6.5148,-16.56
14707,-4.2095,-14.305
14719,-2.8217,-13.189
14730,-4.213,-13.096
14742,-4.2245,-15.932
14754,-8.5551,-13.538
14766,-6.4474,-15.35
14777,-5.0126,-12.315
14789,-5.255,-12.317
14801,-5.3681,-13.464
14813,-4.417,-13.03
14824,-5.4964,-13.584
14836,-5.932,-16.796
14848,-7.9136,-13.739
14859,-8.3171,-13.341
14871,-10.347,-16.656
14883,-8.0234,-15.556
14895,-6.4319,-15.204
14906,-9.6345,-15.695
14918,-9.3206,-14.306
14930,-6.488,-14.843
14941,-7.4039,-16.312
14953,-7.0349,-17.083
14965,-8.2285,-15.967
14977,-7.9183,-13.534
14988,-7.3348,-15.051
15000,-6.9084,-14.007
15012,-6.3868,-12.872
15023,-7.9159,-12.809
15035,-6.0442,-13.722
15047,-3.4563,-13.263
15059,-3.4227,-15.848
15070,-6.3485,-15.054
15082,-7.5944,-16.346
15094,-4.2415,-14.174
15105,-3.4514,-10.958
15117,-6.5342,-11.256
15129,-6.6449,-13.561
15141,-7.4396,-18.488
15152,-7.1507,-16.394
15164,-7.4311,-16.067
15176,-6.0993,-14.595
15188,-8.0436,-13.652
15199,-9.1196,-14.672
15211,-6.338,-14.942
15223,-4.6664,-15.445
15234,-5.1063,-15.89
15246,-10.146,-11.071
15258,-10.692,-12.371
15270,-6.1084,-15.109
15281,-3.7558,-14.68
15293,-5.7901,-13.59
15305,-7.615,-16.19
15316,-6.4953,-12.994
15328,-5.475,-16.112
15340,-6.6558,-15.32
15352,-9.1646,-15.678
15363,-8.3148,-15.36
15375,-7.2848,-16.755
15387,-9.5514,-16.336
15398,-11.232,-16.337
15410,-11.352,-16.8
15422,-10.839,-18.484
15434,-7.6884,-17.038
15445,-5.2505,-15.212
15457,-8.8663,-19.861
15469,-8.7715,-15.794
15480,-8.3984,-13.468
15492,-4.6705,-16.812
15504,-3.4119,-17.251
15516,-4.6939,-16.473
15527,-5.2433,-14.258
15539,-7.936,-16.499
15551,-6.1634,-17.323
15563,-5.3811,-18.199
15574,-8.1547,-15.59
15586,-8.8198,-14.765
15598,-7.268,-18.168
15609,-8.5983,-16.31
15621,-11.384,-15.166
15633,-8.9088,-16.37
15645,-5.7833,-14.953
15656,-7.5782,-16.017
15668,-11.817,-16.412
15680,-7.729,-14.551
15691,-8.0737,-15.772
15703,-10.969,-12.743
15715,-8.3648,-12.576
15727,-8.4272,-16.416
15738,-6.9454,-16.001
15750,-7.0057,-14.832
15762,-6.5915,-14.225
15773,-6.1828,-13.773
15785,-8.4305,-12.678
15797,-6.8225,-11.522
15809,-8.4752,-14.289
15820,-8.002,-19.197
15832,-5.8582,-18.693
15844,-7.5762,-16.172
15855,-8.0628,-16.422
15867,-8.899,-16.16
15879,-7.5517,-15.808
15891,-6.8073,-15.078
15902,-8.922,-15.197
15914,-12.025,-15.404
15926,-11.025,-18.222
15938,-9.465,-16.635
15949,-5.3429,-15.827
15961,-4.2234,-15.59
15973,-6.1327,-15.012
15984,-10.015,-16.254
15996,-10.454,-12.302
16008,-7.6311,-12.032
16020,-7.5112,-16.358
16031,-11.119,-16.783
16043,-5.8268,-18.627
16055,-4.192,-16.183
16066,-9.2541,-15.452
16078,-8.9628,-15.273
16090,-7.4509,-15.986
16102,-8.5399,-14.06
16113,-9.5573,-14.415
16125,-10.563,-16.767
16137,-9.418,-18.712
16148,-9.2504,-16.682
16160,-8.7477,-13.583
16172,-6.9882,-17.969
16184,-7.2925,-15.27
16195,-8.3915,-16.974
16207,-6.5408,-11.494
16219,-5.002,-11.43
16230,-7.9858,-16.488
16242,-9.6332,-16.764
16254,-9.5072,-15.126
16266,-7.6254,-14.738
16277,-9.01,-17.473
16289,-8.1412,-17.222
16301,-6.1145,-16.11
16313,-4.673,-19.312
16324,-5.6307,-18.071
16336,-4.4896,-16.293
16348,-6.2369,-12.517
16359,-9.4852,-10.617
16371,-9.6654,-15.682
16383,-6.8784,-17.094
16395,-6.8119,-15.75
16406,-7.5255,-18.117
16418,-7.1983,-19.28
16430,-6.7164,-19.888
16441,-8.7798,-17.271
16453,-9.7455,-14.827
16465,-8.2052,-13.952
16477,-9.8946,-15.39
16488,-7.7734,-16.026
16500,-7.6007,-17.271
16512,-8.6769,-17.901
16523,-9.0993,-19.207
16535,-7.9763,-16.468
16547,-8.3898,-13.115
16559,-11.783,-15.174
16570,-9.9961,-21.938
16582,-11.96,-15.02
16594,-11.14,-12.258
16605,-9.2453,-14.958
16617,-9.3459,-17.335
16629,-8.6339,-16.049
16641,-7.0506,-13.441
16652,-5.4393,-15.62
16664,-8.9848,-14.795
16676,-10.721,-12.755
16688,-8.6215,-15.696
16699,-8.8604,-16.156
16711,-8.1086,-14.124
16723,-7.2912,-12.731
16734,-7.4133,-13.38
16746,-6.955,-13.803
16758,-5.757,-17.089
16770,-8.1264,-17.927
16781,-11.801,-18.063
16793,-8.5331,-16.962
16805,-10.93,-14.473
16816,-14.212,-15.163
16828,-12.137,-17.197
16840,-11.36,-19.223
16852,-11.753,-16.009
16863,-14.283,-17.265
16875,-14.97,-17.724
16887,-12.696,-14.216
16898,-10.492,-12.875
16910,-10.938,-13.935
16922,-11.066,-16.757
16934,-10.583,-18.49
16945,-8.58,-15.472
16957,-7.6077,-13.19
16969,-7.468,-17.384
16980,-9.804,-17.965
16992,-13.138,-13.229
17004,-10.652,-12.91
17016,-12.043,-15.699
17027,-10.748,-17.736
17039,-9.693,-14.227
17051,-12.353,-16.529
17063,-9.5507,-13.427
17074,-8.8485,-13.73
17086,-9.8879,-14.859
17098,-10.578,-16.968
17109,-13.087,-16.865
17121,-9.1157,-16.052
17133,-9.9411,-15.912
17145,-10.347,-17.446
17156,-8.562,-15.846
17168,-9.2492,-14.858
17180,-9.0847,-14.502
17191,-13.847,-14.942
17203,-9.4453,-15.355
17215,-7.3915,-12.476
17227,-12.207,-14.262
17238,-12.538,-17.407
17250,-9.0888,-16.232
17262,-9.4201,-17.759
17273,-9.606,-18.49
17285,-10.709,-17.002
17297,-11.639,-16.762
17309,-12.679,-16.236
17320,-10.383,-16.811
17332,-11.461,-17.097
17344,-11.592,-18.23
17355,-9.7638,-17.092
17367,-9.2153,-16.395
17379,-9.8769,-17.684
17391,-9.7194,-18.343
17402,-11.356,-17.711
17414,-12.175,-18.356
17426,-8.8629,-18.415
17438,-7.5043,-14.966
17449,-12.203,-15.557
17461,-10.923,-17.179
17473,-10.737,-17.789
17484,-12.915,-18.115
17496,-10.975,-17.721
17508,-10.705,-14.991
17520,-10.981,-16.402
17531,-11.17,-20.711
17543,-10.982,-17.583
17555,-13.676,-16.634
17566,-14.444,-15.421
17578,-12.322,-15.176
17590,-10.704,-15.498
17602,-9.6211,-15.856
17613,-11.305,-18.577
17625,-8.045,-16.135
17637,-10.144,-14.352
17648,-15.26,-16.561
17660,-13.461,-19.829
17672,-10.998,-16.138
17684,-10.491,-16.994
17695,-11.88,-19.277
17707,-10.772,-16.47
17719,-11.502,-14.226
17730,-10.988,-17.049
17742,-12.532,-16.33
17754,-10.8,-18.378
17766,-11.234,-18.491
17777,-12.068,-15.261
17789,-10.558,-16.75
17801,-10.64,-16.835
17813,-9.4934,-14.846
17824,-10.7,-17.204
17836,-11.177,-19.281
17848,-13.252,-16.37
17859,-9.4592,-17.047
17871,-9.6336,-20.393
17883,-11.295,-19.038
17895,-11.969,-14.64
17906,-13.354,-14.931
17918,-10.613,-21.315
17930,-12.566,-20.287
17941,-10.778,-20.268
17953,-11.703,-17.54
17965,-11.808,-17.294
17977,-10.652,-19.453
17988,-9.0154,-15.804
18000,-13.563,-13.641
18012,-12.651,-16.555
18023,-9.9438,-18.315
18035,-8.5891,-16.769
18047,-8.6716,-16.654
18059,-11.127,-16.885
18070,-9.6204,-17.91
18082,-11.26,-16.441
18094,-13.722,-14.943
18105,-11.321,-17.962
18117,-11.865,-18.945
18129,-12.247,-19.132
18141,-9.8381,-15.841
18152,-14.197,-16.431
18164,-11.852,-15.366
18176,-9.9692,-15.621
18188,-11.725,-16.128
18199,-8.4425,-16.811
18211,-6.6145,-16.654
18223,-10.371,-14.631
18234,-11.722,-15.294
18246,-9.9858,-15.179
18258,-10.215,-17.518
18270,-11.369,-15.263
18281,-11.135,-14.416
18293,-10.177,-16.969
18305,-10.535,-16.833
18316,-10.341,-14.793
18328,-11.404,-16.522
18340,-13.771,-18.558
18352,-15.251,-14.867
18363,-13.891,-17.085
18375,-13.413,-14.726
18387,-12.038,-15.082
18398,-10.925,-18.622
18410,-13.712,-16.423
18422,-12.529,-15.07
18434,-10.902,-18.652
18445,-13.158,-18.074
18457,-12.965,-16.577
18469,-13.952,-16.998
18480,-11.947,-17.045
18492,-9.7406,-17.314
18504,-10.76,-16.573
18516,-13.058,-17.377
18527,-13.434,-17.735
18539,-11.084,-16.338
18551,-13.516,-19.066
18563,-13.317,-19.028
18574,-11.994,-19.08
18586,-13.408,-18.79
18598,-16.139,-19.231
18609,-13.506,-19.172
18621,-14.217,-17.487
18633,-15.4,-18.929
18645,-14.382,-17.907
18656,-12.614,-17.461
18668,-15.803,-21.698
18680,-10.347,-18.554
18691,-9.7747,-17.344
18703,-10.614,-15.01
18715,-9.184,-15.422
18727,-10.902,-14.992
18738,-12.179,-14.613
18750,-13.358,-15.68
18762,-13.691,-18.301
18773,-12.696,-18.34
18785,-9.9215,-18.676
18797,-10.572,-17.62
18809,-11.194,-19.019
18820,-10.365,-20.415
18832,-12.17,-18.901
18844,-11.379,-18.762
18855,-9.7151,-18.445
18867,-12.612,-18.909
18879,-12.996,-16.303
18891,-12.82,-17.451
18902,-13.226,-19.057
18914,-14.105,-17.435
18926,-12.21,-20.974
18938,-11.033,-19.654
18949,-10.225,-18.874
18961,-12.227,-19.522
18973,-11.239,-15.497
18984,-10.358,-17.466
18996,-12.885,-20.088
19008,-14.426,-17.403
19020,-11.93,-18.065
19031,-12.277,-18.235
19043,-14.352,-16.812
19055,-16.181,-15.781
19066,-13.634,-17.441
19078,-11.371,-21.403
19090,-11.146,-18.082
19102,-11.68,-16.781
19113,-14.446,-14.227
19125,-14.309,-14.687
19137,-13.731,-17.006
19148,-10.627,-18.55
19160,-11.052,-17.721
19172,-13.113,-14.057
19184,-13.411,-15.679
19195,-10.246,-19.318
19207,-10.255,-18.502
19219,-8.9752,-17.713
19230,-12.119,-15.866
19242,-13.497,-15.21
19254,-15.583,-14.663
19266,-13.611,-17.979
19277,-13.843,-18.255
19289,-14.445,-19.009
19301,-9.8323,-19.198
19313,-9.2614,-18.201
19324,-10.191,-17.012
19336,-12.768,-17.438
19348,-16.189,-19.47
19359,-12.309,-17.612
19371,-10.977,-16.143
19383,-10.689,-17.616
19395,-10.043,-18.081
19406,-11.275,-20.89
19418,-8.4299,-20.021
19430,-10.471,-17.178
19441,-11.555,-17.154
19453,-12.363,-17.906
19465,-16.193,-18.112
19477,-17.721,-18.325
19488,-16.645,-19.538
19500,-14.847,-18.991
19512,-12.431,-15.417
19523,-14.912,-15.367
19535,-16.993,-17.783
19547,-13.418,-18.85
19559,-11.391,-18.3
19570,-13.837,-17.069
19582,-13.983,-17.42
19594,-12.583,-17.903
19605,-13.307,-19.08
19617,-14.332,-18.751
19629,-14.076,-20.087
19641,-12.303,-16.282
19652,-17.059,-18.77
19664,-13.654,-20.246
19676,-12.148,-17.965
19688,-9.1901,-16.494
19699,-11.609,-14.789
19711,-12.411,-15.472
19723,-13.674,-15.586
19734,-16.578,-17.514
19746,-14.764,-19.514
19758,-12.555,-18.552
19770,-13.328,-19.487
19781,-13.518,-16.828
19793,-15.396,-16.152
19805,-13.265,-20.984
19816,-12.803,-18.633
19828,-12.989,-16.369
19840,-12.885,-18.268
19852,-14.421,-16.7
19863,-15.926,-16.209
19875,-15.473,-15.947
19887,-15.042,-17.064
19898,-14.626,-17.644
19910,-17.614,-20.147
19922,-15.37,-17.143
19934,-13.618,-14.162
19945,-11.853,-14.861
19957,-14.55,-16.002
19969,-16.526,-16.57
19980,-14.576,-19.58
19992,-14.088,-15.955
20004,-11.863,-15.377
20016,-14.309,-17.35
20027,-16.379,-18.973
20039,-14.489,-18.753
20051,-16.931,-18.508
20063,-11.398,-18.611
20074,-12.078,-18.776
20086,-13.913,-19.057
20098,-11.717,-18.452
20109,-11.094,-17.897
20121,-12.434,-17.254
20133,-17.076,-16.653
20145,-14.426,-19.733
20156,-13.203,-19.056
20168,-12.144,-18.448
20180,-10.767,-18.307
20191,-12.536,-18.57
20203,-14.562,-17.062
20215,-15.444,-16.495
20227,-16.54,-19.719
20238,-15.995,-18.37
20250,-15.159,-19.405
20262,-13.985,-19.77
20273,-14.865,-17.166
20285,-14.301,-17.514
20297,-13.09,-16.84
20309,-14.324,-21
20320,-14.112,-19.652
20332,-13.766,-18.868
20344,-12.27,-18.708
20355,-13.616,-21.229
20367,-16.143,-18.374
20379,-12.932,-19.627
20391,-11.929,-21.702
20402,-13.968,-20.435
20414,-14.975,-19.401
20426,-14.522,-21.743
20438,-14.326,-21.651
20449,-13.655,-18.964
20461,-13.469,-19.297
20473,-17.461,-19
20484,-17.467,-20.433
20496,-16.255,-21.432
20508,-16.399,-18.509
20520,-11.933,-17.035
20531,-10.978,-16.109
20543,-16.055,-18.353
20555,-14.725,-20.718
20566,-15.593,-18.558
20578,-15.737,-17.282
20590,-16.274,-18.264
20602,-15.254,-20.088
20613,-14.271,-21.201
20625,-11.202,-21.414
20637,-13.435,-22.152
20648,-10.796,-22.065
20660,-11.499,-22.001
20672,-13.617,-18.012
20684,-15.492,-16.543
20695,-13.241,-18.738
20707,-13.327,-16.766
20719,-14.96,-16.881
20730,-15.859,-17.229
20742,-16.635,-15.924
20754,-16.619,-16.166
20766,-16.611,-18.273
20777,-14.256,-16.687
20789,-13.649,-16.233
20801,-13.51,-18.272
20813,-16.534,-19.505
20824,-15.101,-18.118
20836,-15.013,-20.4
20848,-13.605,-19.484
20859,-12.225,-23.042
20871,-14.587,-19.754
20883,-14.46,-18.411
20895,-14.589,-17.376
20906,-14.298,-19.197
20918,-12.389,-20.632
20930,-13.261,-17.145
20941,-17.34,-15.984
20953,-16.865,-19.42
20965,-17.247,-21.183
20977,-16.218,-18.689
20988,-15.816,-17.135
21000,-14.226,-15.724
21012,-17.194,-18.197
21023,-19,-19.085
21035,-18.333,-19.475
21047,-16.929,-19.821
21059,-15.021,-19.167
21070,-15.506,-17.237
21082,-18.727,-19.441
21094,-18.885,-20.956
21105,-17.264,-16.587
21117,-13.652,-15.711
21129,-14.134,-16.075
21141,-17.847,-18.207
21152,-16.332,-20.314
21164,-13.705,-19.231
21176,-14.3,-16.522
21188,-15.386,-17.485
21199,-16.99,-19.159
21211,-16.632,-18.69
21223,-14.87,-16.377
21234,-14.509,-16.797
21246,-18.609,-19.728
21258,-15.058,-18.033
21270,-14.01,-18.088
21281,-18.516,-21.162
21293,-13.639,-19.736
21305,-14.488,-18.332
21316,-17.875,-18.956
21328,-14.639,-17.708
21340,-14.649,-17.701
21352,-14.412,-21.134
21363,-20.503,-21.924
21375,-16.482,-18.598
21387,-16.985,-15.448
21398,-16.207,-17.221
21410,-15.385,-20.616
21422,-14.911,-18.235
21434,-14.705,-17.226
21445,-14.11,-16.851
21457,-14.188,-18.095
21469,-18.334,-19.315
21480,-17.088,-19.47
21492,-16.337,-21.879
21504,-17.431,-21.622
21516,-15.893,-21.243
21527,-12.792,-18.49
21539,-13.688,-17.1
21551,-15.895,-20.114
21563,-16.702,-17.254
21574,-14.984,-19.825
21586,-15.482,-19.532
21598,-17.655,-16.546
21609,-19.168,-17.147
21621,-17.079,-20.599
21633,-17.218,-22.054
21645,-18.664,-21.653
21656,-14.922,-24.927
21668,-12.949,-21.484
21680,-11.491,-19.262
21691,-13.015,-20.187
21703,-13.327,-20.168
21715,-17.62,-19.848
21727,-18.153,-19.253
21738,-16.784,-20.301
21750,-18.607,-17.246
21762,-16.878,-17.964
21773,-14.094,-18.58
21785,-14.341,-18.997
21797,-16.315,-20.656
21809,-13.322,-21.118
21820,-10.31,-21.373
21832,-12.202,-20.631
21844,-18.188,-22.206
21855,-16.94,-19.851
21867,-17.172,-19.312
21879,-19.763,-20.259
21891,-16.335,-18.604
21902,-16.994,-20.306
21914,-18.687,-19.421
21926,-18.181,-19.818
21938,-16.779,-19.224
21949,-17.583,-20.832
21961,-16.354,-21.402
21973,-19.314,-20.592
21984,-18.856,-22.586
21996,-16.936,-19.289
22008,-16.136,-19.288
22020,-15.959,-18.217
22031,-17.897,-22.962
22043,-18.685,-23.303
22055,-19.321,-19.439
22066,-19.111,-19.479
22078,-19.685,-19.601
22090,-17.84,-20.705
22102,-16.052,-20.398
22113,-15.527,-19.876
22125,-19.16,-19.546
22137,-16.706,-19.454
22148,-17.225,-19.695
22160,-17.276,-19.499
22172,-16.653,-20.765
22184,-16.964,-21.96
22195,-15.972,-20.452
22207,-17.984,-19.851
22219,-16.98,-19.93
22230,-17.053,-20.786
22242,-15.994,-20.852
22254,-15.422,-20.962
22266,-17.006,-17.887
22277,-18.381,-17.673
22289,-16.708,-17.658
22301,-16.476,-16.973
22313,-16.726,-19.129
22324,-19.081,-19.079
22336,-17.35,-20.452
22348,-15.874,-19.015
22359,-15.448,-18.216
22371,-15.225,-20.045
22383,-17.35,-21.078
22395,-14.526,-21.318
22406,-15.553,-19.418
22418,-18.92,-19.32
22430,-19.394,-21.066
22441,-15.929,-21.108
22453,-16.252,-20.212
22465,-17.231,-18.999
22477,-15.599,-17.002
22488,-14.037,-18.927
22500,-15.395,-20.173
22512,-16.232,-20.121
22523,-16.067,-20.219
22535,-18.009,-19.995
22547,-18.262,-19.157
22559,-16.875,-21.414
22570,-13.936,-21.08
22582,-16.341,-19.463
22594,-17.974,-19.201
22605,-16.729,-20.32
22617,-15.862,-20.904
22629,-16.284,-19.291
22641,-18.34,-20.143
22652,-17.966,-21.647
22664,-18.689,-21.13
22676,-20.526,-19.816
22688,-17.208,-17.758
22699,-15.756,-17.393
22711,-13.306,-16.787
22723,-13.574,-18.514
22734,-12.525,-22.236
22746,-15.283,-20.595
22758,-16.021,-17.682
22770,-16.548,-18.949
22781,-19.035,-20.221
22793,-15.198,-21.506
22805,-15.447,-22.381
22816,-17.835,-22.161
22828,-16.124,-18.897
22840,-13.899,-15.785
22852,-17.896,-18.021
22863,-18.816,-18.982
22875,-20.614,-20.351
22887,-17.026,-21.812
22898,-15.711,-24.623
22910,-16.66,-24.022
22922,-17.386,-21.315
22934,-16.48,-19.085
22945,-15.615,-16.516
22957,-14.943,-17.235
22969,-15.232,-19.707
22980,-16.007,-19.403
22992,-18.358,-15.993
23004,-18.781,-14.818
23016,-17.003,-17.558
23027,-16.879,-18.962
23039,-18.657,-20.443
23051,-18.966,-19.305
23063,-18.915,-21.767
23074,-17.563,-21.266
23086,-16.823,-19.888
23098,-16.414,-19.199
23109,-16.759,-19.811
23121,-16.927,-21.942
23133,-16.206,-21.949
23145,-16.082,-20.461
23156,-15.996,-21.442
23168,-16.643,-19.928
23180,-17.698,-20.486
23191,-17.05,-19.615
23203,-16.552,-19.238
23215,-16.392,-20.529
23227,-16.979,-20.14
23238,-19.741,-20.971
23250,-20.051,-21.034
23262,-19.769,-19.789
23273,-23.379,-19.41
23285,-20.99,-21.895
23297,-20.01,-20.256
23309,-19.026,-21.453
23320,-19.786,-24.993
23332,-19.546,-22.12
23344,-17.983,-18.238
23355,-15.333,-18.505
23367,-15.434,-21.366
23379,-17.721,-21.405
23391,-19.899,-21.535
23402,-19.846,-21.538
23414,-15.477,-21.737
23426,-14.999,-20.545
23438,-16.122,-20.532
23449,-15.998,-22.183
23461,-18.386,-22.703
23473,-17.918,-23.167
23484,-16.157,-17.578
23496,-15.509,-20.253
23508,-17.221,-22.964
23520,-17.71,-22.953
23531,-18.021,-21.587
23543,-18.482,-21.055
23555,-17.97,-21.065
23566,-17.629,-23.28
23578,-15.493,-21.769
23590,-15.686,-20.668
23602,-17.434,-20.459
23613,-19.268,-19.921
23625,-19.78,-21.004
23637,-18.777,-21.97
23648,-16.487,-21.481
23660,-17.193,-20.158
23672,-19.237,-19.601
23684,-18.007,-19.071
23695,-20.54,-17.862
23707,-18.135,-19.272
23719,-18.161,-22.831
23730,-17.267,-20.183
23742,-14.172,-20.459
23754,-17.536,-22.084
23766,-17.696,-20.446
23777,-16.039,-19.35
23789,-13.658,-18.994
23801,-15.241,-17.166
23813,-17.827,-19.211
23824,-19.086,-18.974
23836,-15.87,-17.225
23848,-16.962,-21.133
23859,-17.706,-20.966
23871,-15.258,-23.298
23883,-16.718,-22.976
23895,-20.898,-21.246
23906,-18.338,-18.519
23918,-20.564,-16.237
23930,-16.951,-17.788
23941,-15.769,-21.803
23953,-15.554,-19.892
23965,-16.545,-19.235
23977,-16.382,-20.758
23988,-17.505,-23.04
