FFT,Power Spectrum
Frequency[Hz],Level-L[dB],Level-R[dB]
11.719,-5.59,-62.272
23.438,14.058,-55.576
35.156,10.793,-40.304
46.875,14.372,-27.892
58.594,14.748,-26.538
70.313,12.743,-30.858
82.031,18.244,-27.96
93.75,22.351,-25.418
105.47,20.434,-24.304
117.19,16.032,-20.904
128.91,16.038,-15.913
140.63,18.399,-13.932
152.34,18.338,-12.162
164.06,15.061,-13.988
175.78,18.128,-16.046
187.5,22.519,-16.321
199.22,23.545,-16.376
210.94,20.795,-19.611
222.66,15.297,-18.165
234.38,19.48,-16.339
246.09,18.858,-15.875
257.81,16.298,-16.086
269.53,15.525,-15.168
281.25,16.022,-16.092
292.97,13.716,-15.066
304.69,11.785,-15.356
316.41,13.16,-15.823
328.13,13.437,-16.368
339.84,14.616,-16.145
351.56,16.738,-12.273
363.28,17.463,-11.793
375,14.39,-12.282
386.72,14.694,-11.719
398.44,16.87,-15.839
410.16,15.504,-16.558
421.88,17.222,-13.977
433.59,17.897,-12.081
445.31,15.829,-12.179
457.03,15.243,-14.184
468.75,18.493,-15.898
480.47,18.581,-12.005
492.19,16.426,-12.606
503.91,17.529,-15.055
515.63,17.27,-15.61
527.34,17.265,-11.473
539.06,16.219,-11.668
550.78,15.872,-12.53
562.5,18.639,-6.8989
574.22,20.875,-7.1217
585.94,20.852,-11.736
597.66,20.25,-11.235
609.38,19.717,-12
621.09,21.461,-9.8456
632.81,20.883,-8.5625
644.53,16.669,-11.943
656.25,13.145,-11.63
667.97,13.356,-10.867
679.69,15.459,-9.701
691.41,16.036,-9.4567
703.13,15.843,-11.531
714.84,17.773,-9.949
726.56,17.62,-9.6858
738.28,17.083,-10.217
750,17.715,-12.457
761.72,14.778,-9.1037
773.44,16.174,-10.053
785.16,15.59,-10.687
796.88,16.833,-10.965
808.59,15.037,-9.7479
820.31,14.067,-9.7401
832.03,17.261,-8.5305
843.75,18.342,-11.528
855.47,17.989,-8.5988
867.19,16.515,-5.6807
878.91,14.593,-8.1689
890.63,15.34,-9.1323
902.34,14.155,-11.608
914.06,13.574,-9.9177
925.78,14.635,-10.375
937.5,14.938,-7.9972
949.22,15.374,-8.1223
960.94,13.777,-7.261
972.66,10.668,-6.4954
984.38,9.9039,-6.8564
996.09,14.205,-8.0566
1007.8,15.011,-6.9313
1019.5,16.312,-8.7215
1031.3,17.245,-7.0549
1043,15.818,-5.8773
1054.7,17.038,-7.3863
1066.4,19.286,-11.046
1078.1,16.914,-10.581
1089.8,14.355,-8.3522
1101.6,15.35,-7.6498
1113.3,17.257,-9.116
1125,16.675,-7.7649
1136.7,15.228,-8.054
1148.4,13.322,-9.5015
1160.2,14.901,-8.3315
1171.9,12.688,-11.346
1183.6,13.27,-8.1748
1195.3,15.839,-4.9377
1207,16.093,-5.2002
1218.8,14.085,-8.65
1230.5,13.875,-8.5188
1242.2,13.215,-6.9707
1253.9,10.427,-5.3099
1265.6,11.743,-5.2261
1277.3,13.326,-6.7547
1289.1,13.905,-6.6138
1300.8,13.973,-5.2343
1312.5,16.125,-8.469
1324.2,14.811,-9.06
1335.9,13.57,-8.0969
1347.7,16.101,-6.8903
1359.4,15.357,-6.1502
1371.1,16.232,-7.2137
1382.8,19.654,-6.4524
1394.5,18.82,-6.6675
1406.3,15.802,-8.2937
1418,16.201,-6.2043
1429.7,15.863,-3.3483
1441.4,16.728,-5.5258
1453.1,15.317,-6.4627
1464.8,13.91,-7.7144
1476.6,15.479,-8.8575
1488.3,13.111,-8.8142
1500,13.983,-9.0875
1511.7,14.18,-6.4999
1523.4,14.237,-9.0822
1535.2,14.399,-7.589
1546.9,15.034,-7.5949
1558.6,13.807,-5.6345
1570.3,14.855,-4.4739
1582,13.786,-5.9901
1593.8,12.499,-6.9061
1605.5,12.498,-6.6606
1617.2,11.503,-5.4213
1628.9,12.38,-5.1088
1640.6,14.657,-8.3726
1652.3,14.061,-9.4835
1664.1,14.17,-9.043
1675.8,14.888,-9.1919
1687.5,12.525,-5.5334
1699.2,11.365,-7.4501
1710.9,11.928,-9.0408
1722.7,11.645,-10.18
1734.4,13.153,-9.7933
1746.1,14.576,-7.6487
1757.8,14.756,-8.5633
1769.5,15.763,-6.7146
1781.3,15.62,-7.015
1793,13.293,-5.4682
1804.7,15.689,-6.5461
1816.4,18.537,-8.2081
1828.1,18.14,-8.657
1839.8,16.636,-9.7421
1851.6,15.815,-6.4534
1863.3,15.414,-4.5297
1875,13.182,-6.5425
1886.7,14.038,-5.8548
1898.4,12.578,-5.3952
1910.2,16.868,-6.1265
1921.9,18.087,-8.1093
1933.6,17.221,-9.6118
1945.3,17.358,-5.867
1957,14.615,-6.1364
1968.8,11.348,-9.0138
1980.5,11.421,-6.5399
1992.2,11.298,-5.7648
2003.9,11.665,-6.5447
2015.6,12.605,-7.6152
2027.3,14.825,-7.8744
2039.1,12.387,-5.3076
2050.8,11.517,-5.3569
2062.5,12.836,-5.7766
2074.2,13.496,-7.428
2085.9,11.471,-7.2665
2097.7,14.543,-6.2682
2109.4,12.799,-6.2177
2121.1,11.824,-5.8339
2132.8,9.6421,-5.0369
2144.5,10.974,-6.0102
2156.3,10.805,-7.2758
2168,10.456,-7.6808
2179.7,13.251,-8.2678
2191.4,13.414,-6.9977
2203.1,12.194,-4.8766
2214.8,13.5,-6.201
2226.6,11.853,-6.5003
2238.3,12.395,-6.6002
2250,12.242,-8.6526
2261.7,12.51,-8.4886
2273.4,12.47,-8.2532
2285.2,13.727,-8.1104
2296.9,14.021,-8.2743
2308.6,13.943,-9.9691
2320.3,12.989,-8.5202
2332,11.644,-6.24
2343.8,12.832,-5.8812
2355.5,12.264,-11.074
2367.2,13.11,-8.1558
2378.9,15.54,-6.6772
2390.6,14.046,-6.0557
2402.3,16.774,-8.9224
2414.1,15.601,-5.0938
2425.8,14.284,-4.6461
2437.5,14.367,-7.3006
2449.2,13.741,-8.2701
2460.9,13.226,-6.6039
2472.7,13.044,-7.2941
2484.4,13.54,-10.297
2496.1,13.5,-6.6286
2507.8,15.049,-7.8694
2519.5,14.451,-8.6593
2531.3,14.011,-6.1097
2543,12.301,-6.8848
2554.7,12.884,-7.9838
2566.4,9.1796,-10.901
2578.1,12.466,-9.3871
2589.8,12.173,-8.6949
2601.6,9.8712,-8.4872
2613.3,11.461,-9.3395
2625,12.3,-8.9528
2636.7,14.321,-10.36
2648.4,11.431,-10.17
2660.2,12.138,-7.5527
2671.9,12.448,-7.3231
2683.6,11.979,-6.6867
2695.3,11.382,-8.8867
2707,14.353,-7.1092
2718.8,13.233,-5.9241
2730.5,10.23,-6.97
2742.2,13.512,-6.2616
2753.9,14.876,-4.5734
2765.6,11.792,-5.8166
2777.3,11.189,-5.3753
2789.1,13.362,-6.2147
2800.8,13.023,-10.614
2812.5,11.559,-9.1097
2824.2,14.583,-6.998
2835.9,13.554,-7.0501
2847.7,11.357,-6.2432
2859.4,14.949,-5.1024
2871.1,11.936,-5.9111
2882.8,8.6233,-7.4444
2894.5,9.7466,-8.6959
2906.3,9.6718,-8.3416
2918,10.418,-6.0231
2929.7,11.529,-3.7524
2941.4,10.184,-4.64
2953.1,10.676,-7.3352
2964.8,10.387,-9.6924
2976.6,9.3291,-6.9933
2988.3,13.861,-4.3195
3000,15.22,-6.2037
3011.7,15.073,-7.8098
3023.4,11.407,-10.703
3035.2,12.518,-12.203
3046.9,12.172,-8.3847
3058.6,11.093,-7.5925
3070.3,11.441,-5.5835
3082,11.873,-7.9909
3093.8,12.348,-9.0938
3105.5,8.5239,-7.899
3117.2,11.101,-6.4009
3128.9,11.531,-4.5723
3140.6,11.357,-7.2905
3152.3,9.4324,-9.3017
3164.1,9.855,-8.5644
3175.8,10.748,-7.6198
3187.5,12.114,-8.7659
3199.2,11.007,-7.5889
3210.9,7.8496,-7.8509
3222.7,8.1736,-10.369
3234.4,10.479,-9.9269
3246.1,11.411,-6.6324
3257.8,8.7763,-9.8795
3269.5,9.8717,-11.815
3281.3,13.018,-9.5357
3293,11.88,-7.4287
3304.7,9.6608,-5.9745
3316.4,11.724,-7.3975
3328.1,10.074,-5.8999
3339.8,8.0829,-5.8526
3351.6,9.2733,-8.5489
3363.3,14.169,-12.861
3375,13.744,-10.956
3386.7,12.16,-9.8343
3398.4,9.6411,-8.1325
3410.2,9.9687,-9.3133
3421.9,10.818,-8.6067
3433.6,10.56,-5.9666
3445.3,9.933,-6.4443
3457,9.8235,-9.6925
3468.8,11.083,-9.6625
3480.5,9.7913,-8.1253
3492.2,7.8381,-6.1168
3503.9,7.8407,-6.3863
3515.6,9.2931,-8.4843
3527.3,10.494,-8.2594
3539.1,9.6021,-6.1009
3550.8,10.868,-8.9049
3562.5,12.932,-9.9641
3574.2,12.49,-6.7892
3585.9,8.2606,-7.6533
3597.7,6.9708,-4.0827
3609.4,13.148,-2.8726
3621.1,12.977,-3.5823
3632.8,7.375,-5.6557
3644.5,9.3999,-7.1426
3656.3,9.0161,-8.2349
3668,7.7859,-8.7668
3679.7,7.3112,-7.3371
3691.4,6.8901,-7.8666
3703.1,8.8589,-4.9828
3714.8,11.723,-4.6987
3726.6,11.029,-6.6683
3738.3,11.625,-7.0881
3750,11.022,-7.7462
3761.7,8.7291,-6.0049
3773.4,5.0635,-3.7244
3785.2,8.8904,-8.4275
3796.9,11.314,-10.006
3808.6,8.3851,-7.7574
3820.3,8.7639,-7.2437
3832,8.4133,-5.2284
3843.8,6.9153,-5.1925
3855.5,8.9223,-5.7926
3867.2,10.537,-9.1781
3878.9,12.136,-9.6541
3890.6,8.974,-7.7034
3902.3,9.763,-5.6917
3914.1,7.5759,-7.814
3925.8,9.072,-12.228
3937.5,10.771,-9.9257
3949.2,9.273,-5.9097
3960.9,9.9519,-7.3129
3972.7,7.7229,-10.197
3984.4,8.6233,-7.7403
3996.1,11.769,-8.8101
4007.8,9.2635,-8.9583
4019.5,8.1536,-8.616
4031.3,10.602,-8.9975
4043,9.3662,-8.2876
4054.7,9.037,-8.8422
4066.4,8.8746,-9.5981
4078.1,7.7289,-6.3919
4089.8,6.6072,-6.1624
4101.6,6.7919,-8.6065
4113.3,6.2309,-5.0605
4125,6.7956,-9.0399
4136.7,9.1658,-9.3977
4148.4,6.9707,-5.5699
4160.2,9.506,-7.362
4171.9,11.73,-7.9277
4183.6,10.09,-7.4269
4195.3,8.9284,-9.4547
4207,6.8818,-9.6132
4218.8,5.9812,-8.6905
4230.5,6.9531,-9.1651
4242.2,4.1687,-7.6511
4253.9,5.8378,-10.448
4265.6,10.059,-8.0584
4277.3,10.819,-8.7866
4289.1,7.814,-9.9122
4300.8,7.7649,-9.1118
4312.5,9.5304,-10.39
4324.2,11.532,-8.6729
4335.9,9.7074,-7.789
4347.7,5.5146,-7.0238
4359.4,5.1456,-5.8677
4371.1,5.7258,-6.7096
4382.8,6.5311,-8.3946
4394.5,7.9977,-6.6049
4406.3,6.7934,-5.9831
4418,5.9298,-7.5986
4429.7,4.7527,-7.87
4441.4,8.3981,-9.1187
4453.1,7.7097,-8.8883
4464.8,8.0887,-10.866
4476.6,10.295,-10.384
4488.3,11.232,-8.5383
4500,13.35,-9.763
4511.7,11.394,-7.2551
4523.4,8.7786,-8.7918
4535.2,5.3043,-6.7531
4546.9,7.028,-4.7801
4558.6,7.932,-7.2195
4570.3,7.9231,-7.092
4582,9.2019,-6.5281
4593.8,11.51,-8.6574
4605.5,11.964,-9.8475
4617.2,9.9774,-8.6096
4628.9,10.231,-7.2565
4640.6,8.0685,-7.5895
4652.3,3.9837,-5.3317
4664.1,5.2334,-6.4332
4675.8,6.1073,-9.3576
4687.5,6.6178,-12.638
4699.2,7.5734,-10.401
4710.9,10.101,-7.2192
4722.7,7.5956,-8.5598
4734.4,6.7412,-8.4086
4746.1,9.5562,-5.7158
4757.8,8.7817,-6.1004
4769.5,7.8881,-9.4267
4781.3,7.7854,-9.1787
4793,5.9722,-9.3858
4804.7,5.5993,-9.3364
4816.4,7.5501,-9.3895
4828.1,7.0041,-5.5174
4839.8,5.6149,-6.1
4851.6,7.4966,-10.413
4863.3,6.7524,-7.5721
4875,7.5689,-7.7009
4886.7,9.6234,-13.043
4898.4,8.0145,-7.2071
4910.2,6.0076,-9.0526
4921.9,5.479,-8.3294
4933.6,6.1321,-8.4928
4945.3,6.7071,-7.592
4957,9.343,-10.022
4968.8,7.2308,-10.046
4980.5,7.0316,-7.8985
4992.2,8.4473,-6.9626
5003.9,8.8959,-6.7704
5015.6,8.0343,-9.3421
5027.3,8.933,-10.57
5039.1,7.4976,-7.3073
5050.8,5.0099,-7.4025
5062.5,1.0682,-9.8822
5074.2,5.5042,-8.9942
5085.9,8.7172,-9.1049
5097.7,8.5636,-6.3202
5109.4,6.2655,-8.3987
5121.1,5.5318,-6.4897
5132.8,5.7193,-5.3506
5144.5,5.9748,-6.8765
5156.3,5.3872,-9.4183
5168,7.5231,-10.066
5179.7,7.0854,-8.3564
5191.4,4.6999,-10.258
5203.1,7.7745,-9.8209
5214.8,7.0123,-6.8966
5226.6,6.1919,-6.9189
5238.3,7.2534,-9.2209
5250,6.362,-8.5942
5261.7,3.6113,-6.8977
5273.4,6.2272,-8.0706
5285.2,8.9007,-9.4608
5296.9,6.6045,-9.6832
5308.6,5.8018,-9.242
5320.3,6.7864,-8.9976
5332,7.9406,-10.434
5343.8,8.9512,-11.421
5355.5,8.975,-11.114
5367.2,6.3053,-11.938
5378.9,4.8854,-10.138
5390.6,6.4627,-8.4179
5402.3,8.1242,-6.3303
5414.1,7.7896,-7.7662
5425.8,6.7717,-9.9303
5437.5,5.9868,-12.964
5449.2,6.0965,-11.742
5460.9,6.3655,-9.1155
5472.7,5.3338,-10.507
5484.4,4.0877,-10.188
5496.1,3.3347,-9.0515
5507.8,3.0798,-9.8535
5519.5,4.6034,-8.7263
5531.3,3.795,-9.1993
5543,3.5512,-10.277
5554.7,5.2122,-6.4698
5566.4,7.5798,-5.222
5578.1,7.831,-5.0911
5589.8,5.4425,-6.4045
5601.6,3.7843,-8.0591
5613.3,4.161,-8.4905
5625,6.6938,-8.1052
5636.7,5.1685,-12.151
5648.4,4.5223,-11.198
5660.2,4.3796,-10.156
5671.9,6.3925,-10.598
5683.6,5.7402,-9.2049
5695.3,4.0969,-10.452
5707,4.0569,-9.7249
5718.8,6.1976,-7.3901
5730.5,6.9408,-7.6191
5742.2,4.5402,-7.1373
5753.9,4.0655,-8.3414
5765.6,7.7332,-7.272
5777.3,7.5522,-6.7237
5789.1,6.7157,-12.547
5800.8,6.7637,-9.16
5812.5,3.0382,-7.4649
5824.2,6.8932,-8.8826
5835.9,7.4433,-9.5455
5847.7,5.1681,-10.558
5859.4,1.0622,-10.016
5871.1,3.3958,-9.9289
5882.8,4.293,-8.5701
5894.5,7.0914,-9.3914
5906.3,4.2075,-9.9084
5918,5.3317,-8.721
5929.7,7.7228,-9.991
5941.4,7.0091,-9.1054
5953.1,4.1546,-9.3768
5964.8,4.8409,-8.2658
5976.6,6.7419,-7.2511
5988.3,8.9887,-4.9686
6000,9.0684,-4.8577
6011.7,8.4102,-9.4919
6023.4,7.0411,-10.131
6035.2,1.8134,-7.8238
6046.9,3.4877,-5.5011
6058.6,4.8189,-3.1447
6070.3,6.7463,-3.0694
6082,5.0577,-5.6578
6093.8,10.162,-10.193
6105.5,10.467,-9.1652
6117.2,7.538,-9.6031
6128.9,7.582,-9.6852
6140.6,7.8122,-9.5274
6152.3,5.209,-8.3369
6164.1,6.3816,-7.1756
6175.8,5.9085,-8.7572
6187.5,7.9801,-10.414
6199.2,4.2354,-11.2
6210.9,5.2373,-10.249
6222.7,3.8376,-9.6872
6234.4,6.2355,-10.56
6246.1,3.8519,-8.4519
6257.8,-0.70658,-7.9519
6269.5,2.4266,-9.1889
6281.3,4.5728,-6.8817
6293,4.1934,-9.1542
6304.7,4.5031,-11.285
6316.4,3.1361,-7.302
6328.1,4.9325,-8.2294
6339.8,6.4555,-9.8161
6351.6,5.1626,-10.152
6363.3,4.8002,-9.5491
6375,1.0408,-8.2826
6386.7,4.703,-7.8671
6398.4,6.0882,-7.1384
6410.2,5.3227,-9.4187
6421.9,3.5934,-7.3895
6433.6,3.2847,-6.2129
6445.3,2.5212,-11.157
6457,2.705,-6.9574
6468.8,4.8217,-8.51
6480.5,3.6465,-10.134
6492.2,2.905,-8.3807
6503.9,4.6751,-7.5252
6515.6,6.0048,-7.8382
6527.3,4.9723,-11.456
6539.1,6.5339,-9.7589
6550.8,6.4733,-10.087
6562.5,5.8609,-11.972
6574.2,8.2963,-8.0496
6585.9,3.4612,-5.8273
6597.7,3.8495,-6.4124
6609.4,4.7362,-9.2196
6621.1,4.376,-11.574
6632.8,5.6066,-11.612
6644.5,7.6639,-9.4927
6656.3,6.6022,-8.7984
6668,3.2545,-9.363
6679.7,5.814,-9.7041
6691.4,4.2889,-9.8495
6703.1,2.29,-9.0463
6714.8,3.3096,-8.9553
6726.6,1.6056,-8.3611
6738.3,4.6518,-6.4586
6750,6.2212,-5.9215
6761.7,7.6644,-8.0564
6773.4,4.4571,-11.155
6785.2,2.7805,-9.2232
6796.9,5.5127,-7.8888
6808.6,5.7017,-8.6875
6820.3,4.9384,-11.6
6832,4.8115,-10.141
6843.8,6.2154,-8.6715
6855.5,4.6938,-8.4543
6867.2,0.082141,-9.5083
6878.9,-0.49893,-10.642
6890.6,-2.1546,-10.266
6902.3,3.4772,-5.0297
6914.1,5.4909,-5.8952
6925.8,3.3104,-8.5682
6937.5,3.8949,-8.0506
6949.2,4.0321,-8.1524
6960.9,2.9321,-8.2343
6972.7,3.3895,-10.628
6984.4,4.3913,-8.7183
6996.1,2.2929,-10.349
7007.8,1.2409,-12.129
7019.5,0.24949,-11.613
7031.3,1.9456,-11.529
7043,3.5997,-11.85
7054.7,2.8258,-9.1126
7066.4,0.59918,-8.0761
7078.1,1.4947,-7.7829
7089.8,5.2953,-9.4063
7101.6,5.0716,-12.495
7113.3,4.8874,-10.395
7125,6.406,-7.6814
7136.7,3.7949,-7.7167
7148.4,3.456,-7.4413
7160.2,4.0474,-9.1487
7171.9,2.2263,-8.6027
7183.6,2.005,-6.9821
7195.3,5.775,-8.5192
7207,2.9981,-11.198
7218.8,4.5072,-8.4239
7230.5,6.5779,-10.786
7242.2,2.5301,-11.257
7253.9,5.0104,-9.7993
7265.6,5.337,-11.682
7277.3,6.1192,-7.8591
7289.1,6.1306,-5.7174
7300.8,6.8244,-6.3372
7312.5,5.5191,-8.0418
7324.2,3.9396,-7.9024
7335.9,1.3289,-8.2729
7347.7,1.4674,-7.9196
7359.4,1.4927,-6.3027
7371.1,4.363,-10.389
7382.8,3.9209,-12.248
7394.5,1.6084,-9.5351
7406.3,2.3055,-10.537
7418,3.6827,-11.183
7429.7,0.53168,-9.2633
7441.4,3.1408,-8.4121
7453.1,4.2162,-9.6588
7464.8,3.2118,-9.9173
7476.6,3.2657,-9.8981
7488.3,2.8119,-9.5901
7500,3.2927,-10.132
7511.7,1.8346,-9.5338
7523.4,3.3855,-8.5471
7535.2,2.2958,-8.9738
7546.9,2.7847,-12.727
7558.6,1.7819,-8.492
7570.3,4.6781,-6.2238
7582,2.3944,-11.463
7593.8,2.3615,-11.508
7605.5,4.6606,-8.1057
7617.2,4.3028,-5.3321
7628.9,3.0424,-8.1469
7640.6,0.89322,-14.164
7652.3,-0.23122,-10.434
7664.1,1.6915,-7.3945
7675.8,3.0235,-7.6784
7687.5,3.1863,-12.544
7699.2,4.001,-9.6783
7710.9,2.8395,-11.518
7722.7,6.4929,-10.083
7734.4,3.4572,-9.1841
7746.1,5.2156,-8.7932
7757.8,4.8575,-10.901
7769.5,2.6281,-11.808
7781.3,2.595,-10.44
7793,1.6621,-10.258
7804.7,2.5557,-8.3342
7816.4,3.6521,-7.4231
7828.1,2.1792,-8.8833
7839.8,3.8048,-7.7356
7851.6,4.5691,-8.7439
7863.3,3.0852,-11.138
7875,4.3066,-9.331
7886.7,4.908,-8.4672
7898.4,3.8391,-10.189
7910.2,1.7129,-10.377
7921.9,3.0995,-8.1657
7933.6,3.2759,-8.602
7945.3,3.109,-9.1582
7957,2.3633,-9.9537
7968.8,3.0242,-9.4715
7980.5,3.3197,-8.1872
7992.2,3.9942,-6.8071
8003.9,2.8194,-9.0515
8015.6,0.45384,-13.163
8027.3,-0.17066,-14.898
8039.1,1.7287,-10.184
8050.8,1.5824,-11.321
8062.5,-0.77039,-10.51
8074.2,-2.2137,-9.9225
8085.9,0.67621,-10.862
8097.7,3.9898,-8.0998
8109.4,3.7093,-9.4616
8121.1,2.1983,-11.722
8132.8,1.226,-10.858
8144.5,-0.14518,-10.585
8156.3,1.3424,-11.262
8168,-0.53985,-12.35
8179.7,-0.10518,-9.0276
8191.4,3.3788,-8.5393
8203.1,2.5327,-11.202
8214.8,1.9141,-13.456
8226.6,2.7651,-10.641
8238.3,5.2679,-7.5935
8250,5.6286,-8.0863
8261.7,4.1783,-7.2242
8273.4,2.9336,-7.3161
8285.2,1.0849,-9.524
8296.9,1.5418,-10.352
8308.6,0.075765,-8.6528
8320.3,1.8045,-8.3447
8332,2.9686,-11.113
8343.8,1.8984,-11.82
8355.5,-1.0467,-10.751
8367.2,0.35348,-12.228
8378.9,1.8921,-11.64
8390.6,2.5728,-7.4016
8402.3,1.4784,-9.2461
8414.1,1.869,-10.616
8425.8,1.2637,-9.0904
8437.5,-0.75196,-14.031
8449.2,0.94143,-10.744
8460.9,0.93019,-9.8232
8472.7,1.0262,-10.73
8484.4,2.762,-9.6654
8496.1,4.408,-11.356
8507.8,3.0466,-9.4877
8519.5,2.7444,-9.2495
8531.3,2.5858,-10.067
8543,0.98943,-10.611
8554.7,1.264,-11.73
8566.4,3.6036,-9.9975
8578.1,4.8526,-10.535
8589.8,3.9908,-11.838
8601.6,3.0065,-8.4774
8613.3,-0.87667,-6.1009
8625,5.5303,-9.0573
8636.7,3.7165,-8.4745
8648.4,0.45015,-8.2369
8660.2,1.6186,-8.9836
8671.9,2.5019,-7.7372
8683.6,0.89722,-9.0533
8695.3,1.5661,-11.02
8707,1.5066,-10.588
8718.8,-0.080333,-10.811
8730.5,0.59833,-8.8759
8742.2,-1.0404,-7.3218
8753.9,1.1691,-8.6003
8765.6,1.2018,-11.658
8777.3,1.3316,-10.581
8789.1,0.71263,-8.1382
8800.8,1.0135,-7.0107
8812.5,2.6195,-11.467
8824.2,-0.56026,-10.693
8835.9,-0.9959,-12.158
8847.7,-0.11945,-13.432
8859.4,-0.89177,-9.7826
8871.1,0.91974,-7.9572
8882.8,-0.16661,-9.142
8894.5,2.3255,-11.976
8906.3,2.4607,-9.8997
8918,-0.49551,-9.5505
8929.7,-2.9279,-12.126
8941.4,0.95402,-11.191
8953.1,3.5476,-10.953
8964.8,1.3289,-8.7803
8976.6,1.2687,-9.3665
8988.3,1.1494,-11.983
9000,-1.0254,-7.9962
9011.7,1.3635,-9.4282
9023.4,1.424,-10.988
9035.2,0.81697,-10.605
9046.9,-1.4003,-11.701
9058.6,-4.8644,-11.376
9070.3,-1.1206,-10.85
9082,0.33737,-12.411
9093.8,-0.13745,-10.93
9105.5,-4.1041,-8.4204
9117.2,0.42279,-9.978
9128.9,1.8566,-15.005
9140.6,1.1566,-13.228
9152.3,2.9342,-11.768
9164.1,2.2606,-12.603
9175.8,1.5716,-8.4472
9187.5,1.6145,-7.9147
9199.2,0.9368,-10.498
9210.9,-1.4082,-11.561
9222.7,1.0582,-9.976
9234.4,1.7029,-9.6744
9246.1,0.9295,-11.888
9257.8,0.59686,-10.168
9269.5,-1.4303,-9.6229
9281.3,-1.0794,-8.0856
9293,2.2822,-10.673
9304.7,4.3626,-11.236
9316.4,-0.44973,-10.411
9328.1,4.1022,-11.298
9339.8,3.1419,-11.037
9351.6,0.73102,-13.186
9363.3,1.6184,-11.677
9375,2.419,-11.375
9386.7,1.2701,-13.038
9398.4,-0.78308,-12.984
9410.2,-0.9374,-13.389
9421.9,0.84658,-11.835
9433.6,0.55857,-13.355
9445.3,4.2957,-11.891
9457,1.8729,-14.433
9468.8,-1.613,-14.314
9480.5,-0.18708,-13.832
9492.2,0.37732,-12.36
9503.9,-1.4028,-10.12
9515.6,1.359,-10.59
9527.3,2.2023,-9.9188
9539.1,2.2175,-9.0133
9550.8,-0.21466,-10.589
9562.5,-1.3207,-12.241
9574.2,-0.41406,-10.922
9585.9,-0.33032,-11.437
9597.7,0.47056,-11.113
9609.4,3.0879,-13.219
9621.1,2.2012,-11.805
9632.8,1.5933,-9.2478
9644.5,1.9195,-9.6605
9656.3,-5.0659,-13.162
9668,1.9168,-13.74
9679.7,1.3296,-12.527
9691.4,-0.02176,-10.801
9703.1,2.1835,-11.25
9714.8,2.8379,-14.807
9726.6,-1.7109,-12.499
9738.3,-2.1673,-9.0466
9750,0.27892,-9.6321
9761.7,-1.8104,-12.533
9773.4,2.0668,-9.8619
9785.2,2.57,-12.598
9796.9,0.78635,-9.6726
9808.6,1.3775,-9.9256
9820.3,0.97012,-13.175
9832,1.1036,-12.607
9843.8,0.81114,-10.688
9855.5,1.3918,-10.491
9867.2,2.2829,-10.201
9878.9,-0.080224,-7.5364
9890.6,1.5825,-7.834
9902.3,5.0859,-10.309
9914.1,5.6757,-14.944
9925.8,0.25485,-13.274
9937.5,-2.9677,-9.2883
9949.2,1.4055,-7.5356
9960.9,-1.3671,-8.7144
9972.7,-0.91298,-10.514
9984.4,0.57504,-11.371
9996.1,0.57432,-9.1849
10008,0.41126,-10.765
10020,-1.2507,-13.396
10031,-1.8646,-12.716
10043,-2.1262,-13.32
10055,-0.93261,-14.252
10066,-3.3571,-10.051
10078,0.40485,-10.384
10090,0.6544,-13.605
10102,0.12488,-15.007
10113,0.86101,-10.803
10125,0.42412,-9.38
10137,-2.4487,-12.717
10148,-1.9837,-11.993
10160,-1.4499,-14.267
10172,-2.807,-13.968
10184,-0.092549,-12.006
10195,1.335,-8.9043
10207,1.8572,-8.8335
10219,0.58577,-10.912
10230,0.32908,-12.784
10242,-1.9267,-11.824
10254,-4.1691,-12.09
10266,-2.083,-10.636
10277,-0.57961,-11.96
10289,-0.2663,-10.29
10301,0.29075,-13.283
10313,-2.2173,-10.148
10324,1.0284,-11.508
10336,-0.92873,-12.817
10348,0.4604,-13.441
10359,0.68988,-14.772
10371,-0.98647,-11.701
10383,-3.5259,-12.974
10395,-3.5391,-17.193
10406,-3.2412,-12.698
10418,-3.6026,-13.96
10430,-1.0893,-14.131
10441,-2.3816,-13.516
10453,-2.6291,-12.724
10465,-2.0479,-13.717
10477,-2.433,-13.963
10488,-3.3893,-11.503
10500,-2.1821,-13.016
10512,-0.3672,-11.703
10523,-1.4376,-12.148
10535,-2.9077,-15.174
10547,-1.9872,-10.712
10559,-1.5195,-10.091
10570,-2.9651,-12.899
10582,-0.98646,-12.663
10594,-1.403,-13.959
10605,-3.735,-12.029
10617,-1.3787,-10.255
10629,-1.0845,-11.544
10641,-2.2909,-12.611
10652,-4.4159,-14.045
10664,-2.2305,-13.536
10676,-3.1783,-12.784
10688,-2.5083,-13.917
10699,-2.2079,-16.286
10711,-0.9303,-13.675
10723,3.3235,-12.439
10734,4.8231,-12.117
10746,2.1957,-13.188
10758,-2.1329,-11.472
10770,-3.6956,-7.8673
10781,-6.382,-9.7879
10793,-5.3143,-12.357
10805,-0.73525,-9.7886
10816,-0.37366,-12.064
10828,0.10402,-11.37
10840,-1.7405,-12.003
10852,-0.37461,-13.799
10863,-0.14452,-11.079
10875,-1.4288,-8.0623
10887,-0.83485,-11.958
10898,-2.2496,-13.464
10910,-2.4524,-13.987
10922,-2.5616,-10.838
10934,-1.436,-10.862
10945,-3.7455,-10.817
10957,-2.6136,-10.042
10969,-3.8887,-11.045
10980,-5.1022,-12.86
10992,-3.1305,-10.948
11004,1.6892,-9.2819
11016,2.0048,-11.064
11027,3.1111,-12.508
11039,2.2711,-11.905
11051,-4.0008,-11.67
11063,-3.0877,-14.305
11074,-2.6131,-13.258
11086,0.07244,-12.618
11098,1.1246,-10.024
11109,-0.53351,-14.512
11121,-1.1475,-10.903
11133,-3.0193,-12.55
11145,0.20037,-14.073
11156,-1.0023,-10.993
11168,-4.5305,-10.922
11180,-2.8095,-10.365
11191,-0.97283,-9.593
11203,-3.8331,-10.94
11215,-3.894,-11.307
11227,-3.6141,-10.13
11238,-2.636,-9.8072
11250,-2.0073,-11.396
11262,-0.97264,-13.413
11273,-2.0301,-12.29
11285,-1.4046,-13.073
11297,-3.1762,-11.737
11309,-0.073941,-9.4204
11320,0.91133,-13.056
11332,-1.0712,-12.173
11344,-2.4408,-9.1082
11355,-2.4342,-9.6428
11367,-4.3829,-9.8193
11379,-4.0269,-9.3668
11391,-4.1208,-10.279
11402,-4.433,-14.079
11414,-4.2611,-13.603
11426,-1.8976,-11.251
11438,-2.2128,-11.534
11449,-3.0465,-11.069
11461,-2.0285,-10.036
11473,-2.7408,-11.079
11484,-2.3585,-15.041
11496,-3.0106,-12.612
11508,-0.75267,-11.955
11520,-0.52457,-15.135
11531,-4.7365,-15.689
11543,-4.1648,-12.614
11555,-3.1492,-10.219
11566,-2.2288,-9.8023
11578,-2.4391,-11.286
11590,1.1086,-12.024
11602,1.7458,-14.358
11613,-1.0575,-8.9354
11625,-3.6307,-8.9709
11637,-5.6254,-8.5951
11648,-2.8889,-11.323
11660,-3.4626,-14.047
11672,-3.3456,-11.25
11684,-0.098282,-12.423
11695,1.6758,-14.085
11707,-0.75743,-13.187
11719,-2.8752,-12.95
11730,-2.558,-13.664
11742,-0.87082,-11.543
11754,-1.4078,-8.6592
11766,-3.8241,-9.0654
11777,0.1547,-12.665
11789,-2.4056,-11.299
11801,-3.8169,-10.04
11813,-4.7607,-10.488
11824,-5.6776,-11.88
11836,-2.7033,-13.143
11848,-4.1473,-10.205
11859,-0.35726,-12.74
11871,-0.64442,-13.176
11883,-1.0229,-14.769
11895,-2.4919,-12.76
11906,-4.5399,-10.42
11918,1.1318,-10.923
11930,-2.1898,-12.202
11941,-4.3992,-8.1626
11953,-4.1026,-10.965
11965,-2.1217,-13.753
11977,-2.6671,-14.185
11988,-5.0124,-11.735
12000,-6.7495,-9.7762
12012,-2.4875,-12.358
12023,-5.5579,-13.181
12035,-4.3808,-11.592
12047,0.53165,-11.524
12059,0.52318,-12.138
12070,-0.44544,-13.158
12082,-0.51895,-13.434
12094,-1.7478,-11.66
12105,-3.6905,-12.416
12117,-5.9437,-14.084
12129,-3.3571,-11.927
12141,-2.7766,-14.052
12152,-3.8498,-11.946
12164,-3.1025,-11.962
12176,-3.5763,-13.181
12188,-3.9671,-12.862
12199,-6.272,-11.717
12211,-3.8723,-12.033
12223,-2.7795,-10.822
12234,-2.4172,-10.792
12246,-1.6161,-14.143
12258,-2.9954,-12.691
12270,-3.8792,-15.505
12281,-3.8327,-13.882
12293,-5.1679,-15.444
12305,-2.6141,-15.056
12316,-3.7146,-13.481
12328,-2.5475,-12.895
12340,-1.5514,-12.47
12352,-1.0838,-13.338
12363,-1.3792,-14.089
12375,-3.4282,-13.918
12387,-5.4621,-11.562
12398,-4.8071,-11.058
12410,0.031078,-12.389
12422,0.79995,-12.169
12434,-0.97797,-12.373
12445,-3.3859,-12.665
12457,-5.555,-14.073
12469,-3.3258,-12.383
12480,-0.92684,-10.278
12492,-1.7059,-10.869
12504,-2.8356,-14.859
12516,-4.7934,-13.167
12527,-7.8272,-11.443
12539,-3.2282,-10.839
12551,-6.2859,-11.975
12563,-6.6622,-13.03
12574,-1.8427,-12.357
12586,-2.7997,-14.278
12598,-4.7961,-12.647
12609,-2.3749,-18.283
12621,-3.7255,-12.049
12633,-3.0599,-12.048
12645,-0.81915,-14.238
12656,-1.5388,-13.902
12668,-3.9968,-12.421
12680,-3.2938,-11.276
12691,-1.1791,-10.932
12703,-4.3351,-11.977
12715,-7.8556,-12.362
12727,-3.7518,-14.693
12738,-3.5737,-15.155
12750,-2.3153,-16.827
12762,-1.4104,-15.866
12773,-2.4052,-14.954
12785,-1.1966,-10.201
12797,-2.4462,-13.768
12809,-2.1363,-14.664
12820,-4.8212,-13.852
12832,-2.7848,-11.163
12844,-1.901,-13.397
12855,-5.6147,-15.614
12867,-2.4292,-13.485
12879,-1.1866,-14.349
12891,-4.0072,-15.683
12902,-2.2211,-11.999
12914,-2.2854,-14.669
12926,-4.7756,-13.599
12938,-3.1054,-11.083
12949,-0.82086,-9.5602
12961,-0.92082,-9.9073
12973,-1.5169,-11.664
12984,-2.8957,-15.477
12996,-3.7394,-14.445
13008,-2.6496,-11.186
13020,-6.0228,-11.776
13031,-7.5997,-12.551
13043,-4.3274,-12.987
13055,-5.6081,-15.04
13066,-2.6442,-13.784
13078,-2.0195,-15.657
13090,-3.2799,-17.469
13102,-2.9281,-16.296
13113,-3.8011,-16.915
13125,-3.7491,-17.8
13137,-4.0098,-15.406
13148,-3.9788,-13.743
13160,-2.956,-15.701
13172,-4.2183,-13.006
13184,-6.1168,-12.78
13195,-4.9117,-15.977
13207,-4.7223,-13.697
13219,-4.8108,-13.55
13230,-5.826,-15.177
13242,-4.407,-15.402
13254,-2.3628,-16.104
13266,-1.1358,-14.158
13277,-0.1219,-15.91
13289,-1.8254,-15.148
13301,-0.97759,-12.078
13313,-2.1978,-9.8975
13324,-5.3364,-9.3425
13336,-1.5597,-9.8259
13348,-4.1411,-10.5
13359,-6.0869,-13.5
13371,-7.3292,-18.146
13383,-7.7894,-14.405
13395,-6.0209,-13.495
13406,-6.2834,-12.991
13418,-3.8301,-13.748
13430,-6.4069,-14.354
13441,-3.3331,-14.15
13453,-3.9861,-13.568
13465,-2.1017,-14.949
13477,-4.0602,-15.844
13488,-4.2614,-14.228
13500,-3.2625,-14.981
13512,-5.9669,-13.841
13523,-5.0464,-14.648
13535,-4.9114,-13.017
13547,-4.0546,-11.092
13559,-6.7007,-10.934
13570,-6.7033,-13.747
13582,-5.2226,-13.834
13594,-3.4211,-12.885
13605,-2.5334,-15.19
13617,-2.5138,-16.457
13629,-2.7233,-16.177
13641,-1.7446,-17.788
13652,-3.3872,-14.666
13664,-5.9408,-15.791
13676,-6.3073,-17.732
13688,-2.7195,-17.951
13699,-1.421,-16.998
13711,-3.2832,-12.521
13723,-4.0446,-13.313
13734,-5.8018,-17.466
13746,-7.1909,-15.814
13758,-6.2169,-16.328
13770,-5.4959,-16.528
13781,-2.8443,-17.07
13793,-4.4003,-15.323
13805,-6.1926,-16.202
13816,-7.4636,-16.513
13828,-6.2609,-16.461
13840,-3.0937,-15.628
13852,-4.323,-16.505
13863,-3.8468,-16.322
13875,-3.2375,-15.354
13887,-4.3695,-17.349
13898,-4.9828,-17.68
13910,-4.8734,-17.068
13922,-5.1706,-13.174
13934,-4.0506,-14.47
13945,-3.1405,-16.442
13957,-5.0528,-14.842
13969,-4.6078,-15.61
13980,-3.5384,-12.053
13992,-7.2343,-13.085
14004,-3.9129,-13.462
14016,-2.5158,-14.512
14027,-3.6726,-16.212
14039,-3.8843,-17.379
14051,-4.6974,-18.585
14063,-4.4161,-13.181
14074,-3.4847,-10.492
14086,-5.3528,-11.868
14098,-5.2561,-13.835
14109,-7.0113,-13.796
14121,-5.772,-14.232
14133,-6.0615,-16.219
14145,-2.129,-17.145
14156,-4.4913,-16.162
14168,-4.8647,-14.66
14180,-6.115,-13.785
14191,-1.6903,-13.675
14203,-2.1744,-14.214
14215,-3.6823,-12.765
14227,-3.1774,-14.315
14238,-6.0268,-13.303
14250,-6.4943,-12.354
14262,-3.2873,-13.179
14273,-2.4599,-14.406
14285,-3.4948,-13.49
14297,-5.9884,-14.29
14309,-7.7841,-16.136
14320,-5.2288,-13.819
14332,-6.072,-12.704
14344,-0.38577,-12.519
14355,-1.7878,-12.065
14367,-5.7362,-13.572
14379,-3.6882,-15.988
14391,-3.4573,-15.35
14402,-6.3307,-14.881
14414,-9.0578,-14.165
14426,-6.0263,-14.563
14438,-5.1061,-16.255
14449,-2.7298,-13.063
14461,-2.9274,-13.367
14473,-6.0786,-14.834
14484,-8.8809,-14.645
14496,-7.3302,-14.113
14508,-6.6722,-13.391
14520,-7.0965,-10.942
14531,-9.6555,-11.908
14543,-4.1287,-15.83
14555,-0.76196,-14.776
14566,-5.3911,-13.141
14578,-0.77749,-13.26
14590,-4.114,-11.955
14602,-9.1123,-14.247
14613,-5.8179,-16.088
14625,-6.0039,-13.402
14637,-6.4587,-15.996
14648,-5.1739,-17.633
14660,-8.2172,-18.735
14672,-8.3526,-19.182
14684,-7.2421,-19.778
14695,-7.8074,-17.418
14707,-4.9695,-14.362
14719,-4.4928,-15.017
14730,-2.9591,-16.376
14742,-4.0146,-13.592
14754,-6.7911,-15.798
14766,-6.756,-16.688
14777,-6.9211,-14.135
14789,-6.1111,-15.441
14801,-4.0633,-15.231
14813,-4.991,-14.995
14824,-6.3102,-13.393
14836,-7.3153,-16.339
14848,-6.8088,-14.826
14859,-2.3389,-15.667
14871,-3.8449,-14.449
14883,-8.0371,-13.274
14895,-4.3509,-14.641
14906,-2.2044,-17.685
14918,-4.6016,-14.093
14930,-4.9888,-13.416
14941,-3.2484,-14.731
14953,-4.2752,-15.442
14965,-6.049,-13.892
14977,-4.7242,-14.065
14988,-6.5114,-13.422
15000,-7.6051,-12.185
15012,-8.4675,-14.201
15023,-6.1195,-14.216
15035,-6.1218,-14.091
15047,-8.4404,-15.006
15059,-9.7362,-14.714
15070,-7.9678,-13.736
15082,-9.3974,-14.165
15094,-7.6907,-12.234
15105,-5.8897,-13.173
15117,-7.6358,-14.446
15129,-4.4002,-14.361
15141,-5.9508,-16.161
15152,-9.2349,-14.932
15164,3.3063,-17.368
15176,5.0617,-17.928
15188,-4.4647,-15.657
15199,-7.5954,-14.984
15211,-6.7739,-18.518
15223,-7.077,-14.959
15234,-9.7903,-14.7
15246,-8.4096,-14.199
15258,-5.8064,-12.211
15270,-7.6487,-12.28
15281,-7.12,-11.761
15293,-6.7533,-16.076
15305,-8.7806,-16.042
15316,-8.5922,-15.34
15328,-7.2674,-17.174
15340,-7.4247,-17.09
15352,-8.438,-15.496
15363,-5.1675,-14.169
15375,-3.798,-14.627
15387,-4.8844,-14.411
15398,-6.8523,-13.785
15410,-7.2175,-12.852
15422,-7.5347,-13.09
15434,-11.184,-14.888
15445,-6.6391,-13.854
15457,-5.1564,-15.655
15469,-6.9859,-14.16
15480,-7.849,-17.544
15492,-5.9595,-16.124
15504,-6.6553,-14.638
15516,-6.4272,-14.78
15527,-8.7537,-15.296
15539,-10.211,-15.172
15551,-8.7577,-13.999
15563,-8.3615,-13.89
15574,-8.8003,-16.804
15586,-8.9734,-12.86
15598,-7.5748,-13.794
15609,-7.1794,-16.942
15621,-8.3007,-18.155
15633,-7.9375,-14.685
15645,-8.2388,-14.509
15656,-6.8637,-16.492
15668,-6.9931,-17.017
15680,-9.7725,-17.311
15691,-6.4381,-17.032
15703,-5.659,-13.727
15715,-8.6429,-10.292
15727,-8.2793,-11.348
15738,-7.2575,-18.899
15750,-7.1879,-20.527
15762,-7.1768,-20.168
15773,-8.5024,-15.972
15785,-11.183,-13.757
15797,-10.865,-15.61
15809,-10.737,-17.917
15820,-7.768,-17.076
15832,-6.6563,-17.671
15844,-7.3956,-17.643
15855,-5.8642,-14.728
15867,-11.181,-14.028
15879,-10.325,-15.744
15891,-6.824,-17.837
15902,-3.9487,-16.343
15914,-4.4557,-12.049
15926,-7.5485,-14.104
15938,-10.306,-15.9
15949,-6.7608,-14.334
15961,-11.069,-15.336
15973,-5.2414,-14.425
15984,13.887,-13.367
15996,24.782,-13.307
16008,22.844,-14.675
16020,4.551,-14.046
16031,-5.0773,-14.193
16043,-5.1217,-16.219
16055,-7.7333,-14.767
16066,-5.1974,-13.256
16078,-5.985,-14.815
16090,-6.3071,-17.609
16102,-11.385,-17.137
16113,-8.8312,-15.484
16125,-7.5352,-13.998
16137,-9.9603,-17.417
16148,-6.6847,-15.585
16160,-7.7737,-12.249
16172,-12.026,-13.384
16184,-11.004,-14.535
16195,-9.2489,-14.193
16207,-9.1587,-14.356
16219,-8.2526,-14.083
16230,-8.4996,-17.579
16242,-7.3658,-16.267
16254,-7.9995,-16.074
16266,-7.3907,-16.388
16277,-6.3258,-17.459
16289,-7.4677,-18.994
16301,-9.2929,-16.87
16313,-9.7177,-16.246
16324,-11.931,-13.675
16336,-11.881,-14.139
16348,-13.457,-13.009
16359,-11.498,-13.489
16371,-9.0053,-15.735
16383,-8.4259,-15.393
16395,-9.607,-14.341
16406,-11.36,-14.652
16418,-7.4222,-18.437
16430,-9.8345,-17.94
16441,-10.238,-16.604
16453,-10.919,-13.691
16465,-9.8302,-14.923
16477,-12.162,-17.137
16488,-10.469,-16.434
16500,-9.7629,-16.38
16512,-7.561,-15.174
16523,-8.3068,-16.372
16535,-9.4242,-17.508
16547,-9.3779,-15.787
16559,-6.5381,-15.077
16570,-5.7528,-15.298
16582,-8.7408,-17.397
16594,-12.874,-17.681
16605,-7.2419,-16.266
16617,-7.3946,-19.806
16629,-10.31,-18.082
16641,-10.508,-17.055
16652,-7.8287,-15.964
16664,-6.7327,-15.614
16676,-10.669,-16.68
16688,-7.9594,-16.42
16699,-7.6232,-15.612
16711,-9.7885,-12.946
16723,-13.322,-13.242
16734,-14.033,-16.916
16746,-9.9399,-17.601
16758,-10.959,-13.442
16770,-9.1225,-14.509
16781,-6.5329,-15.094
16793,-10.521,-17.164
16805,-10.598,-20.453
16816,-7.6993,-17.159
16828,-6.4181,-14.527
16840,-12.743,-15.172
16852,-11.742,-16.396
16863,-9.8082,-15.883
16875,-10.487,-14.644
16887,-9.2672,-18.302
16898,-8.3243,-14.657
16910,-11.153,-16.49
16922,-12.065,-19.305
16934,-11.204,-15.423
16945,-12.443,-18.018
16957,-12.96,-18.063
16969,-9.7241,-13.83
16980,-9.3423,-12.811
16992,-11.47,-14.983
17004,-12.994,-14.158
17016,-9.4959,-12.78
17027,-9.4633,-13.49
17039,-11.689,-15.545
17051,-10.784,-18.105
17063,-11.157,-17.919
17074,-10.895,-15.524
17086,-9.0927,-17.89
17098,-8.79,-16.505
17109,-7.8746,-15.363
17121,-6.3426,-19.471
17133,-6.9191,-14.764
17145,-6.4332,-14.896
17156,-10.664,-18.523
17168,-11.169,-17.735
17180,-13.67,-15.628
17191,-12.448,-16.077
17203,-11.203,-17.378
17215,-9.0484,-15.228
17227,-8.4246,-15.995
17238,-7.2325,-16.503
17250,-10.197,-16.824
17262,-10.887,-17.011
17273,-10.008,-18.244
17285,-9.1886,-18.747
17297,-10.486,-15.575
17309,-15.707,-13.296
17320,-10.875,-15.524
17332,-9.2259,-16.748
17344,-11.478,-18.142
17355,-9.7338,-17.413
17367,-9.7134,-17.585
17379,-10.22,-17.531
17391,-9.3403,-15.877
17402,-7.6538,-13.908
17414,-7.3584,-17.321
17426,-9.1183,-18.039
17438,-9.9967,-19.731
17449,-10.703,-18.124
17461,-9.0388,-17.638
17473,-8.8588,-18.348
17484,-4.7365,-19.823
17496,-9.0021,-20.349
17508,-11.736,-15.411
17520,-9.5918,-15.481
17531,-8.3667,-15.927
17543,-7.2256,-16.676
17555,-7.7208,-15.382
17566,-12.723,-14.468
17578,-10.624,-15.233
17590,-9.8285,-15.986
17602,-11.139,-16.322
17613,-10.39,-16.133
17625,-10.024,-15.224
17637,-11.928,-16.274
17648,-13.011,-17.877
17660,-7.1966,-15.337
17672,-12.955,-13.349
17684,-8.2098,-13.153
17695,-9.4444,-13.876
17707,-10.79,-16.708
17719,-8.1347,-18.118
17730,-12.29,-17.215
17742,-10.6,-19.176
17754,-9.1534,-19.968
17766,-12.693,-19.206
17777,-10.433,-16.58
17789,-11.383,-14.47
17801,-9.2357,-14.39
17813,-8.8979,-17.702
17824,-10.6,-18.567
17836,-13.133,-15.618
17848,-12.751,-14.324
17859,-8.8357,-15.76
17871,-9.9147,-18.002
17883,-10.316,-16.517
17895,-9.6182,-18.193
17906,-10.523,-18.323
17918,-11.762,-15.192
17930,-16.199,-17.138
17941,-13.726,-16.465
17953,-10.907,-18.614
17965,-7.7725,-19.003
17977,-10.818,-19.085
17988,-12.337,-18.249
18000,-8.8105,-14.021
18012,-10.987,-11.773
18023,-9.1791,-14.288
18035,-9.7417,-14.79
18047,-17.175,-15.922
18059,-10.124,-19.304
18070,-11.049,-20.672
18082,-12.844,-16.536
18094,-13.007,-16.266
18105,-11.775,-13.093
18117,-12.362,-17.196
18129,-12.693,-22.13
18141,-13.943,-19.498
18152,-12.157,-17.052
18164,-10.549,-13.564
18176,-10.951,-15.267
18188,-12.697,-18.983
18199,-9.8793,-16.945
18211,-11.343,-16.771
18223,-12.109,-17.689
18234,-11.295,-16.969
18246,-11.242,-15.097
18258,-11.583,-16.451
18270,-10.388,-17.647
18281,-9.6249,-16.94
18293,-12.785,-18.319
18305,-9.7648,-18.246
18316,-10.211,-16.98
18328,-13.913,-18.646
18340,-10.783,-14.638
18352,-11.387,-15.825
18363,-13.561,-15.818
18375,-13.81,-16.474
18387,-13.276,-20.19
18398,-12.608,-20.713
18410,-9.7623,-18.056
18422,-9.8312,-17.807
18434,-11.504,-15.859
18445,-14.045,-17.494
18457,-9.8409,-17.617
18469,-8.11,-17.088
18480,-11.984,-15.047
18492,-17.901,-13.858
18504,-13.797,-15.379
18516,-13.759,-17.99
18527,-15.561,-19.055
18539,-11.807,-18.216
18551,-9.7247,-16.363
18563,-9.2102,-16.44
18574,-10.166,-18.168
18586,-12.669,-18.372
18598,-14.66,-19.025
18609,-13.335,-19.214
18621,-14.624,-19.584
18633,-15.032,-21.638
18645,-13.771,-21.02
18656,-13.649,-17.271
18668,-12.226,-14.841
18680,-11.784,-16.151
18691,-13.72,-21.694
18703,-11.743,-20.213
18715,-10.849,-17.535
18727,-10.081,-19.714
18738,-12.081,-20.959
18750,-13.34,-19.088
18762,-11.24,-16.142
18773,-10.045,-16.932
18785,-11.074,-16.919
18797,-14.82,-15.771
18809,-15.69,-17.478
18820,-11.174,-16.569
18832,-12.411,-16.334
18844,-11.001,-16.236
18855,-12.669,-17.977
18867,-11.937,-16.967
18879,-13.679,-17.295
18891,-13.168,-19.496
18902,-10.583,-18.07
18914,-11.567,-15.807
18926,-12.043,-14.792
18938,-10.361,-16.581
18949,-11.655,-16.553
18961,-13.331,-18.013
18973,-11.331,-19.317
18984,-13.26,-17.356
18996,-12.997,-15.437
19008,-10.88,-17.254
19020,-11.072,-19.918
19031,-12.873,-17.971
19043,-14.418,-16.494
19055,-11.754,-17.081
19066,-14.886,-16.79
19078,-15.225,-17.934
19090,-14.705,-19.9
19102,-12.026,-18.736
19113,-11.903,-18.077
19125,-15.902,-19.732
19137,-13.951,-17.639
19148,-11.228,-18.199
19160,-10.7,-20.6
19172,-12.892,-17.62
19184,-15.533,-17.17
19195,-13.718,-18.603
19207,-10.073,-16.622
19219,-10.327,-19.221
19230,-13.362,-17.607
19242,-18.93,-16.165
19254,-18.475,-15.542
19266,-15.138,-17.552
19277,-15.316,-17.56
19289,-13.205,-16.329
19301,-12.739,-17.62
19313,-15.059,-17.912
19324,-15.317,-17.111
19336,-12.676,-16.324
19348,-14.878,-16.081
19359,-12.682,-16.141
19371,-14.503,-17.426
19383,-12.744,-18.084
19395,-9.8062,-17.776
19406,-9.4299,-19.013
19418,-11.841,-20.167
19430,-13.592,-19.123
19441,-15.787,-18.287
19453,-13.637,-21.146
19465,-11.715,-19.722
19477,-14.907,-16.994
19488,-15.71,-15.159
19500,-13.146,-16.215
19512,-12.128,-18.14
19523,-13.604,-17.809
19535,-12.833,-18.041
19547,-10.147,-17.624
19559,-10.11,-16.01
19570,-9.9271,-13.975
19582,-10.12,-15.639
19594,-12.969,-19.295
19605,-13.186,-17.753
19617,-20.01,-16.047
19629,-18.052,-15.674
19641,-15.975,-20.874
19652,-15.578,-18.495
19664,-13.184,-16.418
19676,-12.899,-17.682
19688,-13.576,-14.662
19699,-14.051,-16.319
19711,-14.916,-18.651
19723,-13.743,-19.533
19734,-13.376,-18.234
19746,-14.727,-19.525
19758,-13.834,-17.596
19770,-14.839,-18.684
19781,-15.879,-20.269
19793,-14.907,-23.284
19805,-13.281,-21.12
19816,-14.534,-20.44
19828,-15.498,-21.218
19840,-14.033,-19.423
19852,-12.367,-17.55
19863,-15.164,-18.582
19875,-13.748,-19.254
19887,-15.076,-16.012
19898,-13.777,-16.898
19910,-12.472,-19.651
19922,-11.771,-18.958
19934,-12.946,-16.965
19945,-14.25,-17.228
19957,-14.615,-19.711
19969,-16.515,-19.863
19980,-15.343,-18.15
19992,-16.485,-15.702
20004,-13.614,-14.342
20016,-14.091,-18.583
20027,-17.352,-18.234
20039,-16.649,-19.513
20051,-13.623,-20.331
20063,-13.514,-21.115
20074,-13.513,-21.827
20086,-12.145,-20.721
20098,-11.511,-18.833
20109,-13.472,-18.428
20121,-15.747,-19.232
20133,-13.495,-17.518
20145,-16.039,-19.568
20156,-15.749,-19.789
20168,-12.694,-20.16
20180,-13.035,-18.61
20191,-14.713,-17.604
20203,-12.924,-17.861
20215,-12.812,-16.173
20227,-14.461,-17.632
20238,-14.893,-18.882
20250,-15.097,-17.116
20262,-12.496,-20.946
20273,-9.6607,-21.203
20285,-10.197,-21.802
20297,-10.017,-18.141
20309,-8.3188,-16.002
20320,-12.821,-15.932
20332,-16.324,-17.885
20344,-16.707,-21.004
20355,-12.592,-22.714
20367,-14.904,-20.425
20379,-17.767,-19.888
20391,-14.406,-19.834
20402,-14.076,-20.387
20414,-14.294,-20.855
20426,-14.939,-17.249
20438,-13.768,-16.158
20449,-14.465,-19.803
20461,-13.792,-15.911
20473,-10.836,-16.903
20484,-11.736,-16.117
20496,-14.723,-16.838
20508,-16.929,-19.337
20520,-18.109,-17.869
20531,-16.592,-16.132
20543,-14.03,-17.142
20555,-15.431,-17.236
20566,-12.415,-18.088
20578,-13.278,-18.625
20590,-14.938,-19.436
20602,-15.937,-20.102
20613,-15.068,-20.316
20625,-13.58,-18.255
20637,-13.422,-18.408
20648,-18.022,-18.166
20660,-19.758,-16.801
20672,-18.118,-17.379
20684,-19.023,-16.802
20695,-16.438,-16.15
20707,-14.35,-16.895
20719,-14.306,-18.241
20730,-14.182,-15.835
20742,-16.575,-16.346
20754,-14.182,-17.732
20766,-15.974,-20.442
20777,-15.345,-20.194
20789,-16.085,-21.874
20801,-13.213,-21.486
20813,-12.104,-19.416
20824,-12.987,-18.948
20836,-13.399,-19.931
20848,-16.645,-19.543
20859,-17.211,-19.771
20871,-15.692,-16.108
20883,-17.384,-15.931
20895,-16.384,-16.867
20906,-16.581,-19.22
20918,-15.272,-17.31
20930,-15.489,-16.682
20941,-18.338,-21.44
20953,-16.227,-19.928
20965,-19.494,-18.7
20977,-15.861,-18.307
20988,-15.047,-18.659
21000,-13.757,-15.02
21012,-14.415,-16.972
21023,-17.138,-18.443
21035,-14.847,-18.115
21047,-13.564,-18.536
21059,-11.114,-17.465
21070,-10.987,-17.901
21082,-15.703,-20.187
21094,-18.466,-19.332
21105,-14.968,-18.194
21117,-15.935,-18.81
21129,-15.102,-18.807
21141,-13.442,-20.265
21152,-14.678,-18.556
21164,-15.931,-18.3
21176,-16.502,-19.448
21188,-18.729,-21.468
21199,-16.74,-20.005
21211,-16.808,-19.9
21223,-16.887,-19.654
21234,-17.704,-19.063
21246,-18.689,-19.931
21258,-17.478,-18.894
21270,-13.133,-19.542
21281,-12.863,-19.892
21293,-16.515,-18.257
21305,-14.764,-16.985
21316,-17.746,-18.412
21328,-17.317,-20.765
21340,-16.496,-19.243
21352,-16.409,-18.812
21363,-16.985,-23.401
21375,-13.512,-22.967
21387,-11.563,-21.44
21398,-12.314,-19.388
21410,-15.52,-20.798
21422,-13.583,-21.692
21434,-15.45,-19.432
21445,-16.01,-17.241
21457,-14.475,-17.487
21469,-15.598,-16.915
21480,-15.755,-18.581
21492,-16.251,-19.694
21504,-18.043,-20.22
21516,-17.011,-19.167
21527,-18.439,-18.024
21539,-15.401,-18.486
21551,-16.08,-18.108
21563,-16.794,-17.471
21574,-15.058,-20.522
21586,-12.599,-17.512
21598,-13.196,-17.902
21609,-15.078,-19.098
21621,-17.344,-16.904
21633,-14.791,-16.432
21645,-17.495,-19.049
21656,-19.282,-18.833
21668,-16.644,-18.243
21680,-15.658,-17.76
21691,-15.953,-18.815
21703,-17.955,-17.86
21715,-17.707,-17.236
21727,-16.527,-19.275
21738,-17.038,-18.794
21750,-16.52,-16.879
21762,-17.782,-18.413
21773,-17.382,-20.137
21785,-16.399,-19.388
21797,-14.71,-18.36
21809,-14.205,-16.73
21820,-14.053,-18.983
21832,-13.539,-21.045
21844,-12.201,-20.783
21855,-14.808,-18.512
21867,-13.402,-19.193
21879,-14.398,-18.76
21891,-18.742,-16.169
21902,-18.64,-17.006
21914,-15.584,-20.255
21926,-14.935,-18.894
21938,-16.509,-19.307
21949,-17.697,-19.563
21961,-17.377,-19.096
21973,-15.036,-18.358
21984,-16.58,-16.229
21996,-17.92,-15.386
22008,-17.083,-17.457
22020,-12.834,-22.263
22031,-12.786,-19.781
22043,-15.085,-18.743
22055,-14.912,-21.131
22066,-18.603,-20.063
22078,-18.12,-21.532
22090,-16.25,-21.703
22102,-15.564,-19.915
22113,-14.826,-23.587
22125,-16.501,-18.692
22137,-14.838,-18.625
22148,-15.03,-19.352
22160,-18.104,-18.733
22172,-16.539,-16.991
22184,-15.007,-18.578
22195,-14.214,-19.309
22207,-17.046,-19.47
22219,-16.906,-18.815
22230,-14.86,-18.892
22242,-13.445,-20.489
22254,-15.656,-22.953
22266,-15.58,-22.488
22277,-15.919,-21.217
22289,-19.34,-20.844
22301,-16.585,-20.319
22313,-17.787,-20.984
22324,-18.706,-19.439
22336,-16.192,-18.774
22348,-17.38,-21.744
22359,-14.002,-20.745
22371,-15.265,-18.079
22383,-17.996,-17.779
22395,-19.843,-18.91
22406,-17.379,-20.805
22418,-18.025,-21.717
22430,-19.115,-18.474
22441,-19.018,-18.785
22453,-17.29,-22.648
22465,-18.073,-20.024
22477,-18.352,-19.799
22488,-15.224,-21.452
22500,-14.199,-24.347
22512,-15.678,-23.697
22523,-14.455,-22.764
22535,-17.904,-21.497
22547,-18.763,-20.298
22559,-19.614,-20.05
22570,-17.576,-17.032
22582,-16.211,-17.698
22594,-14.939,-19.659
22605,-15.443,-21.895
22617,-15.715,-20.906
22629,-15.951,-22.934
22641,-16.852,-19.749
22652,-18.413,-18.493
22664,-19.666,-21.562
22676,-18.594,-21.853
22688,-16.403,-22.133
22699,-18.384,-21.595
22711,-18.995,-22.075
22723,-18.457,-20.862
22734,-18.172,-19.08
22746,-19.337,-17.516
22758,-17.413,-18.031
22770,-14.177,-17.437
22781,-16.778,-18.743
22793,-19.361,-17.414
22805,-19.941,-17.175
22816,-16.867,-19.516
22828,-17.934,-20.373
22840,-16.309,-20.487
22852,-18.189,-21.196
22863,-18.519,-21.077
22875,-20.076,-19.751
22887,-20.467,-19.804
22898,-18.206,-19.632
22910,-18.053,-21.336
22922,-16.84,-20.136
22934,-17.976,-19.274
22945,-17.313,-21.318
22957,-14.999,-21.266
22969,-14.005,-24.008
22980,-14.179,-23.458
22992,-18.198,-19.919
23004,-17.56,-18.561
23016,-15.717,-22.14
23027,-17.428,-19.458
23039,-14.674,-21.619
23051,-17.442,-21
23063,-17.388,-19.061
23074,-15.508,-21.26
23086,-15.207,-20.007
23098,-16.19,-21.716
23109,-14.816,-19.206
23121,-15.369,-21.895
23133,-15.154,-23.192
23145,-16.623,-21.209
23156,-19.21,-20.618
23168,-18.412,-21.087
23180,-19.02,-19.969
23191,-19.282,-17.877
23203,-17.497,-16.179
23215,-16.216,-18.802
23227,-17.076,-20.819
23238,-18.496,-18.868
23250,-18.43,-20.065
23262,-17.785,-22.004
23273,-17.361,-19.024
23285,-15.044,-17.892
23297,-15.481,-21.086
23309,-19.848,-22.397
23320,-18.156,-22.275
23332,-16.108,-23.215
23344,-18.54,-25.403
23355,-19.491,-20.721
23367,-20.146,-18.021
23379,-19.632,-20.06
23391,-19.539,-19.872
23402,-19.524,-20.707
23414,-17.579,-20.524
23426,-15.61,-18.932
23438,-17.072,-20.267
23449,-18.444,-22.79
23461,-19.513,-22.064
23473,-16.909,-21.111
23484,-16.912,-20.154
23496,-18.86,-22.43
23508,-18.333,-20.736
23520,-17.952,-22.618
23531,-18.797,-18.598
23543,-18.216,-21.3
23555,-15.753,-22.561
23566,-16.038,-24.768
23578,-16.359,-20.819
23590,-17.831,-20.039
23602,-17.904,-22.622
23613,-16.269,-21.745
23625,-19.07,-16.702
23637,-19.143,-20.056
23648,-19.94,-18.747
23660,-20.33,-17.727
23672,-21.271,-18.661
23684,-20.483,-18.371
23695,-17.442,-18.413
23707,-20.46,-21.183
23719,-20.379,-22.753
23730,-18.962,-20.226
23742,-17.991,-19.54
23754,-17.19,-21.205
23766,-16.516,-22.321
23777,-17.45,-23.241
23789,-16.668,-24.604
23801,-20.114,-22.012
23813,-22.246,-20.594
23824,-22.993,-21.171
23836,-19.319,-22.143
23848,-18.149,-22.462
23859,-19.658,-19.75
23871,-19.924,-19.214
23883,-14.977,-18.659
23895,-14.967,-16.319
23906,-17.172,-18.685
23918,-18.523,-19.971
23930,-14.371,-18.343
23941,-17.371,-22.506
23953,-19.345,-24.936
23965,-21.039,-20.855
23977,-16.599,-19.8
23988,-16.754,-18.468
