FFT,Power Spectrum
Frequency[Hz],Level-L[dB],Level-R[dB]
11.719,-4.3581,-65.583
23.438,15.506,-50.607
35.156,13.549,-40.954
46.875,14.037,-27.085
58.594,16.381,-24.516
70.313,17.908,-28.126
82.031,19.33,-28.994
93.75,23.946,-26.361
105.47,21.067,-23.06
117.19,18.049,-18.333
128.91,21.722,-14.851
140.63,20.833,-16.379
152.34,17.655,-13.952
164.06,14.761,-15.647
175.78,15.639,-17.013
187.5,18.968,-18.064
199.22,21.191,-18.117
210.94,19.973,-15.827
222.66,17.639,-19.169
234.38,18.605,-18.305
246.09,18.056,-16.149
257.81,18.926,-16.19
269.53,18.088,-14.84
281.25,17.689,-17.853
292.97,15.804,-16.193
304.69,14.859,-18.095
316.41,17.878,-14.866
328.13,17.299,-15.184
339.84,15.922,-16.216
351.56,15.967,-14.809
363.28,14.703,-12.853
375,11.386,-11.767
386.72,12.229,-10.205
398.44,13.412,-12.313
410.16,17.076,-11.563
421.88,17.012,-12.229
433.59,15.804,-12.156
445.31,16.365,-8.7242
457.03,18.503,-9.3839
468.75,19.262,-14.184
480.47,21.154,-12.268
492.19,15.499,-9.7345
503.91,13.385,-10.948
515.63,14.091,-10.99
527.34,12.277,-10.207
539.06,12.645,-10.04
550.78,15.49,-9.5767
562.5,15.936,-15.022
574.22,19.38,-10.253
585.94,21.108,-8.8994
597.66,20.848,-9.3755
609.38,17.954,-9.2733
621.09,23.839,-9.9672
632.81,21.83,-12.634
644.53,17.308,-10.155
656.25,17.12,-10.246
667.97,17.289,-11.4
679.69,17.499,-7.5209
691.41,15.871,-8.9674
703.13,11.926,-10.802
714.84,14.861,-13.243
726.56,15.554,-11.17
738.28,13.934,-9.5013
750,14.026,-9.0912
761.72,14.364,-8.9262
773.44,15.56,-8.8161
785.16,13.116,-12.615
796.88,16.892,-12.758
808.59,18.975,-10.614
820.31,15.588,-8.8412
832.03,11.147,-9.7818
843.75,15.482,-11.285
855.47,17.181,-9.9871
867.19,15.449,-10.479
878.91,12.241,-13.606
890.63,11.737,-9.2947
902.34,12.292,-7.4185
914.06,12.097,-9.4624
925.78,14.114,-9.5614
937.5,14.203,-9.3569
949.22,15.309,-9.0632
960.94,15.335,-8.2764
972.66,14.102,-8.3382
984.38,13.013,-9.2347
996.09,13.885,-7.6831
1007.8,11.57,-4.8677
1019.5,12.64,-6.489
1031.3,13.868,-7.7825
1043,16.485,-8.7954
1054.7,18.358,-7.0354
1066.4,12.468,-6.9602
1078.1,14.97,-9.5544
1089.8,16.839,-10.379
1101.6,16.481,-10.794
1113.3,14.515,-8.6085
1125,14.398,-9.5569
1136.7,15.534,-10.742
1148.4,16.094,-8.5161
1160.2,16.509,-9.4584
1171.9,13.486,-6.5583
1183.6,13.949,-8.6049
1195.3,14.864,-7.4208
1207,15.042,-8.7081
1218.8,14.162,-9.0716
1230.5,14.735,-8.9705
1242.2,12.861,-7.2378
1253.9,13.221,-7.7656
1265.6,12.317,-6.7874
1277.3,16.216,-3.586
1289.1,16.32,-6.7157
1300.8,13.841,-10.686
1312.5,11.491,-8.8962
1324.2,13.595,-10.88
1335.9,15.924,-8.5127
1347.7,14.213,-6.815
1359.4,15.949,-6.0655
1371.1,15.942,-11.174
1382.8,14.989,-6.3865
1394.5,14.502,-5.9149
1406.3,16.879,-8.57
1418,14.941,-9.3042
1429.7,15.605,-9.3554
1441.4,14.774,-9.8518
1453.1,15.392,-7.4593
1464.8,15.041,-4.718
1476.6,17.471,-7.6291
1488.3,17.009,-8.9006
1500,15.465,-5.0654
1511.7,14.802,-4.5809
1523.4,13.074,-7.408
1535.2,14.356,-9.3341
1546.9,13.77,-10.196
1558.6,14.819,-9.7134
1570.3,14.785,-5.0444
1582,12.654,-6.7382
1593.8,8.3363,-8.7736
1605.5,11.956,-7.9998
1617.2,13.717,-6.2983
1628.9,12.257,-3.6967
1640.6,14.303,-3.1121
1652.3,16.102,-8.3385
1664.1,16.362,-8.1816
1675.8,14.628,-6.8993
1687.5,15.182,-4.291
1699.2,15.072,-5.9019
1710.9,11.557,-7.8636
1722.7,14.877,-6.0768
1734.4,15.476,-8.8489
1746.1,13.453,-9.5916
1757.8,13.95,-8.1189
1769.5,13.296,-9.948
1781.3,12.702,-6.413
1793,18.178,-7.8554
1804.7,17.669,-8.7792
1816.4,19.609,-7.5092
1828.1,20.055,-5.4847
1839.8,20.484,-6.7054
1851.6,18.272,-8.4459
1863.3,18.831,-4.7695
1875,14.41,-3.4605
1886.7,14.753,-7.454
1898.4,15.001,-7.7244
1910.2,13.436,-8.8049
1921.9,13.029,-8.3868
1933.6,14.437,-5.7015
1945.3,16.065,-6.6206
1957,16.16,-7.0421
1968.8,14.599,-4.8552
1980.5,10.051,-4.655
1992.2,10.223,-8.1379
2003.9,15.895,-8.4966
2015.6,17.352,-9.2417
2027.3,14.17,-8.6627
2039.1,10.833,-5.9574
2050.8,8.3676,-5.7717
2062.5,9.1895,-8.2675
2074.2,12.445,-6.3405
2085.9,13.023,-7.9239
2097.7,13.325,-10.821
2109.4,9.7641,-12.34
2121.1,7.72,-10.681
2132.8,11.093,-7.9517
2144.5,12.923,-4.6054
2156.3,12.686,-7.4828
2168,11.689,-11.133
2179.7,10.199,-9.7348
2191.4,12.019,-5.5741
2203.1,13.425,-5.789
2214.8,12.694,-5.7035
2226.6,15.727,-7.0204
2238.3,15.996,-9.268
2250,15.118,-7.7193
2261.7,9.1926,-6.1827
2273.4,12.495,-5.283
2285.2,14.51,-10.523
2296.9,12.057,-8.1989
2308.6,10.166,-6.9306
2320.3,11.169,-8.7531
2332,10.035,-9.4976
2343.8,11.032,-8.8474
2355.5,14.299,-8.8717
2367.2,12.58,-12.718
2378.9,12.457,-11.851
2390.6,16.941,-10.172
2402.3,19.017,-9.0111
2414.1,15.101,-5.2021
2425.8,10.72,-3.9816
2437.5,11.045,-5.5472
2449.2,12.139,-7.8029
2460.9,14.199,-6.4567
2472.7,15.038,-7.3559
2484.4,13.868,-4.9113
2496.1,12.817,-5.8301
2507.8,12.547,-7.8015
2519.5,10.532,-8.4433
2531.3,12.626,-8.9904
2543,14.629,-6.7691
2554.7,13.667,-3.8458
2566.4,12.523,-4.943
2578.1,11.621,-9.3599
2589.8,9.3608,-9.4482
2601.6,12.039,-8.7403
2613.3,11.011,-8.8654
2625,7.4671,-8.3812
2636.7,8.7033,-6.9188
2648.4,10.967,-9.0454
2660.2,13.263,-10.151
2671.9,12.679,-10.324
2683.6,11.202,-8.6732
2695.3,12.437,-6.6736
2707,13.05,-4.1395
2718.8,11.977,-7.2748
2730.5,10.14,-8.5586
2742.2,11.881,-7.9496
2753.9,15.529,-6.5986
2765.6,15.846,-10.941
2777.3,14.144,-3.9166
2789.1,12.413,-4.2961
2800.8,11.496,-7.4174
2812.5,12.027,-7.1632
2824.2,10.047,-6.8005
2835.9,10.097,-6.1107
2847.7,10.093,-4.4766
2859.4,9.2863,-7.0902
2871.1,9.2311,-6.8399
2882.8,10.752,-7.412
2894.5,10.936,-11.073
2906.3,12.464,-10.157
2918,11.226,-8.0294
2929.7,9.8779,-7.6865
2941.4,10.222,-8.3983
2953.1,11.892,-8.9138
2964.8,10.308,-7.5206
2976.6,9.4636,-8.83
2988.3,7.7189,-8.964
3000,10.913,-8.9409
3011.7,12.08,-8.6463
3023.4,12.079,-7.4193
3035.2,9.7818,-5.4008
3046.9,12.035,-6.7395
3058.6,14.022,-7.5809
3070.3,11.443,-4.6495
3082,12.612,-8.6415
3093.8,11.188,-6.3108
3105.5,10.133,-7.2825
3117.2,10.43,-8.4668
3128.9,11.165,-5.7096
3140.6,10.57,-7.7489
3152.3,13.776,-7.9172
3164.1,11.221,-7.2554
3175.8,9.3246,-5
3187.5,11.049,-6.9179
3199.2,10.872,-9.116
3210.9,11.599,-7.5873
3222.7,10.303,-4.9821
3234.4,9.708,-5.0153
3246.1,11.283,-5.5611
3257.8,8.6718,-5.9607
3269.5,12.435,-4.0443
3281.3,12.259,-4.5479
3293,12.625,-7.4339
3304.7,9.9264,-8.4776
3316.4,11.553,-6.9572
3328.1,12.9,-6.5072
3339.8,13.656,-7.8458
3351.6,12.118,-5.7876
3363.3,10.199,-7.041
3375,9.5826,-8.1913
3386.7,8.1672,-6.4776
3398.4,8.4361,-7.0512
3410.2,7.4884,-8.2141
3421.9,7.448,-7.477
3433.6,8.3044,-3.8335
3445.3,8.7962,-3.487
3457,12.053,-7.2601
3468.8,11.791,-9.6457
3480.5,10.063,-9.4315
3492.2,8.3267,-15.135
3503.9,10.149,-8.0249
3515.6,9.7624,-8.2143
3527.3,8.8754,-10.054
3539.1,7.2726,-9.5637
3550.8,10.621,-6.8924
3562.5,10.298,-7.6927
3574.2,15.197,-6.1604
3585.9,16.389,-10.038
3597.7,10.451,-7.845
3609.4,8.9843,-3.8023
3621.1,9.217,-5.099
3632.8,7.6401,-7.2105
3644.5,12.826,-8.1963
3656.3,16.072,-6.6708
3668,15.384,-3.8242
3679.7,14.487,-5.1116
3691.4,12.075,-7.6175
3703.1,8.8178,-8.2018
3714.8,7.7376,-8.8686
3726.6,9.7045,-8.1022
3738.3,9.0471,-7.2384
3750,8.5817,-7.0778
3761.7,9.5341,-8.8727
3773.4,8.7859,-9.1339
3785.2,11.148,-8.7793
3796.9,8.619,-7.1041
3808.6,8.7725,-3.9638
3820.3,7.3937,-7.3761
3832,7.9218,-7.7724
3843.8,11.703,-5.8718
3855.5,10.768,-7.1198
3867.2,11.334,-8.522
3878.9,11.991,-10.379
3890.6,10.188,-12.39
3902.3,9.55,-10.941
3914.1,10.341,-8.7488
3925.8,9.394,-8.1886
3937.5,8.0443,-9.5746
3949.2,6.7866,-10.373
3960.9,7.4322,-5.2108
3972.7,9.7891,-5.3216
3984.4,10.682,-8.8703
3996.1,10.31,-9.3615
4007.8,10.913,-11.768
4019.5,8.2439,-6.9122
4031.3,6.6946,-5.5345
4043,10.1,-7.0232
4054.7,12.163,-10.014
4066.4,12.384,-7.3839
4078.1,11.606,-7.3228
4089.8,10.017,-10.431
4101.6,7.6951,-9.1615
4113.3,10.125,-5.0169
4125,9.1478,-5.8226
4136.7,8.8769,-7.2175
4148.4,7.6741,-6.7611
4160.2,8.2489,-9.8416
4171.9,9.2912,-8.561
4183.6,10.889,-7.0639
4195.3,9.2625,-6.0769
4207,9.9751,-5.4087
4218.8,9.0634,-9.5692
4230.5,7.361,-10.565
4242.2,5.3307,-8.5742
4253.9,7.6791,-6.3723
4265.6,7.8924,-7.5967
4277.3,5.9704,-8.0172
4289.1,6.7838,-4.6516
4300.8,8.8456,-6.035
4312.5,8.6171,-8.4754
4324.2,6.679,-7.2281
4335.9,7.3028,-6.0408
4347.7,6.9034,-7.2088
4359.4,7.5612,-7.6308
4371.1,8.0652,-6.8082
4382.8,6.7413,-7.4775
4394.5,7.1764,-6.2732
4406.3,8.8574,-6.221
4418,11.093,-6.207
4429.7,10.939,-8.2854
4441.4,6.202,-8.9657
4453.1,5.3704,-7.5379
4464.8,9.0876,-6.5336
4476.6,8.5192,-5.196
4488.3,9.6541,-6.3608
4500,9.5107,-9.4936
4511.7,7.3435,-10.157
4523.4,6.212,-8.5106
4535.2,7.9458,-11.105
4546.9,6.1832,-9.0127
4558.6,6.9339,-8.3072
4570.3,6.9255,-7.7362
4582,6.2875,-8.1727
4593.8,7.5818,-8.9618
4605.5,9.1805,-8.5068
4617.2,10.013,-9.5512
4628.9,7.47,-10.075
4640.6,3.0917,-6.6017
4652.3,3.8901,-7.0756
4664.1,6.8268,-8.2565
4675.8,7.0201,-8.2009
4687.5,3.9998,-10.537
4699.2,5.8936,-6.7078
4710.9,6.0497,-4.773
4722.7,6.5708,-5.9849
4734.4,3.6523,-5.1528
4746.1,5.1226,-5.9553
4757.8,6.0563,-7.232
4769.5,4.7776,-8.5624
4781.3,6.2248,-7.9233
4793,6.9328,-6.4612
4804.7,7.0078,-7.3666
4816.4,6.3211,-9.5459
4828.1,5.6699,-8.6749
4839.8,7.3033,-7.1859
4851.6,4.9628,-5.6152
4863.3,8.3028,-8.1981
4875,8.0927,-7.0299
4886.7,8.2403,-8.646
4898.4,6.6877,-10.423
4910.2,4.5283,-10.319
4921.9,6.7053,-8.1194
4933.6,7.0579,-6.9657
4945.3,10.094,-6.186
4957,10.585,-5.9806
4968.8,10.048,-8.9696
4980.5,8.9261,-11.006
4992.2,3.3722,-8.255
5003.9,5.1526,-6.3739
5015.6,5.4446,-6.2832
5027.3,5.9761,-7.5177
5039.1,7.6297,-6.6592
5050.8,6.1535,-4.3857
5062.5,8.8729,-4.4426
5074.2,9.6025,-6.1024
5085.9,7.3036,-7.7498
5097.7,6.6857,-8.9934
5109.4,7.0708,-8.6886
5121.1,8.8642,-5.4872
5132.8,10.065,-4.5366
5144.5,8.1826,-8.3428
5156.3,5.6178,-9.4981
5168,9.0646,-6.6668
5179.7,9.9632,-6.1275
5191.4,8.7276,-7.598
5203.1,8.9359,-8.5428
5214.8,9.9068,-7.7167
5226.6,9.6248,-7.2891
5238.3,4.8763,-7.8047
5250,5.2704,-8.0458
5261.7,5.3206,-9.3897
5273.4,5.6542,-6.5945
5285.2,5.5366,-6.0882
5296.9,3.8186,-8.9862
5308.6,3.6003,-12.661
5320.3,5.2567,-10.522
5332,8.5272,-8.8873
5343.8,8.6852,-9.0777
5355.5,5.7014,-9.8626
5367.2,10.813,-10.33
5378.9,11.33,-9.2119
5390.6,5.8887,-9.7644
5402.3,9.8828,-8.8567
5414.1,10.729,-7.1409
5425.8,6.5126,-6.1137
5437.5,6.056,-8.4655
5449.2,6.4204,-8.0416
5460.9,5.3151,-3.5654
5472.7,4.7002,-5.72
5484.4,3.9207,-7.823
5496.1,4.7318,-6.5865
5507.8,5.7057,-7.6634
5519.5,3.1191,-6.9886
5531.3,5.6378,-9.8047
5543,5.209,-7.5434
5554.7,4.6672,-6.5899
5566.4,5.3316,-8.3474
5578.1,5.1537,-8.8081
5589.8,6.1702,-10.148
5601.6,5.3298,-10.644
5613.3,2.1634,-8.9924
5625,5.8777,-11.183
5636.7,7.491,-11.149
5648.4,5.5666,-11.063
5660.2,6.1576,-8.5604
5671.9,7.0052,-5.8994
5683.6,5.7668,-5.0716
5695.3,2.9357,-6.7046
5707,2.7523,-7.7667
5718.8,5.5412,-8.9357
5730.5,6.6091,-7.9637
5742.2,6.4039,-8.4765
5753.9,4.9995,-7.7191
5765.6,4.2219,-8.7252
5777.3,6.3905,-6.7732
5789.1,3.7189,-7.3554
5800.8,4.4883,-7.7595
5812.5,7.862,-6.5419
5824.2,6.7168,-6.6814
5835.9,7.5189,-5.4653
5847.7,6.9096,-6.1218
5859.4,6.4999,-8.479
5871.1,5.9159,-9.7474
5882.8,4.2083,-7.1751
5894.5,4.0404,-7.751
5906.3,4.5604,-10.118
5918,6.3041,-10.506
5929.7,4.43,-8.1681
5941.4,4.9301,-7.4805
5953.1,4.3394,-8.4945
5964.8,4.685,-7.9212
5976.6,5.7499,-9.292
5988.3,6.5085,-11.21
6000,5.9157,-7.5694
6011.7,4.0205,-7.6211
6023.4,1.9218,-7.1134
6035.2,5.4007,-7.9595
6046.9,-0.081163,-6.8215
6058.6,3.3083,-6.8757
6070.3,7.0728,-8.9087
6082,5.9339,-11.247
6093.8,4.7918,-7.4629
6105.5,6.4134,-5.0573
6117.2,4.025,-7.8977
6128.9,3.7408,-7.562
6140.6,6.8529,-4.879
6152.3,6.0636,-5.2148
6164.1,2.8488,-6.8287
6175.8,4.9896,-9.3736
6187.5,7.853,-11.85
6199.2,5.5622,-12.097
6210.9,3.932,-11.14
6222.7,1.1765,-8.2138
6234.4,3.5469,-6.5234
6246.1,6.4838,-7.6165
6257.8,3.9376,-9.8497
6269.5,5.4465,-10.489
6281.3,3.4288,-11.712
6293,4.0863,-9.4686
6304.7,6.6138,-8.8193
6316.4,5.4092,-7.4816
6328.1,2.7057,-7.1716
6339.8,2.7307,-9.5107
6351.6,2.856,-10.349
6363.3,5.5849,-11.216
6375,5.3904,-7.6534
6386.7,4.1717,-7.8727
6398.4,2.3259,-6.6169
6410.2,3.4557,-7.1261
6421.9,3.784,-10.239
6433.6,3.9678,-9.1698
6445.3,2.6196,-6.9837
6457,3.2915,-6.3704
6468.8,4.4654,-9.3511
6480.5,5.0895,-8.13
6492.2,3.4219,-5.8881
6503.9,1.63,-7.6778
6515.6,5.1303,-11.04
6527.3,6.0533,-10.192
6539.1,5.6228,-9.2404
6550.8,5.0721,-9.4979
6562.5,4.1801,-9.4828
6574.2,2.5893,-9.3297
6585.9,6.7626,-6.6696
6597.7,6.5634,-8.1642
6609.4,2.1345,-9.9354
6621.1,5.2045,-10.662
6632.8,3.7911,-10.198
6644.5,2.0314,-7.8273
6656.3,4.602,-6.3226
6668,4.6133,-8.6955
6679.7,3.7483,-10.301
6691.4,4.8349,-11.495
6703.1,2.0919,-8.3347
6714.8,3.9361,-5.7934
6726.6,5.6598,-8.2582
6738.3,3.9478,-7.6765
6750,4.2396,-8.089
6761.7,5.2992,-6.7832
6773.4,4.2208,-9.86
6785.2,3.9466,-9.1004
6796.9,2.2725,-9.3214
6808.6,2.1558,-11.565
6820.3,4.1485,-12.786
6832,1.2558,-10.349
6843.8,0.79853,-8.607
6855.5,1.5472,-9.8134
6867.2,3.5773,-8.8769
6878.9,3.2894,-8.6271
6890.6,3.0749,-9.9033
6902.3,2.6802,-10.98
6914.1,3.5059,-9.0857
6925.8,3.4271,-7.1061
6937.5,1.211,-9.3131
6949.2,-1.0514,-8.4937
6960.9,2.3881,-10.11
6972.7,4.221,-12.16
6984.4,5.2603,-11.28
6996.1,2.3036,-9.5792
7007.8,3.869,-8.8127
7019.5,2.9638,-9.5122
7031.3,4.4126,-9.4765
7043,5.9522,-11.643
7054.7,4.3133,-11.739
7066.4,3.8269,-7.5687
7078.1,6.8825,-7.0835
7089.8,4.7258,-7.5416
7101.6,3.3629,-7.1044
7113.3,3.8826,-8.6695
7125,3.7986,-10.093
7136.7,5.963,-11.359
7148.4,5.0501,-10.717
7160.2,4.3547,-8.0756
7171.9,5.4539,-6.0645
7183.6,1.0053,-7.5142
7195.3,6.4455,-8.5909
7207,4.6503,-6.9748
7218.8,3.1979,-9.1124
7230.5,3.1435,-8.0457
7242.2,3.7919,-11.127
7253.9,5.7807,-7.5888
7265.6,6.6061,-7.263
7277.3,4.7427,-8.7479
7289.1,1.393,-7.8065
7300.8,2.4001,-6.494
7312.5,1.542,-11.024
7324.2,3.6953,-10.179
7335.9,5.4279,-8.0485
7347.7,3.6263,-7.2451
7359.4,3.3577,-7.1649
7371.1,3.7955,-8.5758
7382.8,0.023015,-10.442
7394.5,1.7966,-14.431
7406.3,2.2255,-11.929
7418,3.826,-10.911
7429.7,3.949,-12.33
7441.4,1.064,-10.081
7453.1,3.3823,-11.97
7464.8,5.1026,-11.628
7476.6,3.3773,-11.535
7488.3,2.5204,-10.013
7500,3.9199,-7.5744
7511.7,6.5503,-8.8463
7523.4,3.4029,-10.688
7535.2,2.2406,-13.046
7546.9,1.6677,-10.271
7558.6,5.1645,-8.686
7570.3,4.7692,-11.55
7582,4.5049,-10.517
7593.8,4.3455,-8.9161
7605.5,4.5093,-9.7913
7617.2,2.9623,-9.3655
7628.9,2.3407,-9.3995
7640.6,2.2694,-10.02
7652.3,3.3523,-8.6334
7664.1,2.7235,-7.8826
7675.8,3.5468,-8.9615
7687.5,3.3803,-10.161
7699.2,3.7878,-10.668
7710.9,5.2354,-9.7466
7722.7,6.4452,-9.9459
7734.4,3.8217,-7.4969
7746.1,1.5313,-8.2668
7757.8,3.0672,-9.1207
7769.5,4.193,-10.753
7781.3,2.773,-13.177
7793,0.17068,-11.657
7804.7,-0.92685,-9.8627
7816.4,3.0769,-8.1087
7828.1,2.958,-8.1791
7839.8,2.5273,-7.7195
7851.6,0.97355,-9.2989
7863.3,1.7564,-9.8733
7875,1.3271,-10.509
7886.7,0.91839,-9.4663
7898.4,2.523,-9.1061
7910.2,-0.10706,-9.7242
7921.9,1.0973,-7.8992
7933.6,1.8856,-8.2765
7945.3,2.7521,-12.047
7957,1.1624,-9.2833
7968.8,3.3618,-12.55
7980.5,6.6543,-7.8848
7992.2,5.6737,-11.199
8003.9,1.2171,-9.9041
8015.6,-0.094436,-7.1906
8027.3,1.62,-9.4497
8039.1,2.8441,-11.96
8050.8,0.13323,-10.603
8062.5,2.2938,-10.108
8074.2,0.9131,-8.4838
8085.9,0.86004,-8.2649
8097.7,1.7175,-11.724
8109.4,3.1261,-11.435
8121.1,3.6222,-9.897
8132.8,0.29568,-11.144
8144.5,1.246,-10.789
8156.3,2.0858,-11.136
8168,1.4627,-13.504
8179.7,1.1573,-11.097
8191.4,0.061626,-11.464
8203.1,1.1911,-14.287
8214.8,2.9484,-10.565
8226.6,3.293,-11.419
8238.3,2.9633,-12.703
8250,4.4352,-13.165
8261.7,4.0571,-12.186
8273.4,-2.1158,-8.9798
8285.2,-0.89036,-8.6725
8296.9,-0.38118,-9.6212
8308.6,3.1245,-7.4613
8320.3,3.2347,-10.357
8332,2.2847,-12.775
8343.8,0.13546,-13.501
8355.5,3.0708,-12.717
8367.2,3.4733,-13.692
8378.9,1.5223,-9.4554
8390.6,3.2335,-8.7335
8402.3,2.0359,-11.022
8414.1,1.5328,-13.229
8425.8,2.509,-11.152
8437.5,3.4659,-9.6884
8449.2,1.6461,-11.713
8460.9,3.174,-9.6164
8472.7,3.8836,-9.9728
8484.4,1.7783,-9.0635
8496.1,0.99568,-7.9174
8507.8,0.79429,-9.2183
8519.5,0.47033,-12.667
8531.3,-2.2586,-11.495
8543,-1.3934,-12.508
8554.7,1.2075,-10.961
8566.4,3.2509,-10.48
8578.1,4.4946,-8.7326
8589.8,3.3597,-8.5392
8601.6,3.3568,-10.879
8613.3,2.0834,-11.546
8625,1.444,-11.418
8636.7,-1.0373,-11.637
8648.4,-1.8465,-9.2116
8660.2,-2.6451,-9.0563
8671.9,1.4722,-9.587
8683.6,-1.6709,-8.1581
8695.3,-0.46087,-8.7223
8707,5.1822,-9.7631
8718.8,5.3062,-10.936
8730.5,4.091,-9.1173
8742.2,1.2624,-8.7658
8753.9,2.0513,-10.458
8765.6,-0.50299,-10.4
8777.3,-0.8318,-10.404
8789.1,2.5418,-10.403
8800.8,1.8979,-9.641
8812.5,0.42175,-11.888
8824.2,-2.4922,-10.379
8835.9,-0.18,-12.581
8847.7,-0.7835,-10.213
8859.4,0.77111,-11.677
8871.1,2.4218,-11.814
8882.8,1.1006,-13.887
8894.5,3.2514,-14.136
8906.3,2.3264,-10.288
8918,2.4045,-9.0171
8929.7,2.3371,-11.296
8941.4,2.4779,-10.399
8953.1,1.9191,-9.8973
8964.8,-0.51176,-11.983
8976.6,-0.1927,-12.799
8988.3,-1.0385,-10.803
9000,0.68847,-10.364
9011.7,1.7071,-11.098
9023.4,0.74908,-13.714
9035.2,-2.7445,-10.942
9046.9,-0.47339,-10.724
9058.6,2.5273,-9.6451
9070.3,3.858,-8.9863
9082,3.3617,-9.9505
9093.8,0.034685,-8.3592
9105.5,-3.7918,-8.7742
9117.2,0.25042,-10.987
9128.9,-0.72357,-8.7989
9140.6,1.0209,-9.7939
9152.3,2.7805,-10.549
9164.1,3.0254,-10.265
9175.8,2.5924,-9.4493
9187.5,2.1776,-8.9733
9199.2,-4.6807,-9.9946
9210.9,-1.2916,-8.7243
9222.7,1.3906,-10.254
9234.4,1.0539,-10.987
9246.1,-0.17957,-9.6119
9257.8,0.93414,-10.344
9269.5,2.0643,-10.692
9281.3,2.1559,-13.867
9293,-0.79067,-10.574
9304.7,1.2155,-9.9717
9316.4,0.068445,-9.457
9328.1,0.94183,-7.9349
9339.8,-1.3304,-9.7722
9351.6,0.47028,-12.792
9363.3,-1.1527,-11.16
9375,1.2743,-8.2584
9386.7,0.46229,-10.64
9398.4,1.2841,-11.353
9410.2,1.0565,-12.841
9421.9,0.3695,-12.724
9433.6,1.3342,-11.853
9445.3,-1.0437,-11.879
9457,-3.1186,-12.081
9468.8,1.001,-13.007
9480.5,-0.59234,-13.407
9492.2,3.0063,-13.84
9503.9,-0.63924,-10.845
9515.6,-2.7391,-7.6132
9527.3,-3.5402,-9.186
9539.1,-2.0364,-11.33
9550.8,-0.79151,-11.947
9562.5,0.2491,-13.259
9574.2,0.35001,-14.326
9585.9,-0.082531,-12.822
9597.7,-0.79086,-11.209
9609.4,1.1241,-10.686
9621.1,0.4503,-10.078
9632.8,-0.13788,-11.234
9644.5,-0.41104,-12.087
9656.3,0.33833,-11.061
9668,-2.4754,-12.986
9679.7,-0.41795,-10.878
9691.4,-4.0698,-11.075
9703.1,-2.9991,-11.381
9714.8,0.3569,-8.5245
9726.6,1.0394,-11.99
9738.3,1.9848,-10.729
9750,3.316,-10.526
9761.7,0.3664,-12.122
9773.4,-4.042,-11.735
9785.2,-1.4887,-12.209
9796.9,0.13069,-14.413
9808.6,-2.0941,-12.003
9820.3,-3.414,-11.034
9832,-2.0574,-10.894
9843.8,-3.3602,-10.982
9855.5,-2.5331,-9.0377
9867.2,-2.9201,-9.4462
9878.9,-1.5348,-11.485
9890.6,-1.0302,-10.695
9902.3,-2.8629,-10.757
9914.1,-1.4194,-11.914
9925.8,0.82077,-13.46
9937.5,0.11004,-12.211
9949.2,1.1808,-11.023
9960.9,1.218,-13.252
9972.7,-2.9946,-9.0984
9984.4,-3.2575,-10.422
9996.1,-0.82724,-10.571
10008,-1.8631,-11.235
10020,-3.9014,-10.485
10031,-0.58701,-11.289
10043,-4.1374,-8.0009
10055,-1.179,-11.542
10066,-1.7851,-11.421
10078,-4.8099,-10.181
10090,-2.8628,-11.859
10102,-0.31832,-14.991
10113,0.20339,-11.885
10125,-1.7292,-12.906
10137,-2.824,-13.622
10148,-1.9672,-13.35
10160,-1.1452,-11.86
10172,0.49234,-10.948
10184,1.264,-11.84
10195,-1.5823,-11.782
10207,-2.8679,-12.653
10219,-1.4186,-9.6202
10230,-1.9885,-11.562
10242,-1.5736,-15.689
10254,-0.45217,-14.966
10266,1.4044,-11.296
10277,0.97528,-12.795
10289,2.5226,-10.32
10301,2.9607,-9.8597
10313,0.19006,-10.607
10324,-1.4636,-11.112
10336,-2.1661,-11.404
10348,-0.40387,-11.73
10359,0.0501,-11.635
10371,-0.83622,-12.311
10383,-1.3572,-12.051
10395,-2.6451,-12.012
10406,-3.6316,-11.269
10418,-2.2063,-12.531
10430,-4.8648,-12.946
10441,-0.30872,-11.498
10453,-1.0166,-9.6446
10465,-1.4467,-9.2889
10477,-0.18796,-10.865
10488,0.70874,-9.5983
10500,-2.3505,-9.0265
10512,1.8715,-11.171
10523,4.4283,-12.112
10535,-2.4906,-11.213
10547,-2.6271,-7.1242
10559,-3.0564,-8.2866
10570,0.73489,-9.5214
10582,2.1362,-12.064
10594,-1.3671,-11.358
10605,-3.0981,-12.546
10617,-4.2103,-11.812
10629,-3.6404,-13.03
10641,-3.2357,-11.639
10652,-1.8773,-12.328
10664,0.17026,-14.456
10676,-1.4513,-14.445
10688,-2.6617,-13.801
10699,0.94383,-13.701
10711,-1.6115,-13.333
10723,-2.4231,-11.267
10734,-3.0868,-10.328
10746,-2.4928,-13.149
10758,-2.4067,-12.092
10770,-0.12453,-14.028
10781,-1.7691,-12.159
10793,-0.59336,-12.062
10805,-0.61394,-11.372
10816,-1.5595,-14.01
10828,-1.4456,-12.658
10840,-2.7074,-13.891
10852,-3.5685,-14.888
10863,-4.2352,-14.974
10875,-4.4351,-14.189
10887,-3.1435,-10.573
10898,-3.9581,-11.313
10910,-1.4019,-15.754
10922,-0.040708,-12.874
10934,1.8812,-13.697
10945,1.2358,-11.621
10957,-1.5644,-10.471
10969,0.22143,-11.309
10980,-1.2076,-12.431
10992,-2.4692,-13.492
11004,-0.31824,-12.205
11016,-1.0337,-8.7657
11027,1.9346,-8.752
11039,1.6064,-10.989
11051,0.018953,-10.082
11063,-0.38612,-9.978
11074,-0.48094,-10.087
11086,-2.9846,-10.558
11098,-4.3563,-12.602
11109,-3.0758,-12.286
11121,-0.37889,-13.398
11133,-2.3846,-15.571
11145,-1.9311,-14.298
11156,-0.7444,-8.9397
11168,-0.12287,-10.604
11180,-1.8822,-15.054
11191,-1.936,-14.534
11203,-2.357,-11.986
11215,-6.2546,-12.652
11227,-3.8429,-14.189
11238,-3.6727,-11.533
11250,-1.1514,-10.387
11262,-1.1101,-10.016
11273,-1.8963,-11.721
11285,-1.1638,-12.052
11297,-1.4366,-11.703
11309,-1.3335,-11.701
11320,-4.6653,-13.602
11332,-3.4096,-14.569
11344,-5.3464,-12.715
11355,-1.1688,-12.08
11367,-2.385,-10.184
11379,-3.0821,-13.079
11391,-2.3389,-9.6676
11402,-1.7354,-9.8825
11414,-3.004,-14.243
11426,-1.5767,-13.648
11438,-2.5201,-12.518
11449,-3.7309,-12.509
11461,-4.3568,-10.092
11473,-1.9172,-10.633
11484,-1.5833,-13.74
11496,-1.5767,-12.179
11508,-2.8225,-13.992
11520,-4.4428,-13.939
11531,-3.5244,-11.925
11543,-2.1752,-10.019
11555,-0.49651,-11.253
11566,-1.5105,-11.108
11578,-3.9139,-12.817
11590,-3.0109,-12.353
11602,-0.48824,-11.227
11613,-0.18555,-10.956
11625,-1.0172,-14.569
11637,-1.8828,-15.049
11648,-5.6228,-15.498
11660,-7.6156,-14.017
11672,-2.9783,-14.273
11684,-0.59554,-11.206
11695,2.808,-10.41
11707,0.12167,-13.523
11719,-3.7709,-12.089
11730,-2.1489,-12.035
11742,-1.1675,-14.589
11754,-2.5755,-13.356
11766,-2.513,-11.134
11777,-4.6967,-11.277
11789,-5.221,-12.834
11801,-4.3945,-15.607
11813,-3.4415,-12.935
11824,-2.7709,-11.285
11836,-3.0851,-11.932
11848,-0.8963,-12.467
11859,1.6085,-12.982
11871,-0.041111,-12.214
11883,-3.3468,-10.535
11895,-3.9815,-10.823
11906,-2.9413,-12.757
11918,-2.4969,-13.961
11930,-0.77686,-11.672
11941,0.0021682,-13.037
11953,0.3058,-10.761
11965,-0.30776,-13.376
11977,-4.438,-14.743
11988,-5.2278,-13.734
12000,-4.0547,-13.975
12012,-4.7356,-15.724
12023,-2.1873,-14.219
12035,0.072003,-13.888
12047,0.36396,-13.215
12059,-0.53689,-11.729
12070,-5.0579,-10.332
12082,-7.4214,-11.203
12094,-6.0603,-10.718
12105,-3.2941,-12.67
12117,-3.5637,-11.296
12129,-2.3122,-11.636
12141,-1.5806,-9.935
12152,-0.4143,-11.907
12164,-1.043,-13.929
12176,2.3759,-12.296
12188,-1.8315,-11.332
12199,-5.0001,-11.093
12211,-3.3046,-11.205
12223,-3.2177,-10.865
12234,-3.3104,-11.345
12246,-2.7133,-15.737
12258,-3.7095,-12.676
12270,-8.0865,-12.554
12281,-4.0112,-12.619
12293,-3.5714,-13.387
12305,-6.2655,-10.155
12316,-5.421,-11.061
12328,-4.3559,-13.446
12340,-3.0341,-12.268
12352,-1.8476,-15.566
12363,-4.0036,-16.178
12375,-2.711,-17.011
12387,-3.572,-14.36
12398,-3.6833,-14.882
12410,-1.5639,-11.643
12422,-0.28778,-10.073
12434,0.23656,-13.687
12445,-4.33,-13.411
12457,-1.8371,-15.055
12469,-3.851,-12.306
12480,-4.6543,-13.335
12492,-6.0182,-12.894
12504,-7.0862,-12.496
12516,-5.6481,-13.087
12527,-6.2296,-13.445
12539,-6.5859,-13.288
12551,-3.6173,-12.331
12563,-2.3832,-13.667
12574,-5.5686,-17.457
12586,-0.68952,-12.163
12598,-1.0728,-15.691
12609,-4.4353,-14.292
12621,-2.131,-12.113
12633,-2.2403,-13.044
12645,-4.6037,-12.484
12656,-3.4237,-9.5162
12668,-3.4243,-7.7705
12680,-6.4807,-10.865
12691,-5.035,-12.225
12703,-3.6044,-11.911
12715,-1.5403,-13.08
12727,-1.4191,-11.347
12738,-2.5902,-11.429
12750,-2.3968,-12.133
12762,0.47376,-13.4
12773,-1.1184,-11.089
12785,-3.4264,-10.058
12797,-5.0278,-12.018
12809,-2.4235,-11.693
12820,-4.6108,-13.596
12832,-6.2639,-11.62
12844,-5.5498,-13.733
12855,-2.6074,-13.442
12867,-4.1575,-11.564
12879,-0.74635,-10.88
12891,-2.2765,-13.126
12902,-4.933,-12.615
12914,-7.3409,-15.352
12926,-4.4602,-14.994
12938,-3.8866,-13.258
12949,-4.9885,-10.622
12961,-4.837,-12.346
12973,-3.7611,-14.091
12984,-4.7773,-14.94
12996,-6.8126,-11.923
13008,-4.8985,-13.156
13020,-5.0933,-11.313
13031,-5.1312,-12.93
13043,-4.5904,-13.132
13055,-5.3496,-12.637
13066,-2.8854,-12.386
13078,-3.1629,-13.417
13090,-4.4988,-15.277
13102,-4.7953,-12.705
13113,-4.5459,-12.353
13125,-4.7747,-15.847
13137,-5.7731,-13.306
13148,-5.0916,-11.285
13160,-1.7973,-13.722
13172,-0.9113,-16.131
13184,-2.2629,-15.575
13195,-4.485,-14.299
13207,-6.0479,-13.249
13219,-3.8847,-12.982
13230,-1.3514,-13.092
13242,-2.6812,-15.287
13254,-1.2554,-14.752
13266,-3.3706,-11.663
13277,-3.0132,-10.992
13289,-4.2685,-12.657
13301,-7.269,-15.558
13313,-4.5596,-15.083
13324,-1.5912,-12.806
13336,-1.3653,-14.672
13348,-5.2684,-16.528
13359,-5.175,-14.337
13371,-3.5317,-12.5
13383,-3.3592,-13.026
13395,-5.8792,-10.546
13406,-5.9504,-12.245
13418,-6.8181,-15.416
13430,-7.5842,-14.875
13441,-3.1252,-13.736
13453,-3.6253,-13.905
13465,-5.6006,-14.805
13477,-5.3774,-13.024
13488,-2.7719,-11.181
13500,-4.9258,-12.672
13512,-6.4041,-13.281
13523,-3.3413,-12.295
13535,-3.118,-15.102
13547,-6.0614,-13.257
13559,-2.5409,-14.369
13570,-6.9251,-15.167
13582,-4.5165,-17.791
13594,-4.4605,-15.307
13605,-1.9933,-13.142
13617,-4.4461,-14.752
13629,-4.0094,-15.369
13641,-4.1376,-13.625
13652,-3.6432,-12.275
13664,-3.924,-12.402
13676,-4.8811,-15.089
13688,-4.7274,-13.925
13699,-2.4635,-14.21
13711,-2.5638,-14.342
13723,-5.1005,-12.252
13734,-6.1395,-13.841
13746,-5.8401,-15.799
13758,-3.7519,-14.478
13770,-3.1508,-13.43
13781,-5.8792,-13.253
13793,-4.9649,-12.335
13805,-2.8188,-11.867
13816,-2.5781,-11.748
13828,-3.9519,-15.582
13840,-1.7598,-15.699
13852,-4.547,-12.865
13863,-8.0001,-13.51
13875,-7.3838,-13.719
13887,-5.5179,-13.405
13898,-5.9112,-17.232
13910,-8.6385,-18.019
13922,-6.1049,-16.19
13934,-3.9673,-13.211
13945,-5.386,-14.125
13957,-6.4986,-13.716
13969,-4.8784,-10.702
13980,-5.0308,-13.116
13992,-8.7208,-15.436
14004,-8.9724,-12.959
14016,-8.927,-12.871
14027,-4.2626,-14.946
14039,-3.0985,-12.446
14051,-5.4438,-12
14063,-5.2209,-11.56
14074,-4.5213,-11.806
14086,-6.1034,-12.463
14098,-5.2756,-13.23
14109,-5.2453,-15.998
14121,-6.8124,-14.207
14133,-5.8814,-13.958
14145,-5.6879,-16.228
14156,-5.9229,-14.482
14168,-5.4679,-13.572
14180,-3.4164,-14.06
14191,-5.1604,-14.38
14203,-6.6932,-16.769
14215,-5.3407,-14.737
14227,-6.0165,-13.642
14238,-4.7901,-14.771
14250,-3.2572,-12.926
14262,-3.5364,-13.34
14273,-6.5761,-13.35
14285,-5.5176,-13.099
14297,-5.0151,-13.267
14309,-7.8158,-10.488
14320,-8.9199,-9.8827
14332,-3.4575,-13.213
14344,-2.5764,-15.214
14355,-4.633,-14.347
14367,-5.9435,-14.43
14379,-4.8388,-12.18
14391,-4.2651,-11.284
14402,-3.6694,-12.625
14414,-5.2877,-13.733
14426,-3.6008,-14.902
14438,-5.0625,-13.345
14449,-1.5815,-13.877
14461,-2.3383,-15.796
14473,-8.1224,-14.883
14484,-3.9384,-14.231
14496,-3.586,-14.924
14508,-6,-17.92
14520,-6.4781,-16.451
14531,-5.8881,-12.256
14543,-6.5755,-11.967
14555,-5.0772,-15.226
14566,-4.5938,-16.923
14578,-5.4274,-14.962
14590,-4.1536,-13.948
14602,-4.5777,-12.458
14613,-6.6,-15.782
14625,-4.6029,-16.342
14637,-6.5305,-16.305
14648,-9.2061,-14.817
14660,-4.6688,-14.675
14672,-2.626,-17.008
14684,-5.7795,-16.392
14695,-6.211,-15.338
14707,-4.1834,-13.606
14719,-5.6838,-12.319
14730,-5.6755,-13.52
14742,-5.902,-16.015
14754,-7.4371,-17.819
14766,-9.4458,-15.145
14777,-8.4294,-12.411
14789,-8.3048,-12.558
14801,-7.804,-14.622
14813,-4.2146,-13.328
14824,-2.5082,-14.52
14836,-2.9203,-18.499
14848,-3.7931,-16.955
14859,-5.8911,-15.459
14871,-12.129,-14.07
14883,-9.0292,-14.552
14895,-6.1614,-12.407
14906,-6.0878,-12.785
14918,-4.4716,-12.922
14930,-5.052,-13.893
14941,-8.1493,-16.678
14953,-3.3354,-14.952
14965,-2.754,-12.584
14977,-5.8502,-15.603
14988,-4.0938,-17.639
15000,-5.3412,-15.131
15012,-5.1135,-14.373
15023,-5.5697,-13.431
15035,-4.996,-16.451
15047,-4.0322,-16.231
15059,-5.1647,-13.841
15070,-7.6777,-14.224
15082,-6.2216,-15.554
15094,-4.9175,-14.361
15105,-7.3157,-13.279
15117,-8.0382,-16.007
15129,-7.0646,-18.129
15141,-6.2983,-16.6
15152,-4.2304,-17.357
15164,-2.5074,-14.231
15176,-1.662,-18.361
15188,-6.2161,-15.11
15199,-7.666,-10.319
15211,-5.4164,-11.359
15223,-5.2049,-12.178
15234,-6.1861,-11.292
15246,-7.3594,-14.68
15258,-7.4086,-13.277
15270,-6.6032,-12.614
15281,-5.6815,-13.795
15293,-6.6694,-13.811
15305,-5.474,-14.668
15316,-8.5166,-14.907
15328,-8.4095,-15.515
15340,-6.9814,-17.42
15352,-6.5344,-16.431
15363,-5.8103,-14.757
15375,-8.2946,-14.148
15387,-7.1201,-12.512
15398,-7.7836,-12.266
15410,-8.643,-17.08
15422,-6.924,-15.646
15434,-7.6733,-14.284
15445,-10.194,-15.177
15457,-8.3995,-14.915
15469,-8.7591,-15.331
15480,-7.5628,-14.832
15492,-4.8685,-14.858
15504,-3.9679,-15.839
15516,-6.7166,-14.387
15527,-8.0662,-15.978
15539,-5.4065,-13.337
15551,-5.7724,-12.565
15563,-4.6355,-11.989
15574,-7.2117,-12.748
15586,-8.0387,-17.672
15598,-6.9252,-14.948
15609,-5.6206,-15.034
15621,-8.5709,-16.256
15633,-8.7205,-17.967
15645,-7.4081,-18.277
15656,-8.9239,-16.381
15668,-7.078,-14.265
15680,-7.9396,-11.781
15691,-7.1273,-12.452
15703,-8.4678,-14.413
15715,-10.914,-15.068
15727,-8.2466,-12.484
15738,-9.3065,-12.271
15750,-6.815,-12.001
15762,-5.9035,-14.505
15773,-7.6441,-15.611
15785,-9.5573,-14.56
15797,-9.3375,-18.574
15809,-10.387,-14.619
15820,-7.7543,-14.095
15832,-7.4823,-12.354
15844,-6.9581,-13.22
15855,-6.488,-15.537
15867,-2.3043,-13.059
15879,-6.8121,-11.893
15891,-2.2468,-12.814
15902,-0.46492,-10.865
15914,3.0229,-11.719
15926,7.2486,-14.734
15938,10.563,-15.642
15949,16.648,-16.788
15961,23.662,-16.847
15973,33.981,-15.97
15984,53.926,-14.35
15996,64.811,-13.337
16008,62.878,-15.318
16020,44.857,-19.141
16031,30.007,-19.636
16043,21.126,-16.22
16055,14.41,-15.016
16066,9.7136,-15.313
16078,5.0837,-17.977
16090,0.68734,-14.688
16102,0.29246,-16.043
16113,-4.2896,-17.823
16125,-6.7653,-14.757
16137,-2.1563,-13.82
16148,-8.6734,-12.595
16160,-9.754,-14.046
16172,-7.2452,-17.135
16184,-7.178,-17.622
16195,-8.2291,-17.621
16207,-10.841,-17.701
16219,-8.2674,-16.976
16230,-8.2503,-20.795
16242,-8.2609,-15.663
16254,-9.227,-12.909
16266,-8.1731,-16.397
16277,-8.7896,-16.241
16289,-9.5309,-16.288
16301,-8.4652,-16.318
16313,-6.3701,-13.924
16324,-6.9155,-13.225
16336,-7.443,-14.773
16348,-6.1514,-12.757
16359,-7.2415,-15.12
16371,-13.972,-14.696
16383,-10.321,-15.56
16395,-8.9242,-15.608
16406,-8.0886,-14.811
16418,-7.213,-15.095
16430,-8.4069,-17.006
16441,-11.438,-14.759
16453,-9.2544,-17.216
16465,-8.721,-15.862
16477,-10.12,-12.406
16488,-6.588,-13.112
16500,-5.4893,-14.801
16512,-10.14,-17.5
16523,-10.142,-14.27
16535,-10.848,-15.622
16547,-10.88,-17.408
16559,-8.4939,-14.477
16570,-9.3324,-18.444
16582,-9.2201,-19.169
16594,-7.4304,-16.657
16605,-5.3844,-16.58
16617,-5.9979,-14.867
16629,-10.201,-15.201
16641,-11.714,-14.419
16652,-10.336,-13.772
16664,-9.7049,-14.061
16676,-8.8766,-14.729
16688,-10.619,-13.835
16699,-9.5118,-19.088
16711,-9.5842,-16.149
16723,-10.177,-15.658
16734,-6.755,-17.741
16746,-9.8413,-21.528
16758,-14.7,-16.339
16770,-8.7846,-16.236
16781,-6.8241,-13.329
16793,-6.6863,-15.676
16805,-8.986,-14.916
16816,-8.5493,-13.912
16828,-6.124,-16.732
16840,-7.7733,-16.94
16852,-9.1181,-15.913
16863,-11.832,-15.118
16875,-11.351,-13.569
16887,-9.8669,-16.647
16898,-9.7526,-18.013
16910,-9.4027,-18.019
16922,-5.2143,-17.073
16934,-5.2362,-16.453
16945,-8.8545,-18.708
16957,-10.747,-18.944
16969,-9.0626,-19.161
16980,-8.904,-15.477
16992,-9.9186,-12.091
17004,-11.234,-13.551
17016,-11.603,-15.853
17027,-13.422,-15.947
17039,-12.532,-16.419
17051,-9.7315,-14.858
17063,-8.9918,-13.109
17074,-8.8348,-15.623
17086,-10.225,-15.273
17098,-8.923,-15.292
17109,-10.111,-16.694
17121,-12.068,-15.418
17133,-10.075,-16.985
17145,-9.0503,-19.631
17156,-9.1731,-18.643
17168,-13.693,-16.053
17180,-12.644,-16.942
17191,-11.779,-17.678
17203,-13.186,-17.861
17215,-14.176,-17.883
17227,-11.254,-16.915
17238,-12.018,-17.788
17250,-13.22,-14.146
17262,-9.4516,-11.749
17273,-11.047,-14.218
17285,-12.238,-15.328
17297,-11.211,-16.452
17309,-13.353,-14.019
17320,-8.2375,-14.057
17332,-7.2582,-17.109
17344,-12.735,-14.622
17355,-10.133,-15.732
17367,-11.801,-16.55
17379,-10.739,-17.368
17391,-10.659,-16.544
17402,-7.786,-15.225
17414,-9.3094,-14.834
17426,-9.6982,-16.835
17438,-10.731,-15.614
17449,-12.996,-16.475
17461,-12.437,-17.884
17473,-10.836,-17.651
17484,-11.765,-20.285
17496,-12.708,-17.402
17508,-11.521,-16.357
17520,-8.1157,-17.645
17531,-8.3843,-16.723
17543,-11.532,-12.711
17555,-9.7827,-13.997
17566,-9.4944,-15.911
17578,-7.8401,-15.344
17590,-9.3775,-16.816
17602,-11.279,-15.722
17613,-11.689,-17.649
17625,-11.432,-18.957
17637,-14.215,-17.11
17648,-10.078,-15.527
17660,-7.2085,-16.874
17672,-8.8593,-14.916
17684,-13.181,-14.262
17695,-11.723,-16.065
17707,-10.343,-16.729
17719,-11.431,-13.637
17730,-11.854,-16.168
17742,-12.692,-19.4
17754,-12.744,-17.175
17766,-11.977,-13.65
17777,-12.099,-15.047
17789,-10.094,-17.608
17801,-8.8078,-17.765
17813,-9.5608,-17.358
17824,-11.985,-15.253
17836,-11.319,-16.953
17848,-10.661,-18.868
17859,-10.352,-19.814
17871,-9.4708,-18.762
17883,-9.3438,-18.909
17895,-10.735,-19.03
17906,-11.014,-18.776
17918,-13.502,-15.276
17930,-11.265,-13.883
17941,-9.8206,-17.642
17953,-10.744,-18.987
17965,-14.632,-20.093
17977,-10.999,-16.154
17988,-11.191,-14.414
18000,-12.337,-13.469
18012,-11.605,-14.118
18023,-11.31,-15.835
18035,-10.639,-18.389
18047,-11.981,-18.19
18059,-14.078,-16.872
18070,-11.475,-15.826
18082,-12.065,-19.272
18094,-11.933,-17.796
18105,-11.177,-17.378
18117,-12.09,-14.158
18129,-12.52,-14.053
18141,-10.561,-17.704
18152,-10.171,-17.606
18164,-10.222,-17.468
18176,-13.548,-19.675
18188,-12.075,-19.742
18199,-11.632,-17.591
18211,-12.187,-15.575
18223,-11.552,-17.114
18234,-11.617,-17.429
18246,-12.729,-17.505
18258,-12.242,-17.485
18270,-10.839,-15.829
18281,-8.7371,-12.849
18293,-9.0282,-12.697
18305,-11.278,-13.021
18316,-11.922,-16.728
18328,-13.851,-17.848
18340,-10.59,-20.39
18352,-9.7012,-17.225
18363,-12.124,-17.248
18375,-12.563,-18.033
18387,-11.665,-19.031
18398,-10.577,-19.453
18410,-11.707,-17.722
18422,-10.293,-16.158
18434,-10.652,-17.272
18445,-11.486,-18.073
18457,-10.155,-15.775
18469,-9.6434,-14.508
18480,-10.561,-15.04
18492,-11.311,-16.985
18504,-12.571,-17.83
18516,-12.341,-14.599
18527,-11.351,-15.085
18539,-9.0963,-19.443
18551,-12.635,-16.311
18563,-11.691,-16.466
18574,-11.56,-18.158
18586,-11.26,-18.548
18598,-11.782,-17.506
18609,-13.333,-15.833
18621,-13.921,-19.721
18633,-13.937,-20.207
18645,-13.387,-19.646
18656,-11.537,-18.038
18668,-13.413,-16.104
18680,-10.688,-15.894
18691,-12.505,-17.822
18703,-11.749,-18.273
18715,-12.324,-13.876
18727,-14.946,-14.903
18738,-11.909,-18.703
18750,-10.094,-17.638
18762,-12.704,-19.986
18773,-11.338,-22.068
18785,-10.879,-20.629
18797,-11.336,-18.452
18809,-10.998,-15.859
18820,-10.047,-16.45
18832,-12.556,-18.046
18844,-11.973,-14.528
18855,-13.039,-14.671
18867,-13.464,-20.722
18879,-11.632,-19.67
18891,-11.2,-16.979
18902,-12.476,-17.47
18914,-13.924,-17.91
18926,-17.37,-18.727
18938,-14.161,-18.461
18949,-11.274,-20.169
18961,-12.191,-17.334
18973,-14.234,-14.005
18984,-10.72,-14.699
18996,-9.9728,-13.252
19008,-12.116,-13.996
19020,-13.781,-17.046
19031,-12.147,-19.402
19043,-13.605,-18.176
19055,-12.657,-19.115
19066,-13.019,-18.937
19078,-13.055,-18.981
19090,-11.276,-18.319
19102,-14.771,-20.028
19113,-15.498,-19.721
19125,-14.096,-16.559
19137,-11.75,-17.797
19148,-12.281,-20.671
19160,-11.516,-19.449
19172,-12.594,-20.353
19184,-13.982,-16.013
19195,-13.885,-16.302
19207,-14.99,-19.463
19219,-14.761,-19.586
19230,-13.17,-21.178
19242,-11.757,-19.976
19254,-13.984,-18.584
19266,-15.863,-20.029
19277,-13.518,-19.48
19289,-12.749,-15.725
19301,-12.982,-15.638
19313,-11.976,-18.152
19324,-12.741,-17.888
19336,-12.919,-17.429
19348,-12.348,-18.114
19359,-13.448,-17.484
19371,-16.317,-14.805
19383,-15.422,-16.65
19395,-13.068,-19.431
19406,-14.225,-18.236
19418,-14.705,-18.758
19430,-14.099,-16.063
19441,-12.629,-17.907
19453,-12.61,-20.202
19465,-14.641,-18.203
19477,-14.839,-17.734
19488,-11.368,-16.69
19500,-9.7227,-16.636
19512,-11.46,-19.157
19523,-11.914,-19.793
19535,-14.639,-16.527
19547,-14.832,-15.531
19559,-14.267,-17.503
19570,-14.512,-19.767
19582,-12.145,-19.673
19594,-11.251,-17.563
19605,-12.321,-17.462
19617,-14.992,-18.725
19629,-14.576,-17.597
19641,-14.21,-18.302
19652,-16.815,-18.767
19664,-16.123,-18.331
19676,-17.349,-21.756
19688,-15.97,-17.925
19699,-13.985,-17.444
19711,-12.722,-17.592
19723,-14.754,-16.179
19734,-14.73,-16.588
19746,-15.183,-19.241
19758,-14.577,-16.807
19770,-15.05,-19.957
19781,-15.399,-15.971
19793,-13.707,-19.761
19805,-11.75,-21.079
19816,-14.704,-17.89
19828,-12.332,-18.184
19840,-11.863,-17.93
19852,-11.957,-16.875
19863,-14.692,-17.626
19875,-14.596,-18.292
19887,-14.776,-17.284
19898,-15.493,-16.141
19910,-14.857,-16.613
19922,-14.596,-18.049
19934,-15.066,-15.635
19945,-15.946,-14.626
19957,-16.638,-15.017
19969,-16.016,-17.204
19980,-15.657,-17.977
19992,-13.527,-17.608
20004,-13.871,-17.135
20016,-14.424,-19.653
20027,-15.356,-19.647
20039,-16.305,-16.349
20051,-13.194,-15.466
20063,-11.062,-19.218
20074,-15.234,-20.228
20086,-16.39,-18.079
20098,-14.094,-19.128
20109,-15.82,-16.329
20121,-14.725,-16.499
20133,-12.612,-19.724
20145,-14.918,-18.667
20156,-13.342,-18.588
20168,-13.579,-19.285
20180,-17.049,-17.965
20191,-14.267,-15.885
20203,-12.886,-16.026
20215,-14.447,-15.752
20227,-15.585,-18.603
20238,-13.439,-20.747
20250,-12.868,-21.823
20262,-13.8,-18.655
20273,-12.56,-15.103
20285,-14.039,-14.381
20297,-13.329,-14.694
20309,-14.173,-17.193
20320,-17.225,-16.781
20332,-16.519,-14.785
20344,-14.876,-13.91
20355,-15.254,-17.342
20367,-14.319,-22.814
20379,-12.522,-20.976
20391,-12.819,-15.964
20402,-11.379,-15.261
20414,-13.859,-20.13
20426,-15.217,-19.623
20438,-15.296,-18.46
20449,-13.695,-18.026
20461,-14.435,-18.138
20473,-17.011,-15.518
20484,-17.097,-16.778
20496,-15.766,-17.176
20508,-15.612,-18.504
20520,-15.43,-18.861
20531,-14.177,-17.478
20543,-14.469,-17.707
20555,-14.859,-17.726
20566,-13.894,-20.93
20578,-15.523,-19.818
20590,-17.781,-20.689
20602,-16.253,-19.434
20613,-13.219,-18.111
20625,-14.859,-19.264
20637,-14.347,-21.467
20648,-14.083,-22.358
20660,-14.743,-21.333
20672,-15.54,-19.107
20684,-13.063,-18.611
20695,-12.78,-19.013
20707,-14.075,-18.883
20719,-14.68,-20.454
20730,-15.673,-19.017
20742,-12.927,-18.435
20754,-13.744,-15.491
20766,-14.641,-16.636
20777,-13.214,-21.334
20789,-13.877,-18.87
20801,-16.167,-15.564
20813,-18.372,-17.091
20824,-16.38,-20.458
20836,-16.236,-22.412
20848,-14.755,-20.825
20859,-13.823,-21.219
20871,-14.229,-21.073
20883,-16.3,-17.894
20895,-16.402,-17.754
20906,-15.636,-18.677
20918,-14.341,-22.017
20930,-16.09,-21.682
20941,-16.726,-19.278
20953,-14.891,-18.704
20965,-14.925,-21.929
20977,-15.732,-18.943
20988,-18.167,-19.314
21000,-18.141,-15.91
21012,-15.748,-17.826
21023,-12.276,-20.172
21035,-13.288,-18.5
21047,-14.688,-20.528
21059,-16.744,-21.874
21070,-16.904,-20.357
21082,-14.173,-20.793
21094,-12.533,-19.775
21105,-12.82,-17.547
21117,-14.365,-18.311
21129,-16.099,-20.237
21141,-16.841,-17.908
21152,-17.719,-18.136
21164,-14.764,-21.658
21176,-14.66,-19.915
21188,-16.531,-17.592
21199,-14.605,-17.517
21211,-12.608,-19.207
21223,-13.319,-19.548
21234,-17.354,-17.395
21246,-14.778,-19.028
21258,-15.254,-19.629
21270,-18.62,-17.721
21281,-18.33,-18.451
21293,-19.388,-21.425
21305,-17.636,-22.538
21316,-15.067,-20.229
21328,-15.319,-18.098
21340,-17.539,-18.222
21352,-14.096,-18.717
21363,-13.185,-19.392
21375,-15.264,-19.443
21387,-15.445,-19.526
21398,-15.228,-21.015
21410,-18.047,-19.453
21422,-16.94,-20.018
21434,-14.628,-19.963
21445,-15.847,-19.546
21457,-16.724,-17.751
21469,-15.781,-19.123
21480,-13.407,-17.112
21492,-12.219,-20.717
21504,-15.194,-18.819
21516,-17.1,-20.19
21527,-14.2,-22.155
21539,-15.283,-18.636
21551,-12.336,-18.093
21563,-12.623,-18.153
21574,-15.954,-14.819
21586,-13.381,-15.94
21598,-11.933,-16.757
21609,-16.394,-17.905
21621,-12.591,-18.668
21633,-14.085,-20.143
21645,-15.055,-20.708
21656,-16.482,-20.607
21668,-15.501,-19.533
21680,-14.557,-17.34
21691,-14.529,-18.114
21703,-13.286,-20.195
21715,-12.493,-22.468
21727,-13.299,-20.521
21738,-14.256,-20.737
21750,-17.109,-22.503
21762,-15.285,-18.925
21773,-15.592,-19.368
21785,-19.74,-22.279
21797,-20.536,-21.562
21809,-20.423,-21.344
21820,-19.366,-21.32
21832,-17.506,-19.951
21844,-16.393,-19.607
21855,-16.716,-19.444
21867,-21.663,-19.657
21879,-17.316,-17.645
21891,-15.794,-17.226
21902,-16.234,-19.942
21914,-16.084,-21.947
21926,-15.632,-21.005
21938,-14.842,-18.372
21949,-15.1,-16.874
21961,-16.112,-18.597
21973,-18.702,-19.848
21984,-14.949,-17.67
21996,-16.468,-15.972
22008,-17.75,-17.52
22020,-15.593,-20.488
22031,-19.478,-20.157
22043,-20.357,-20.606
22055,-20.594,-19.441
22066,-18.629,-17.399
22078,-14.212,-20.356
22090,-12.634,-19.532
22102,-14.107,-20.485
22113,-18.98,-19.957
22125,-17.357,-20.278
22137,-16.625,-22.479
22148,-16.44,-18.904
22160,-18.788,-17.801
22172,-16.004,-17.512
22184,-17.088,-20.744
22195,-16.105,-20.987
22207,-13.97,-22.26
22219,-15.743,-21.337
22230,-17.605,-19.607
22242,-16.055,-21.285
22254,-16.214,-16.781
22266,-18.883,-21.273
22277,-18.913,-20.119
22289,-16.04,-18.663
22301,-16.269,-21.14
22313,-16.75,-21.576
22324,-16.814,-17.103
22336,-17.388,-18.978
22348,-17.093,-21.147
22359,-19.18,-17.158
22371,-16.098,-16.94
22383,-13.786,-20.801
22395,-14.733,-19.83
22406,-17.558,-20.976
22418,-14.178,-21.082
22430,-13.033,-20.76
22441,-16.836,-21.825
22453,-18.262,-20.052
22465,-18.955,-20.979
22477,-17.042,-21.251
22488,-18.469,-19.016
22500,-15.849,-17.815
22512,-16.095,-20.83
22523,-13.295,-19.995
22535,-15.209,-19.063
22547,-18.131,-20.308
22559,-16.443,-20.559
22570,-16.02,-18.771
22582,-15.053,-21.186
22594,-15.794,-20.522
22605,-14.987,-21.051
22617,-14.453,-19.057
22629,-16.786,-20.964
22641,-20.711,-19.558
22652,-17.55,-20.024
22664,-17.471,-24.967
22676,-17.427,-22.89
22688,-15.357,-21.841
22699,-14.897,-20.921
22711,-18.149,-21.148
22723,-17.279,-21.731
22734,-17.47,-21.545
22746,-18.646,-21.31
22758,-19.024,-17.684
22770,-16.712,-18.149
22781,-14.575,-23.234
22793,-16.474,-20.559
22805,-16.534,-21.221
22816,-18.47,-20.322
22828,-16.673,-20.564
22840,-18.256,-20.377
22852,-16.062,-20.364
22863,-14.808,-21.374
22875,-16.079,-21.522
22887,-18.351,-21.836
22898,-16.997,-20.903
22910,-17.83,-19.306
22922,-18.054,-18.842
22934,-16.993,-20.212
22945,-15.736,-20.31
22957,-16.218,-21.407
22969,-17.899,-20.68
22980,-18.041,-20.775
22992,-18.674,-19.082
23004,-17.907,-18.382
23016,-18.728,-22.806
23027,-16.111,-21.354
23039,-17.592,-19.289
23051,-19.852,-18.259
23063,-19.09,-21.442
23074,-18.292,-20.774
23086,-17.723,-23.112
23098,-17.864,-24.029
23109,-18.314,-24.001
23121,-17.826,-24.899
23133,-15.583,-21.375
23145,-15.925,-22.559
23156,-18.409,-22.658
23168,-17.771,-21.675
23180,-16.361,-23.734
23191,-15.897,-18.898
23203,-19.223,-20.433
23215,-15.874,-20.556
23227,-18.527,-22.429
23238,-18.169,-20.882
23250,-17.212,-18.553
23262,-16.379,-19.096
23273,-17.292,-21.713
23285,-14.423,-20.929
23297,-14.374,-21.808
23309,-18.447,-20.481
23320,-18.225,-18.215
23332,-14.844,-19.561
23344,-16.695,-22.183
23355,-20.011,-21.377
23367,-19.353,-18.558
23379,-17.689,-17.34
23391,-19.413,-17.548
23402,-16.068,-19.925
23414,-14.421,-21.784
23426,-17.67,-20.681
23438,-17.584,-19.383
23449,-18.342,-21.911
23461,-17.034,-21.521
23473,-15.799,-19.911
23484,-15.362,-19.368
23496,-14.732,-19.446
23508,-15.72,-22.695
23520,-17.256,-22.618
23531,-16.723,-19.366
23543,-17.825,-17.836
23555,-20.079,-20.688
23566,-18.006,-20.313
23578,-15.741,-19.461
23590,-15.906,-20.456
23602,-16.235,-22.123
23613,-17.062,-23.296
23625,-18.173,-22.67
23637,-18.109,-21.032
23648,-18.576,-19.898
23660,-16.82,-22.577
23672,-18.598,-22.621
23684,-17.72,-20.545
23695,-16.953,-19.492
23707,-17.162,-19.6
23719,-19.952,-19.043
23730,-23.309,-19.226
23742,-22.777,-21.352
23754,-16.401,-21.343
23766,-16.744,-18.95
23777,-17.522,-18.408
23789,-14.321,-18.965
23801,-16.195,-17.822
23813,-20.909,-19.335
23824,-17.252,-18.994
23836,-18.539,-19.791
23848,-17.343,-19.348
23859,-15.279,-19.65
23871,-17.246,-20.031
23883,-18.934,-20.207
23895,-17.212,-18.115
23906,-16.699,-19.215
23918,-18.413,-18.095
23930,-18.998,-16.575
23941,-19.913,-18.741
23953,-20.955,-21.001
23965,-23.573,-21.21
23977,-23.221,-20.645
23988,-18.252,-17.637
