FFT,Power Spectrum
Frequency[Hz],Level-L[dB],Level-R[dB]
11.719,-18.777,-21.36
23.438,1.8706,-0.93817
35.156,2.0696,1.9783
46.875,1.414,2.3481
58.594,1.1036,2.0011
70.313,3.0346,1.6854
82.031,7.0662,4.0912
93.75,20.252,16.225
105.47,20.688,16.848
117.19,11.901,5.6001
128.91,9.7629,5.6409
140.63,10.132,7.4535
152.34,9.2811,7.0672
164.06,2.4447,2.3744
175.78,6.2752,5.8812
187.5,15.192,13.133
199.22,19.498,15.985
210.94,12.939,10.94
222.66,6.0995,7.4308
234.38,8.6198,6.3369
246.09,8.8869,8.4164
257.81,7.943,9.1251
269.53,7.0419,9.2823
281.25,7.3673,8.259
292.97,8.5315,5.9867
304.69,8.5435,3.2412
316.41,4.2286,3.4573
328.13,4.0052,2.7344
339.84,6.3192,5.5361
351.56,7.1501,2.977
363.28,6.491,4.757
375,4.247,4.3449
386.72,5.0596,3.6876
398.44,6.6269,4.6848
410.16,7.0419,2.9714
421.88,5.5588,0.7198
433.59,7.3687,2.9778
445.31,9.6048,6.3514
457.03,7.6222,5.6976
468.75,4.4517,5.4581
480.47,8.4168,3.9706
492.19,3.9974,4.663
503.91,6.0493,7.0098
515.63,5.7988,6.7324
527.34,6.3594,4.2999
539.06,8.9367,4.8119
550.78,6.3829,4.069
562.5,3.867,4.1909
574.22,4.4462,5.0022
585.94,7.4339,3.9899
597.66,8.0085,2.7081
609.38,8.311,5.6995
621.09,9.022,9.3681
632.81,5.9123,9.7187
644.53,7.1196,7.2297
656.25,7.4029,2.3633
667.97,7.2835,3.3573
679.69,5.7116,2.1945
691.41,2.3267,4.8808
703.13,2.1603,2.987
714.84,0.22055,3.6432
726.56,1.1888,6.6929
738.28,3.5041,1.2039
750,5.1731,3.8877
761.72,5.4178,4.0565
773.44,4.3575,4.5628
785.16,5.721,5.6604
796.88,9.5997,7.5029
808.59,11.26,3.7949
820.31,7.5099,3.372
832.03,9.2102,4.1211
843.75,9.5484,9.4782
855.47,9.8481,6.504
867.19,14.511,7.1603
878.91,15.247,7.1157
890.63,26.763,11.147
902.34,41.019,24.684
914.06,58.769,41.868
925.78,60.597,43.673
937.5,49.561,32.641
949.22,29.55,13.216
960.94,21.096,8.0527
972.66,11.169,4.261
984.38,9.8111,5.0221
996.09,5.5172,4.6236
1007.8,6.1149,3.0417
1019.5,-0.28916,2.1646
1031.3,4.496,2.799
1043,3.6525,3.1841
1054.7,5.374,3.2946
1066.4,5.277,3.6573
1078.1,5.9555,3.884
1089.8,5.2663,1.1503
1101.6,6.1594,2.6848
1113.3,5.981,4.4308
1125,6.4327,4.1163
1136.7,5.6559,3.9666
1148.4,4.2403,1.9036
1160.2,3.3284,0.27648
1171.9,2.1904,1.9009
1183.6,5.1838,3.7885
1195.3,6.2202,3.1203
1207,3.7904,4.2868
1218.8,6.2519,5.0681
1230.5,4.8201,2.9662
1242.2,0.091422,2.6731
1253.9,2.5676,3.2901
1265.6,4.1838,0.12843
1277.3,2.9965,4.6462
1289.1,2.0522,5.3988
1300.8,1.7158,1.982
1312.5,1.8288,2.3279
1324.2,4.0974,5.3239
1335.9,3.6618,4.166
1347.7,2.6339,2.5764
1359.4,2.8026,2.7778
1371.1,4.831,4.0996
1382.8,2.5628,4.357
1394.5,5.0193,3.8177
1406.3,3.0947,4.1298
1418,2.3962,4.3447
1429.7,0.91625,4.5703
1441.4,3.3223,1.4222
1453.1,4.6861,3.0905
1464.8,3.3431,1.6531
1476.6,0.20837,2.8177
1488.3,2.4577,1.8896
1500,2.184,2.5218
1511.7,1.5583,2.3713
1523.4,4.8424,2.2359
1535.2,4.3349,1.7285
1546.9,2.3363,0.55125
1558.6,1.7784,3.2443
1570.3,3.3328,2.5142
1582,2.0319,3.7453
1593.8,0.10763,2.3588
1605.5,0.5394,1.2904
1617.2,2.6172,1.7124
1628.9,1.324,1.4118
1640.6,1.1025,2.9283
1652.3,1.3641,3.9355
1664.1,1.7809,3.4894
1675.8,1.4834,2.9153
1687.5,2.0659,2.7932
1699.2,2.8224,3.9695
1710.9,3.7792,5.7622
1722.7,3.9019,2.8507
1734.4,1.8951,0.92611
1746.1,2.3971,4.4971
1757.8,1.7383,7.0838
1769.5,2.6085,4.0443
1781.3,3.2487,0.044431
1793,2.5001,2.2934
1804.7,4.0556,2.039
1816.4,2.6745,-1.0205
1828.1,5.5867,1.6411
1839.8,3.6309,-0.58028
1851.6,3.0054,-0.90897
1863.3,0.62429,-1.5738
1875,0.87815,-1.2547
1886.7,1.9356,-0.50478
1898.4,3.5168,-3.4825
1910.2,4.6356,2.1696
1921.9,3.7785,4.1192
1933.6,2.1122,4.2668
1945.3,2.2962,4.7654
1957,1.2923,3.6897
1968.8,-1.1653,1.4776
1980.5,-0.29059,3.4162
1992.2,3.6127,3.2325
2003.9,1.6517,3.8067
2015.6,2.7914,3.2512
2027.3,3.9559,1.6284
2039.1,2.8074,-2.6003
2050.8,2.146,2.52
2062.5,0.40938,2.8082
2074.2,0.040648,-1.1143
2085.9,-1.8595,-2.0871
2097.7,3.1128,0.37504
2109.4,5.5574,1.0219
2121.1,3.3331,0.93301
2132.8,0.22547,1.3714
2144.5,1.9878,1.4593
2156.3,5.9863,-0.46949
2168,5.4268,-0.061231
2179.7,4.1349,0.60524
2191.4,2.8435,0.026253
2203.1,0.54071,0.58898
2214.8,0.2549,0.71437
2226.6,0.03241,0.91165
2238.3,-0.31548,0.76159
2250,-1.0828,2.7957
2261.7,1.3677,3.0647
2273.4,1.0841,0.74762
2285.2,1.3112,0.27907
2296.9,0.96135,0.79401
2308.6,-0.3928,-0.68683
2320.3,0.43897,-0.31938
2332,0.46168,0.61104
2343.8,1.2648,-0.95318
2355.5,1.5457,2.1957
2367.2,-0.59905,1.9017
2378.9,-1.4221,0.056688
2390.6,0.77198,0.94978
2402.3,-0.29166,-1.0421
2414.1,1.3958,0.46548
2425.8,1.7507,1.439
2437.5,0.65883,3.1521
2449.2,-1.3505,0.029375
2460.9,0.045977,4.0098
2472.7,0.9189,-1.4632
2484.4,2.2786,1.0471
2496.1,-1.7427,0.8642
2507.8,-3.7712,0.55358
2519.5,-0.12622,1.8764
2531.3,2.0257,1.0688
2543,-0.099619,-1.8576
2554.7,-1.8066,-3.5318
2566.4,-4.7104,0.19734
2578.1,-0.61209,1.3536
2589.8,2.6857,2.994
2601.6,3.3064,2.7726
2613.3,2.3722,-1.3465
2625,-0.28265,-2.787
2636.7,-0.48755,-0.014161
2648.4,-1.4389,2.1038
2660.2,0.7871,2.8387
2671.9,-0.15456,2.3824
2683.6,0.26096,0.38695
2695.3,0.29026,-2.5838
2707,0.24168,-1.9698
2718.8,0.025671,-0.59483
2730.5,-0.12976,1.4283
2742.2,1.3664,0.35958
2753.9,1.6904,-0.95289
2765.6,1.6027,-2.0923
2777.3,-0.45551,1.3321
2789.1,-0.86883,2.7249
2800.8,-0.76675,0.79383
2812.5,-0.20699,-2.1232
2824.2,-1.1829,0.046679
2835.9,-0.4369,2.1578
2847.7,4.4016,1.373
2859.4,2.7538,1.8301
2871.1,-0.2365,3.5894
2882.8,-4.2266,2.1904
2894.5,-1.0862,1.3076
2906.3,-1.7407,0.9509
2918,-0.93451,-0.54883
2929.7,-2.1085,-3.6623
2941.4,0.65704,-0.80729
2953.1,-0.86707,1.0742
2964.8,-0.23023,0.70552
2976.6,0.12519,0.74665
2988.3,0.41563,0.16073
3000,-3.267,-2.3358
3011.7,-2.3059,-0.48534
3023.4,0.70431,3.5721
3035.2,1.6709,5.0551
3046.9,-0.26778,-0.75877
3058.6,0.51075,-2.0461
3070.3,-2.3243,0.22999
3082,-1.3431,2.6164
3093.8,1.3215,1.6718
3105.5,-2.1196,0.68057
3117.2,-2.6434,1.736
3128.9,-0.93823,1.3004
3140.6,-2.6038,1.6253
3152.3,-2.8856,1.5625
3164.1,-0.71858,-0.53246
3175.8,-1.5022,-0.94805
3187.5,-1.3549,-0.31054
3199.2,2.1663,-1.3289
3210.9,1.3386,-2.0084
3222.7,1.3835,-1.022
3234.4,3.1685,-2.1443
3246.1,0.69998,-1.591
3257.8,0.91497,2.055
3269.5,-0.64851,2.1154
3281.3,-4.1404,3.5326
3293,-1.8127,4.5321
3304.7,-3.1507,-1.7094
3316.4,-2.3462,-2.4459
3328.1,-1.3616,-0.58597
3339.8,-3.5045,-2.0683
3351.6,-1.6147,-3.2369
3363.3,0.30384,-4.3763
3375,-4.2812,-4.8717
3386.7,0.084044,-6.0294
3398.4,0.47001,-5.4554
3410.2,-0.77815,-0.3473
3421.9,-2.5201,-0.99326
3433.6,-4.6817,-1.7443
3445.3,-2.6986,2.1039
3457,0.13676,0.023648
3468.8,-3.0325,-1.362
3480.5,0.17994,-0.26964
3492.2,1.475,0.3753
3503.9,0.15063,-2.6175
3515.6,-1.2031,-1.6944
3527.3,-3.6115,-1.1239
3539.1,-3.5353,-3.3719
3550.8,-2.6027,-3.4399
3562.5,-4.7492,-2.0363
3574.2,-1.7718,-2.1374
3585.9,0.058898,-1.4494
3597.7,0.89158,-1.035
3609.4,-0.77017,-4.3471
3621.1,-0.84551,-1.1802
3632.8,-0.90091,-1.1084
3644.5,0.19192,-2.8316
3656.3,0.17387,-2.3671
3668,-2.7485,0.1003
3679.7,0.041552,-1.3211
3691.4,-0.84343,-4.3347
3703.1,-2.4373,-4.1304
3714.8,-1.9063,-0.64458
3726.6,-2.8473,-1.2491
3738.3,-3.3014,-2.4308
3750,-1.4915,0.17395
3761.7,-2.5946,-3.9659
3773.4,-2.1067,-3.7686
3785.2,-1.9406,-1.5839
3796.9,-3.7705,-0.13104
3808.6,-3.8983,-0.34919
3820.3,-2.9987,-1.7564
3832,-0.60912,-0.69784
3843.8,-1.5785,-2.1316
3855.5,-3.9206,-4.6447
3867.2,-2.3561,-2.6697
3878.9,-1.8446,-1.8803
3890.6,-2.205,-1.9048
3902.3,-1.6193,-1.1013
3914.1,0.0079154,-2.0396
3925.8,-2.2187,-1.021
3937.5,-6.4043,-1.5825
3949.2,-3.5454,-1.2581
3960.9,-2.4262,0.48343
3972.7,-0.26094,1.0631
3984.4,-0.33933,0.78034
3996.1,-2.9201,1.5722
4007.8,-1.1356,0.67006
4019.5,-1.0909,-1.4346
4031.3,-2.945,-1.0847
4043,-2.9917,-1.0032
4054.7,-4.3291,-2.8449
4066.4,-3.4858,-2.7615
4078.1,-0.8987,-1.9797
4089.8,-0.19688,-3.1371
4101.6,0.65389,0.44182
4113.3,-0.17098,0.81761
4125,-2.5226,-1.2265
4136.7,-2.0073,-1.3639
4148.4,-4.4195,-1.1817
4160.2,-4.2989,-1.6143
4171.9,-2.6754,-1.3004
4183.6,-1.8484,-4.6821
4195.3,-3.2138,-2.4
4207,-2.0605,-2.0469
4218.8,-1.0803,-3.4176
4230.5,-1.4754,-4.7803
4242.2,-1.8728,-3.02
4253.9,-2.9649,-1.9607
4265.6,-2.1474,-3.0319
4277.3,-3.0929,-3.3309
4289.1,-3.4761,-2.9655
4300.8,-2.6215,-4.4066
4312.5,-4.7682,-4.1086
4324.2,-4.3291,-2.5971
4335.9,-0.73669,-3.6518
4347.7,0.42914,-2.5547
4359.4,-0.86326,-3.2428
4371.1,-5.308,-3.4868
4382.8,-2.5839,-3.8604
4394.5,-0.26838,-2.8207
4406.3,-0.41905,-5.5379
4418,-1.7333,-3.4961
4429.7,-4.0216,-2.4938
4441.4,-4.2091,-1.9826
4453.1,-2.3304,-3.2692
4464.8,-2.6881,-2.5511
4476.6,-0.7595,-1.6048
4488.3,1.8468,-1.9273
4500,0.30002,-3.705
4511.7,-0.54709,-1.8645
4523.4,-0.53402,-4.5857
4535.2,-6.8145,-4.2369
4546.9,-2.3059,-5.4521
4558.6,-2.2818,-5.275
4570.3,-3.3602,-3.5001
4582,-3.0704,-3.0414
4593.8,-1.5666,-3.6619
4605.5,5.0272,-3.4684
4617.2,3.4096,-3.9651
4628.9,-1.6775,-2.5572
4640.6,-2.9924,-1.0734
4652.3,-3.8158,-3.5704
4664.1,-1.5617,-4.4448
4675.8,-1.2241,-6.3328
4687.5,-1.5395,-9.9594
4699.2,-1.5451,-7.3826
4710.9,-2.3041,-7.5296
4722.7,-4.0893,-4.8192
4734.4,-2.2245,-4.4153
4746.1,-2.2836,-3.2204
4757.8,-2.6382,-1.9629
4769.5,-1.2241,-1.9413
4781.3,-2.8958,-3.9197
4793,-4.3551,-5.416
4804.7,-2.487,-2.9378
4816.4,-3.562,-2.3214
4828.1,-3.5856,-4.241
4839.8,-4.893,-3.738
4851.6,-6.3934,-4.7377
4863.3,-5.6476,-5.2823
4875,-3.3344,-2.1997
4886.7,-3.45,-1.2782
4898.4,-3.929,-2.5337
4910.2,-3.4331,-7.0619
4921.9,-4.5258,-5.0516
4933.6,-3.7739,-5.9362
4945.3,-4.3668,-2.949
4957,-5.4536,-2.4446
4968.8,-3.6084,-5.3627
4980.5,-4.0521,-6.8277
4992.2,-3.3225,-6.5903
5003.9,-3.3841,-5.9106
5015.6,-3.3005,-5.0337
5027.3,-3.6479,-5.2063
5039.1,-5.3207,-6.1294
5050.8,-5.6408,-6.0617
5062.5,-3.2956,-5.6992
5074.2,-1.82,-2.3142
5085.9,-2.1062,-1.2298
5097.7,-5.5533,-2.3612
5109.4,-6.4588,-3.2548
5121.1,-5.9852,-2.0766
5132.8,-5.9266,-3.7716
5144.5,-4.3544,-4.6375
5156.3,-4.7579,-5.1496
5168,-5.2139,-5.2898
5179.7,-4.2372,-3.0091
5191.4,-4.387,-4.3354
5203.1,-5.9195,-4.3327
5214.8,-5.6333,-4.1318
5226.6,-2.2115,-2.3632
5238.3,-2.7521,-3.0129
5250,-5.1183,-2.4852
5261.7,-7.6645,-1.9389
5273.4,-5.2691,-2.1633
5285.2,-2.2797,-5.0772
5296.9,-2.7459,-7.5001
5308.6,-4.1012,-8.0691
5320.3,-5.5421,-3.984
5332,-2.5405,-4.6923
5343.8,-4.155,-5.9492
5355.5,-3.5205,-7.5871
5367.2,-5.036,-5.653
5378.9,-5.5927,-4.4462
5390.6,-4.8719,-3.5253
5402.3,-5.5467,-5.3244
5414.1,-8.6612,-1.7112
5425.8,-6.9325,-1.4396
5437.5,-4.5437,-5.8585
5449.2,-4.7058,-6.9789
5460.9,-4.3932,-8.088
5472.7,-4.8966,-7.3764
5484.4,-4.5336,-8.0574
5496.1,-5.7279,-7.4386
5507.8,-5.1565,-6.7406
5519.5,-3.698,-8.3463
5531.3,-1.4476,-5.3248
5543,-5.9185,-3.7205
5554.7,-4.0404,-2.6677
5566.4,-3.6701,-4.3211
5578.1,-7.1704,-4.2131
5589.8,-9.7486,-5.2562
5601.6,-8.5259,-3.7772
5613.3,-5.7417,-2.3798
5625,-3.3489,-3.7089
5636.7,-4.889,-3.8535
5648.4,-4.1549,-3.5941
5660.2,-3.7203,-6.1275
5671.9,-7.069,-5.5601
5683.6,-5.0556,-2.7293
5695.3,-5.2977,-5.7239
5707,-4.0438,-5.4936
5718.8,-2.2133,-4.7985
5730.5,-4.4582,-5.1229
5742.2,-3.0646,-5.5246
5753.9,-3.2543,-4.17
5765.6,-4.2624,-3.8518
5777.3,-4.4773,-7.8797
5789.1,-8.0323,-4.7126
5800.8,-7.8776,-5.5564
5812.5,-5.9035,-6.4592
5824.2,-5.9607,-7.3891
5835.9,-5.8678,-7.3079
5847.7,-3.9762,-4.9676
5859.4,-4.4954,-8.0363
5871.1,-5.7008,-6.2004
5882.8,-5.2319,-4.8242
5894.5,-4.5358,-4.6139
5906.3,-4.8871,-5.5975
5918,-8.3481,-4.246
5929.7,-8.7898,-2.9681
5941.4,-6.1586,-6.846
5953.1,-4.7489,-4.9849
5964.8,-4.6174,-7.9259
5976.6,-4.263,-8.4099
5988.3,-6.3788,-6.7293
6000,-5.3778,-5.031
6011.7,-5.5739,-3.8042
6023.4,-8.0581,-3.8313
6035.2,-7.0605,-6.6206
6046.9,-4.2278,-5.8836
6058.6,-4.7778,-5.7753
6070.3,-5.3969,-7.1261
6082,-7.0692,-6.3518
6093.8,-6.742,-4.7791
6105.5,-7.8301,-4.7225
6117.2,-9.0596,-4.2925
6128.9,-7.5372,-5.2738
6140.6,-4.8545,-6.699
6152.3,-3.3185,-6.9756
6164.1,-5.301,-5.293
6175.8,-8.2115,-5.9935
6187.5,-7.8629,-7.0709
6199.2,-5.3375,-4.3558
6210.9,-2.9819,-4.4688
6222.7,-5.784,-6.1494
6234.4,-4.8151,-7.4972
6246.1,-3.8553,-10.358
6257.8,-7.4433,-10.019
6269.5,-8.839,-7.9147
6281.3,-7.025,-7.1695
6293,-4.7227,-7.5036
6304.7,-4.6541,-3.9214
6316.4,-5.168,-4.5681
6328.1,-4.9298,-9.128
6339.8,-5.8604,-9.6805
6351.6,-5.2074,-3.081
6363.3,-6.1633,-3.2321
6375,-5.8739,-5.8568
6386.7,-4.9273,-5.3655
6398.4,-5.7687,-6.4188
6410.2,-4.2457,-7.1688
6421.9,-4.4686,-7.1116
6433.6,-4.5148,-6.3282
6445.3,-5.6108,-4.194
6457,-6.2138,-4.8695
6468.8,-6.4384,-8.1617
6480.5,-6.9532,-5.9242
6492.2,-5.8029,-6.6936
6503.9,-4.9108,-4.7988
6515.6,-5.3722,-5.9701
6527.3,-6.7803,-6.956
6539.1,-6.0972,-7.778
6550.8,-7.7326,-7.1019
6562.5,-5.9948,-5.4328
6574.2,-5.9688,-6.4114
6585.9,-6.8384,-6.356
6597.7,-8.7599,-5.3912
6609.4,-7.3562,-7.2053
6621.1,-8.6005,-9.9504
6632.8,-6.4749,-8.8861
6644.5,-3.614,-7.8783
6656.3,-5.1641,-7.4916
6668,-7.4121,-7.3759
6679.7,-8.805,-8.6097
6691.4,-7.9163,-7.489
6703.1,-5.5544,-6.6367
6714.8,-5.0729,-7.5382
6726.6,-7.465,-7.617
6738.3,-5.8733,-10.187
6750,-8.8679,-6.7842
6761.7,-7.8254,-6.9727
6773.4,-8.8077,-12.006
6785.2,-7.3405,-10.037
6796.9,-3.1037,-6.413
6808.6,-4.4954,-8.5366
6820.3,-8.7811,-8.8956
6832,-10.094,-5.5303
6843.8,-7.5894,-5.6806
6855.5,-6.3634,-9.3132
6867.2,-6.4411,-9.5623
6878.9,-9.0343,-8.366
6890.6,-8.1175,-5.9509
6902.3,-7.0303,-5.6041
6914.1,-13.313,-6.7906
6925.8,-8.2547,-7.6779
6937.5,-9.8684,-7.6796
6949.2,-9.4909,-8.7389
6960.9,-7.6709,-9.6345
6972.7,-7.498,-6.2743
6984.4,-7.347,-9.6332
6996.1,-6.6406,-9.006
7007.8,-6.2046,-8.1933
7019.5,-4.0944,-8.2729
7031.3,-5.841,-7.4401
7043,-7.4079,-7.2546
7054.7,-9.9005,-10.374
7066.4,-8.6764,-8.0922
7078.1,-8.2082,-9.6969
7089.8,-6.6519,-5.3768
7101.6,-7.2784,-6.2676
7113.3,-6.1289,-9.1788
7125,-6.4894,-9.5385
7136.7,-6.7157,-10.695
7148.4,-8.4794,-9.8307
7160.2,-9.0474,-9.8139
7171.9,-8.6515,-5.7568
7183.6,-9.3286,-7.0679
7195.3,-8.3447,-9.709
7207,-4.9285,-9.8222
7218.8,-3.3502,-10.782
7230.5,-5.6152,-9.3468
7242.2,-8.6405,-7.9598
7253.9,-7.7487,-8.2724
7265.6,-7.7043,-7.394
7277.3,-9.6524,-6.5025
7289.1,-6.5234,-9.424
7300.8,-5.1495,-10.633
7312.5,-7.2585,-9.5164
7324.2,-10.587,-7.2187
7335.9,-10.325,-7.3475
7347.7,-4.9557,-11.535
7359.4,-4.6877,-9.7677
7371.1,-6.3928,-8.0276
7382.8,-5.9693,-6.9725
7394.5,-7.7808,-11.569
7406.3,-7.9576,-10.571
7418,-8.2874,-11.375
7429.7,-6.7675,-7.396
7441.4,-7.8499,-5.5649
7453.1,-8.4121,-6.7607
7464.8,-8.5945,-8.1934
7476.6,-10.144,-8.4669
7488.3,-6.8802,-10.433
7500,-4.7914,-6.0416
7511.7,-5.8563,-6.4965
7523.4,-6.3052,-6.9672
7535.2,-7.6409,-6.4417
7546.9,-6.8731,-9.1633
7558.6,-6.5608,-9.8306
7570.3,-8.5031,-6.836
7582,-9.5196,-6.993
7593.8,-8.6829,-9.4663
7605.5,-6.827,-12.812
7617.2,-9.4947,-8.121
7628.9,-9.0652,-7.8597
7640.6,-6.5573,-6.3914
7652.3,-7.3386,-8.7692
7664.1,-6.1161,-10.372
7675.8,-6.7192,-10.309
7687.5,-6.4859,-7.9576
7699.2,-8.6517,-8.575
7710.9,-9.6299,-9.8869
7722.7,-9.9328,-7.0309
7734.4,-9.8102,-7.9555
7746.1,-9.4448,-11.166
7757.8,-8.9523,-8.3985
7769.5,-8.1192,-7.5381
7781.3,-10.089,-7.4755
7793,-9.1487,-5.5011
7804.7,-10.462,-7.0453
7816.4,-11.459,-12.292
7828.1,-10.211,-11.015
7839.8,-6.1525,-8.4571
7851.6,-6.7779,-6.827
7863.3,-6.2176,-8.9664
7875,-6.2581,-7.6911
7886.7,-7.9873,-9.852
7898.4,-8.147,-8.4528
7910.2,-8.3519,-10.084
7921.9,-10.093,-8.9185
7933.6,-10.09,-8.7095
7945.3,-8.0451,-10.453
7957,-10.112,-8.0959
7968.8,-10.598,-10.606
7980.5,-8.4167,-6.3077
7992.2,-9.7083,-5.3808
8003.9,-11.786,-5.6955
8015.6,-10.332,-6.5849
8027.3,-13.354,-9.5566
8039.1,-14.082,-11.154
8050.8,-10.06,-9.1201
8062.5,-6.4475,-5.8587
8074.2,-7.9915,-7.1842
8085.9,-10.949,-10.246
8097.7,-6.1856,-12.707
8109.4,-6.9487,-12.325
8121.1,-7.663,-12.993
8132.8,-6.3279,-12.046
8144.5,-8.0789,-8.218
8156.3,-8.8481,-6.5771
8168,-7.3035,-5.4518
8179.7,-11.487,-8.4323
8191.4,-9.1613,-10.088
8203.1,-9.3756,-5.9777
8214.8,-11.095,-7.2503
8226.6,-10.356,-9.7601
8238.3,-5.7121,-8.5935
8250,-7.4954,-9.5212
8261.7,-12.24,-8.4448
8273.4,-14.112,-9.801
8285.2,-7.6955,-8.158
8296.9,-4.616,-11.236
8308.6,-6.2897,-10.933
8320.3,-6.8862,-10.878
8332,-6.411,-9.8333
8343.8,-6.2655,-11.188
8355.5,-8.6605,-10.468
8367.2,-8.8325,-10.746
8378.9,-8.9438,-10.275
8390.6,-5.6607,-10.328
8402.3,-5.182,-9.545
8414.1,-8.4563,-9.7902
8425.8,-8.6322,-10.979
8437.5,-7.9197,-9.5402
8449.2,-7.6392,-10.605
8460.9,-8.9396,-9.9082
8472.7,-11.6,-10.673
8484.4,-7.4908,-11.144
8496.1,-7.0484,-9.0469
8507.8,-9.1444,-9.1771
8519.5,-7.016,-7.4715
8531.3,-8.7025,-6.5062
8543,-10.512,-7.6941
8554.7,-10.908,-10.183
8566.4,-10.379,-10.668
8578.1,-12.231,-9.3743
8589.8,-11.47,-11.559
8601.6,-11.456,-10.734
8613.3,-9.9785,-8.2325
8625,-9.2885,-10.333
8636.7,-9.5834,-9.5177
8648.4,-9.7018,-11.72
8660.2,-10.549,-9.6941
8671.9,-10.191,-11.9
8683.6,-8.3577,-9.0624
8695.3,-7.7266,-9.2035
8707,-9.1484,-12.118
8718.8,-11.191,-9.584
8730.5,-10.7,-8.1215
8742.2,-11.141,-8.4672
8753.9,-11.514,-7.1052
8765.6,-10.558,-9.7166
8777.3,-10.072,-11.358
8789.1,-11.929,-9.8723
8800.8,-9.4815,-10.018
8812.5,-9.4494,-11.245
8824.2,-11.395,-12.486
8835.9,-8.9998,-11.151
8847.7,-6.8597,-11.238
8859.4,-9.5697,-12.18
8871.1,-11.058,-11.953
8882.8,-9.6937,-13.709
8894.5,-9.2869,-14.102
8906.3,-8.558,-12.22
8918,-7.4453,-10.41
8929.7,-8.8611,-10.964
8941.4,-11.875,-10.832
8953.1,-8.9595,-6.2333
8964.8,-8.1171,-7.0688
8976.6,-10.079,-9.4502
8988.3,-7.4395,-10.443
9000,-9.3782,-12.287
9011.7,-10.897,-12.811
9023.4,-10.354,-10.354
9035.2,-7.9795,-7.6353
9046.9,-6.0976,-8.9543
9058.6,-7.2214,-12.426
9070.3,-9.4901,-11.948
9082,-13.805,-9.4227
9093.8,-11.827,-9.1715
9105.5,-10.981,-12.017
9117.2,-13.096,-13.825
9128.9,-11.207,-11.663
9140.6,-12.869,-9.7827
9152.3,-13.344,-13.855
9164.1,-11.095,-9.9501
9175.8,-11.445,-9.0121
9187.5,-12.02,-11.997
9199.2,-13.06,-12.016
9210.9,-9.8909,-11.01
9222.7,-9.5375,-11.7
9234.4,-9.916,-10.858
9246.1,-8.7854,-11.51
9257.8,-8.7263,-13.059
9269.5,-10.055,-10.874
9281.3,-14.428,-9.6014
9293,-10.645,-11.682
9304.7,-8.7917,-12.244
9316.4,-9.3497,-11.547
9328.1,-12.387,-11.713
9339.8,-13.303,-13.442
9351.6,-10.944,-12.045
9363.3,-9.8127,-12.777
9375,-11.462,-13.974
9386.7,-11.264,-11.393
9398.4,-10.966,-11.73
9410.2,-11.643,-14.77
9421.9,-12.908,-11.586
9433.6,-11.079,-10.705
9445.3,-8.4978,-11.349
9457,-8.7407,-11.511
9468.8,-10.064,-15.886
9480.5,-10.456,-10.987
9492.2,-12.901,-10.453
9503.9,-11.855,-7.9532
9515.6,-10.982,-7.7389
9527.3,-10.478,-7.7344
9539.1,-8.0397,-7.5206
9550.8,-10.433,-9.6628
9562.5,-12.442,-14.317
9574.2,-11.861,-13.338
9585.9,-8.8621,-15.372
9597.7,-12.114,-14.172
9609.4,-12.753,-11.829
9621.1,-9.9489,-13.313
9632.8,-7.8063,-14.385
9644.5,-10.665,-14.702
9656.3,-12.246,-14.216
9668,-14.228,-12.137
9679.7,-12.309,-13.507
9691.4,-11.934,-15.538
9703.1,-9.44,-11.314
9714.8,-8.8514,-9.8508
9726.6,-11.394,-7.7497
9738.3,-12.05,-9.1852
9750,-10.772,-12.684
9761.7,-10.298,-10.713
9773.4,-10.768,-7.4619
9785.2,-13.721,-8.9641
9796.9,-11.476,-11.498
9808.6,-13.09,-12.032
9820.3,-12.173,-11.372
9832,-10.49,-12.893
9843.8,-13.775,-12.945
9855.5,-15.49,-14.171
9867.2,-10.879,-14.271
9878.9,-14.601,-13.258
9890.6,-12.493,-14.543
9902.3,-13.502,-13.637
9914.1,-14.147,-11.768
9925.8,-10.076,-13.221
9937.5,-8.0447,-10.785
9949.2,-10.343,-10.509
9960.9,-10.192,-13.175
9972.7,-11.053,-13.43
9984.4,-14.814,-15.581
9996.1,-12.283,-12.494
10008,-10.273,-11.618
10020,-10.233,-10.857
10031,-12.587,-8.5359
10043,-14.206,-7.7234
10055,-13.997,-9.2529
10066,-13.16,-15.177
10078,-14.871,-14.697
10090,-13.454,-10.874
10102,-12.048,-12.799
10113,-11.732,-13.859
10125,-9.7535,-13.007
10137,-7.1748,-14.517
10148,-8.978,-13.72
10160,-9.9307,-13.853
10172,-9.6097,-14.616
10184,-9.9867,-11.216
10195,-11.01,-11.411
10207,-12.974,-14.684
10219,-11.337,-13.45
10230,-9.9992,-12.988
10242,-12.644,-13.246
10254,-11.423,-11.696
10266,-13.999,-12.84
10277,-13.978,-12.029
10289,-11.448,-12.611
10301,-8.699,-13.783
10313,-11.486,-12.276
10324,-9.5749,-13.153
10336,-12.166,-13.009
10348,-12.588,-11.11
10359,-11.221,-11.186
10371,-13.309,-16.08
10383,-14.178,-12.148
10395,-14.312,-11.929
10406,-16.533,-13.088
10418,-15.596,-13.488
10430,-11.183,-14.154
10441,-9.9704,-14.388
10453,-14.202,-15.973
10465,-13.766,-14.003
10477,-12.904,-13.225
10488,-12.324,-12.248
10500,-12.716,-12.496
10512,-14.343,-16.083
10523,-12.052,-12.407
10535,-9.552,-11.748
10547,-9.5257,-14.09
10559,-11.764,-14.862
10570,-9.9347,-12.663
10582,-10.729,-12.771
10594,-13.342,-13.537
10605,-11.718,-13.957
10617,-12.781,-10.549
10629,-11.754,-11.401
10641,-10.889,-13.126
10652,-13.235,-12.799
10664,-16.408,-15.961
10676,-9.1083,-13.151
10688,-8.0954,-16.386
10699,-9.0584,-15.841
10711,-12.173,-16.629
10723,-13.726,-14.501
10734,-15.056,-13.715
10746,-13.829,-12.088
10758,-11.616,-13.298
10770,-11.783,-14.377
10781,-13.256,-15.15
10793,-16.496,-16.49
10805,-11.483,-15.965
10816,-11.059,-11.007
10828,-13.63,-9.4274
10840,-15.968,-10.644
10852,-12.907,-13.301
10863,-14.995,-12.619
10875,-11.771,-13.734
10887,-9.3459,-14.368
10898,-9.9277,-15.479
10910,-12.206,-15.455
10922,-14.802,-11.726
10934,-13.798,-10.866
10945,-12.161,-11.449
10957,-10.984,-14.694
10969,-11.006,-14.389
10980,-9.6346,-13.029
10992,-10.303,-12.239
11004,-11.969,-11.946
11016,-12.045,-11.968
11027,-11.595,-14.663
11039,-11.928,-14.464
11051,-14.011,-14.797
11063,-13.44,-12.832
11074,-13.405,-12.136
11086,-15.496,-13.703
11098,-15.113,-14.973
11109,-15.653,-13.645
11121,-14.489,-12.62
11133,-12.569,-15.748
11145,-10.087,-13.482
11156,-9.6543,-14.976
11168,-11.399,-14.693
11180,-12.256,-14.724
11191,-11.424,-14.182
11203,-12.274,-12.941
11215,-12.073,-16.695
11227,-10.585,-14.775
11238,-10.181,-13.533
11250,-9.2436,-14.802
11262,-14.851,-16.063
11273,-12.732,-16.623
11285,-12.057,-14.321
11297,-13.031,-14.082
11309,-13.833,-13.28
11320,-13.555,-14.238
11332,-13.179,-12.087
11344,-12.12,-14.393
11355,-12.152,-16.482
11367,-13.454,-13.555
11379,-15.018,-15.462
11391,-13.619,-18.123
11402,-15.933,-16.578
11414,-12.837,-15.437
11426,-10.495,-14.83
11438,-10.917,-14.095
11449,-12.702,-14.646
11461,-15.074,-11.154
11473,-13.223,-11.184
11484,-10.955,-15.289
11496,-13.291,-14.391
11508,-14.292,-15.157
11520,-13.998,-16.286
11531,-13.532,-15.417
11543,-12.713,-15.528
11555,-11.398,-14.912
11566,-10.421,-15.939
11578,-12.934,-13.907
11590,-14.991,-13.239
11602,-13.198,-13.399
11613,-9.8766,-15.12
11625,-9.4393,-13.997
11637,-11.622,-14.04
11648,-14.303,-17.458
11660,-11.585,-15.34
11672,-11.367,-13.531
11684,-14.037,-14.515
11695,-10.924,-15.761
11707,-8.9138,-14.715
11719,-9.1505,-14.965
11730,-10.232,-14.125
11742,-10.035,-15.504
11754,-9.0895,-14.099
11766,-10.1,-13.033
11777,-10.506,-15.234
11789,-12.027,-13.262
11801,-13.486,-15.328
11813,-12.947,-14.479
11824,-13.149,-13.345
11836,-10.712,-14.226
11848,-11.458,-14.405
11859,-12.705,-14.257
11871,-14.993,-13.276
11883,-11.961,-15.459
11895,-8.8876,-14.334
11906,-8.6082,-16.633
11918,-10.58,-16.854
11930,-12.898,-14.207
11941,-12.167,-13.211
11953,-10.673,-17.354
11965,-13.144,-15.8
11977,-10.153,-14.673
11988,-9.161,-13.349
12000,-9.8232,-14.743
12012,-11.88,-14.159
12023,-15.033,-15.622
12035,-13.466,-18.192
12047,-11.174,-15.646
12059,-15.167,-15.577
12070,-15.465,-13.53
12082,-14.721,-15.365
12094,-15.055,-16.56
12105,-14.912,-17.471
12117,-13.405,-15.682
12129,-12.381,-15.282
12141,-12.606,-15.252
12152,-13.974,-14.371
12164,-12.496,-15.926
12176,-13.269,-14.693
12188,-14.291,-13.184
12199,-13.839,-12.836
12211,-11.745,-13.515
12223,-11.901,-12.442
12234,-11.261,-16.861
12246,-11.998,-18.455
12258,-12.194,-16.855
12270,-14.067,-15.956
12281,-13.944,-16.205
12293,-11.901,-15.112
12305,-13.105,-14.207
12316,-13.327,-13.961
12328,-12.367,-14.225
12340,-13.255,-12.894
12352,-13.394,-13.392
12363,-12.068,-16.081
12375,-11.176,-17.111
12387,-12.378,-14.596
12398,-11.671,-13.828
12410,-11.424,-11.756
12422,-10.398,-12.874
12434,-8.4871,-16.126
12445,-9.3657,-18.543
12457,-12.878,-18.188
12469,-14.958,-15.613
12480,-12.873,-15.721
12492,-15.212,-18.749
12504,-13.106,-16.08
12516,-11.727,-15.339
12527,-13.237,-14.99
12539,-15.027,-16.219
12551,-14.811,-17.78
12563,-14.392,-16.094
12574,-12.269,-15.633
12586,-12.749,-16.863
12598,-13.135,-17.664
12609,-11.489,-15.704
12621,-10.727,-14.394
12633,-13.274,-11.809
12645,-15.13,-15.339
12656,-12.468,-17.909
12668,-11.855,-16.975
12680,-10.701,-14.406
12691,-9.5208,-14.466
12703,-10.28,-14.926
12715,-13.545,-16.029
12727,-16.811,-15.08
12738,-14.426,-15.731
12750,-12.568,-16.855
12762,-12.737,-13.937
12773,-10.763,-12.68
12785,-10.994,-14.021
12797,-13.809,-16.877
12809,-13.439,-17.991
12820,-11.174,-15.664
12832,-9.8571,-12.347
12844,-12.613,-15.494
12855,-14.47,-17.485
12867,-11.705,-18.405
12879,-12.634,-16.979
12891,-12.463,-17.686
12902,-9.4532,-15.274
12914,-11.766,-13.779
12926,-16.559,-16.921
12938,-13.18,-13.66
12949,-11.501,-12.887
12961,-11.389,-16.148
12973,-14.429,-17.538
12984,-15.118,-17.132
12996,-11.704,-15.651
13008,-13.38,-18.102
13020,-14.266,-16.045
13031,-12.599,-13.286
13043,-12.508,-15.792
13055,-11.561,-17.239
13066,-11.066,-17.065
13078,-12.147,-16.221
13090,-10.357,-16.671
13102,-11.079,-14.743
13113,-14.679,-13.412
13125,-16.9,-12.959
13137,-12.583,-12.487
13148,-14.819,-14.336
13160,-17.34,-16.519
13172,-14.214,-17.094
13184,-11.38,-14.038
13195,-12.342,-13.52
13207,-11.824,-15.996
13219,-13.206,-14.459
13230,-16.037,-13.662
13242,-15.172,-16.203
13254,-15.21,-17.765
13266,-15.352,-19.488
13277,-14.242,-16.427
13289,-14.392,-17.637
13301,-12.668,-19.043
13313,-16.288,-18.475
13324,-15.61,-18.916
13336,-11.775,-16.45
13348,-15.506,-17.483
13359,-15.481,-16.516
13371,-11.64,-16.407
13383,-13.453,-16.613
13395,-17.692,-18.284
13406,-15.243,-17.231
13418,-11.661,-14.415
13430,-13.068,-14.999
13441,-14.807,-18.924
13453,-14.582,-14.725
13465,-14.691,-17.917
13477,-13.506,-19.386
13488,-14.593,-18.106
13500,-15.485,-18.115
13512,-15.47,-16.296
13523,-15.159,-15.722
13535,-14.551,-16.402
13547,-19.856,-15.49
13559,-14.058,-18.195
13570,-11.836,-16.798
13582,-11.332,-18.313
13594,-14.17,-17.551
13605,-17.144,-19.889
13617,-16.44,-18.978
13629,-16.139,-17.342
13641,-15.158,-16.029
13652,-14.313,-16.628
13664,-15.807,-16.593
13676,-18.853,-18.092
13688,-16.959,-18.094
13699,-17.202,-18.107
13711,-13.495,-15.261
13723,-14.737,-19.073
13734,-18.036,-17.685
13746,-14.602,-18.822
13758,-15.326,-19.675
13770,-16.638,-18.525
13781,-12.982,-17.064
13793,-13.436,-16.293
13805,-16.195,-15.323
13816,-6.3511,-13.798
13828,-2.4509,-18.214
13840,-8.0841,-19.976
13852,-15.357,-20.544
13863,-15.439,-17.02
13875,-14.532,-18.336
13887,-13.15,-16.902
13898,-13.117,-14.377
13910,-16.676,-14.199
13922,-14.338,-14.948
13934,-12.676,-15.001
13945,-14.246,-16.646
13957,-16.033,-16.809
13969,-16.682,-17.102
13980,-16.05,-18.935
13992,-15.294,-20.571
14004,-14.252,-18.815
14016,-16.556,-18.04
14027,-17.804,-18.13
14039,-16.601,-14.827
14051,-15.828,-16.765
14063,-13.981,-14.022
14074,-14.499,-14.18
14086,-18.447,-15.65
14098,-15.635,-19.304
14109,-15.626,-18.325
14121,-15.449,-17.591
14133,-15.358,-15.978
14145,-17.514,-17.022
14156,-18.426,-19.244
14168,-18.518,-18.998
14180,-17.665,-16.92
14191,-14.678,-16.509
14203,-14.099,-18.109
14215,-13.494,-17.798
14227,-16.179,-17.472
14238,-16.944,-17.631
14250,-19.843,-17.72
14262,-18.226,-17.077
14273,-17.598,-17.594
14285,-13.831,-20.091
14297,-15.491,-19.368
14309,-17.909,-16.49
14320,-17.002,-16.643
14332,-16.366,-18.405
14344,-15.231,-17.252
14355,-15.156,-15.745
14367,-15.537,-16.462
14379,-16.516,-16.958
14391,-16.902,-17.289
14402,-18.38,-14.838
14414,-15.712,-17.337
14426,-15.775,-17.453
14438,-16.128,-18.351
14449,-16.534,-17.313
14461,-17.775,-16.79
14473,-19.115,-20.02
14484,-17.171,-18.648
14496,-15.631,-15.824
14508,-18.42,-14.692
14520,-18.424,-16.735
14531,-16.013,-14.148
14543,-16.228,-15.322
14555,-17.341,-15.15
14566,-18.457,-16.407
14578,-17.541,-17.894
14590,-18.22,-17.848
14602,-17.405,-17.98
14613,-17.187,-16.729
14625,-16.249,-15.079
14637,-15.233,-16.948
14648,-18.041,-17.779
14660,-19.175,-17.895
14672,-20.003,-15.251
14684,-15.69,-14.512
14695,-14.326,-20.756
14707,-17.207,-18.286
14719,-17.712,-17.733
14730,-17.838,-20.967
14742,-15.228,-20.282
14754,-15.778,-20.525
14766,-17.29,-18.821
14777,-16.943,-17.418
14789,-15.138,-16.116
14801,-15.74,-16.991
14813,-14.476,-19.504
14824,-17.504,-20.31
14836,-18.536,-18.98
14848,-16.428,-16.461
14859,-16.064,-15.684
14871,-18.612,-18.553
14883,-16.75,-22.049
14895,-15.959,-21.239
14906,-16.444,-18.439
14918,-16.807,-16.528
14930,-17.132,-18.627
14941,-16.775,-21.754
14953,-16.164,-18.934
14965,-16.462,-17.552
14977,-16.665,-19.477
14988,-17.346,-18.995
15000,-18.668,-16.424
15012,-18.254,-17.343
15023,-20.837,-19.122
15035,-19.812,-19.26
15047,-19.613,-19.286
15059,-17.621,-18.883
15070,-20.67,-19.061
15082,-19.984,-20.38
15094,-16.907,-19.118
15105,-18.284,-20.053
15117,-19.83,-18.492
15129,-20.234,-16.58
15141,-21.939,-21.077
15152,-19.703,-23.066
15164,-19.507,-23.108
15176,-19.478,-21.409
15188,-17.277,-20.567
15199,-17.077,-20.07
15211,-18.568,-16.898
15223,-21.226,-19.499
15234,-20.859,-22.729
15246,-20.337,-21.103
15258,-18.045,-22.568
15270,-16.282,-22.114
15281,-19.65,-19.96
15293,-16.183,-18.248
15305,-14.749,-18.479
15316,-17.343,-19.835
15328,-18.096,-19.439
15340,-16.249,-18.809
15352,-19.799,-19.208
15363,-19.298,-17.086
15375,-19.909,-20.52
15387,-19.52,-22.573
15398,-19.02,-21.971
15410,-23.263,-19.767
15422,-20.945,-18.981
15434,-18.698,-19.602
15445,-19.066,-17.749
15457,-22.981,-15.937
15469,-21.401,-17.451
15480,-22.541,-16.922
15492,-21.765,-19.341
15504,-17.565,-19.843
15516,-16.059,-20.66
15527,-16.26,-19.337
15539,-15.786,-21.229
15551,-17.604,-20.333
15563,-19.331,-19.79
15574,-17.551,-19.904
15586,-16.173,-19.817
15598,-18.129,-19.254
15609,-20.628,-20.319
15621,-16.829,-20.106
15633,-17.518,-18.421
15645,-18.843,-18.763
15656,-18.883,-22.211
15668,-14.558,-19.113
15680,-16.6,-17.586
15691,-20.459,-19.365
15703,-21.519,-20.578
15715,-20.795,-21.212
15727,-20.097,-21.537
15738,-18.092,-21.032
15750,-18.28,-23.218
15762,-20.598,-23.103
15773,-20.92,-20.527
15785,-21.073,-17.996
15797,-17.222,-21.413
15809,-15.066,-21.806
15820,-17.973,-21.252
15832,-20.555,-20.202
15844,-20.69,-20.567
15855,-22.049,-23.985
15867,-20.63,-21.344
15879,-18.135,-18.785
15891,-19.317,-21.002
15902,-20.324,-22.773
15914,-18.543,-21.77
15926,-16.538,-23.093
15938,-18.755,-20.443
15949,-19.322,-20.984
15961,-19.023,-21.593
15973,-18.683,-22.696
15984,-17.245,-21.891
15996,-13.397,-19.82
16008,-14.805,-20.17
16020,-17.367,-20.891
16031,-18.7,-18.228
16043,-19.57,-17.219
16055,-19.936,-18.089
16066,-19.271,-22.846
16078,-18.446,-24.255
16090,-17.725,-21.136
16102,-18.378,-19.593
16113,-18.185,-19.548
16125,-18.439,-18.81
16137,-18.882,-19.708
16148,-18.535,-20.898
16160,-19.071,-19.332
16172,-21.157,-19.937
16184,-19.537,-22.079
16195,-17.704,-21.917
16207,-18.707,-21.552
16219,-20.096,-18.629
16230,-19.901,-18.09
16242,-17.607,-18.777
16254,-19.603,-19.668
16266,-19.979,-19.406
16277,-19.69,-18.405
16289,-18.673,-19.921
16301,-21.154,-19.915
16313,-22.182,-21.844
16324,-20.707,-21.829
16336,-21.183,-20.902
16348,-24.249,-21.784
16359,-19.576,-20.431
16371,-20.615,-19.195
16383,-20.727,-20.72
16395,-21.358,-18.922
16406,-18.948,-17.461
16418,-16.855,-18.406
16430,-18.935,-23.678
16441,-21.179,-22.624
16453,-22.551,-23.057
16465,-23.049,-20.908
16477,-21.342,-20.714
16488,-20.118,-22.207
16500,-19.385,-21.823
16512,-22.473,-20.672
16523,-24.206,-22.034
16535,-19.997,-21.627
16547,-20.501,-21.68
16559,-21.954,-22.245
16570,-22.29,-16.687
16582,-20.193,-19.126
16594,-21.162,-24.55
16605,-23.103,-21.283
16617,-23.428,-22.404
16629,-19.332,-23.804
16641,-16.357,-22.227
16652,-19.06,-22.512
16664,-24.131,-23.939
16676,-20.172,-23.954
16688,-19.365,-22.68
16699,-21.166,-21.188
16711,-26.56,-19.995
16723,-23.829,-21.43
16734,-22.019,-22.558
16746,-20.437,-20.9
16758,-19.433,-17.69
16770,-21.213,-17.573
16781,-21.483,-22.202
16793,-20.994,-21.326
16805,-19.942,-20.557
16816,-18.441,-20.059
16828,-19.081,-21.364
16840,-21.276,-20.817
16852,-22.702,-21.441
16863,-20.34,-24.648
16875,-19.386,-23.28
16887,-19.458,-23.147
16898,-18.435,-23.835
16910,-22.133,-22.032
16922,-23.326,-20.114
16934,-21.511,-22.095
16945,-19.59,-23.498
16957,-19.586,-21.188
16969,-20.023,-21.585
16980,-16.317,-20.987
16992,-18.018,-22.961
17004,-20.323,-22.642
17016,-22.316,-23.37
17027,-21.199,-23.52
17039,-17.943,-21.509
17051,-17.67,-20.682
17063,-20.519,-19.504
17074,-20.804,-20.169
17086,-22.834,-22.052
17098,-24.917,-21.916
17109,-19.674,-23.326
17121,-20.395,-21.067
17133,-24.905,-20.264
17145,-23.767,-21.924
17156,-20.006,-24.397
17168,-18.137,-24.471
17180,-18.672,-23.586
17191,-21.229,-21.748
17203,-22.451,-21.24
17215,-19.181,-22.22
17227,-20.363,-21.262
17238,-23.121,-20.646
17250,-20.972,-20.578
17262,-21.413,-22.602
17273,-24.761,-22.62
17285,-23.188,-22.251
17297,-22.058,-25.117
17309,-21.216,-22.852
17320,-22.396,-22.595
17332,-20.052,-21.848
17344,-20.015,-22.889
17355,-19.085,-21.601
17367,-18.901,-21.667
17379,-20.646,-21.796
17391,-21.902,-20.964
17402,-22.156,-21.868
17414,-21.583,-21.021
17426,-20.722,-20.285
17438,-23.219,-21.294
17449,-25.357,-19.868
17461,-24.69,-22.091
17473,-22.306,-23.701
17484,-22.435,-23.009
17496,-21.564,-23.37
17508,-18.985,-23.351
17520,-20.46,-22.325
17531,-24.717,-23.129
17543,-27.235,-24.329
17555,-25.784,-24.057
17566,-23.677,-23.745
17578,-22.257,-22.853
17590,-21.674,-24.393
17602,-24.105,-23.952
17613,-23.979,-19.699
17625,-23.98,-18.7
17637,-24.766,-24.238
17648,-24.254,-24.9
17660,-23.749,-23.095
17672,-22.936,-22.891
17684,-24.95,-21.551
17695,-22.953,-24.126
17707,-22.962,-24.608
17719,-22.908,-24.871
17730,-22.2,-22.175
17742,-23.965,-23.53
17754,-24.142,-21.606
17766,-24.725,-20.697
17777,-22.963,-22.046
17789,-21.536,-23.305
17801,-21.819,-21.409
17813,-21.746,-22.877
17824,-23.1,-24.619
17836,-24.572,-22.63
17848,-23.781,-23.516
17859,-22.723,-23.259
17871,-20.812,-21.805
17883,-19.615,-22.911
17895,-23.993,-24.702
17906,-23.751,-23.065
17918,-23.63,-22.083
17930,-26.133,-25.265
17941,-23.28,-23.362
17953,-23.266,-22.716
17965,-23.83,-24.568
17977,-23.728,-27.579
17988,-21.692,-23.384
18000,-22.162,-20.069
18012,-22.818,-20.352
18023,-24.277,-22.021
18035,-22.004,-21.896
18047,-22.144,-21.411
18059,-26.145,-20.012
18070,-24.301,-24.833
18082,-23.318,-25.317
18094,-24.333,-27.164
18105,-25.557,-25.746
18117,-21.784,-22.645
18129,-19.254,-26.425
18141,-20.494,-25.337
18152,-24.863,-24.242
18164,-22.26,-24.816
18176,-22.143,-24.951
18188,-24.535,-23.664
18199,-20.629,-23.181
18211,-19.312,-25.928
18223,-21.058,-22.73
18234,-24.112,-21.84
18246,-22.728,-21.4
18258,-23.102,-21.251
18270,-21.467,-22.01
18281,-21.037,-21.129
18293,-20.976,-22.882
18305,-21.582,-23.548
18316,-21.296,-22.774
18328,-19.841,-21.567
18340,-22.066,-23.28
18352,-25.89,-23.21
18363,-27.325,-21.888
18375,-27.217,-20.449
18387,-23.429,-21.241
18398,-20.036,-25.229
18410,-21.168,-22.585
18422,-22.651,-24.322
18434,-22.882,-23.171
18445,-22.656,-21.181
18457,-22.287,-24.155
18469,-23.762,-23.983
18480,-26.769,-24.547
18492,-25.811,-24.736
18504,-24.513,-26.608
18516,-21.599,-25.017
18527,-22.659,-22.796
18539,-23.33,-22.238
18551,-22.44,-23.525
18563,-22.382,-24.63
18574,-25.968,-23.717
18586,-26.451,-22.129
18598,-27.023,-25.388
18609,-23.813,-23.006
18621,-22.103,-21.371
18633,-23.415,-23.925
18645,-25.911,-23.426
18656,-23.814,-26.332
18668,-22.862,-26.223
18680,-24.398,-25.677
18691,-24.368,-25.867
18703,-24.048,-25.388
18715,-20.412,-25.143
18727,-19.778,-27.973
18738,-22.244,-27.757
18750,-21.608,-23.393
18762,-23.579,-22.141
18773,-22.834,-22.585
18785,-24.417,-25.269
18797,-24.079,-26.247
18809,-26.459,-28.936
18820,-24.923,-26.782
18832,-22.846,-23.132
18844,-22.193,-23.217
18855,-24.962,-24.985
18867,-21.396,-27.943
18879,-25.8,-24.694
18891,-25.208,-23.459
18902,-27.667,-23.515
18914,-24.609,-21.243
18926,-21.035,-28.969
18938,-22.866,-23.937
18949,-26.19,-22.507
18961,-25.734,-22.267
18973,-23.483,-22.009
18984,-24.168,-23.769
18996,-26.144,-24.259
19008,-24.175,-25.396
19020,-22.609,-23.752
19031,-20.578,-24.588
19043,-22.867,-28.434
19055,-27.896,-27.787
19066,-26.329,-24.26
19078,-26.36,-24.221
19090,-24.11,-23.34
19102,-22.993,-24.063
19113,-22.642,-24.922
19125,-23.754,-23.113
19137,-23.142,-23.542
19148,-23.128,-25.01
19160,-23.582,-25.259
19172,-23.233,-23.851
19184,-25.556,-25.186
19195,-23.123,-22.521
19207,-24.541,-22.875
19219,-24.561,-22.197
19230,-23.527,-26.474
19242,-23.218,-24.621
19254,-26.164,-24.802
19266,-23.161,-24.604
19277,-21.754,-26.661
19289,-23.891,-26.606
19301,-24.431,-26.817
19313,-26.558,-26.121
19324,-24.875,-25.765
19336,-25.031,-25.198
19348,-24.163,-26.805
19359,-24.368,-27.512
19371,-24.596,-25.102
19383,-26.469,-25.187
19395,-23.712,-25.494
19406,-24.58,-27.256
19418,-24.47,-26.839
19430,-24.283,-24.73
19441,-22.926,-22.894
19453,-22.429,-25.089
19465,-21.18,-27.223
19477,-23.001,-26.564
19488,-28.448,-24.998
19500,-28.256,-24.688
19512,-26.002,-25.084
19523,-27.552,-26.092
19535,-27.672,-24.519
19547,-25.507,-26.133
19559,-23.525,-26.818
19570,-24.767,-28.232
19582,-24.816,-26.206
19594,-23.91,-25.824
19605,-25.953,-26.763
19617,-23.465,-26.449
19629,-23.831,-23.942
19641,-26.925,-25.687
19652,-24.634,-24.998
19664,-25.034,-22.15
19676,-25.14,-22.829
19688,-23.911,-26.468
19699,-23.161,-27.011
19711,-25.298,-24.294
19723,-24.287,-25.944
19734,-25.763,-25.571
19746,-24.241,-22.778
19758,-23.205,-24.064
19770,-25.86,-26.256
19781,-29.103,-25.471
19793,-26.61,-27.429
19805,-24.531,-27.26
19816,-26.599,-29.192
19828,-29.245,-25.447
19840,-24.7,-23.15
19852,-24.36,-24.437
19863,-24.799,-28.05
19875,-21.439,-29.502
19887,-21.71,-28.587
19898,-23.889,-28.402
19910,-25.077,-26.582
19922,-24.829,-25.618
19934,-24.771,-30.414
19945,-24.645,-25.299
19957,-27.658,-24.012
19969,-24.416,-25.96
19980,-25.335,-25.607
19992,-24.735,-23.847
20004,-24.448,-23.646
20016,-27.348,-26.733
20027,-26.005,-30.88
20039,-25.387,-25.73
20051,-23.027,-26.615
20063,-20.622,-27.597
20074,-22.933,-24.712
20086,-24.077,-23.974
20098,-24.057,-26.933
20109,-24.667,-24.683
20121,-24.979,-25.732
20133,-22.309,-24.282
20145,-23.094,-22.346
20156,-24.547,-23.94
20168,-24.063,-29.765
20180,-23.538,-24.367
20191,-27.519,-27.804
20203,-25.384,-26.684
20215,-26.899,-25.543
20227,-27.509,-25.966
20238,-28.825,-28.291
20250,-24.707,-24.337
20262,-26.069,-25.056
20273,-28.943,-27.562
20285,-25.321,-26.159
20297,-24.726,-25.618
20309,-24.163,-25.358
20320,-27.32,-26.734
20332,-26.355,-24.808
20344,-25.219,-25.81
20355,-24.821,-26.786
20367,-24.46,-28.67
20379,-25.253,-23.88
20391,-27.475,-23.211
20402,-27.835,-25.575
20414,-28.785,-26.073
20426,-25.242,-28.032
20438,-24.997,-26.571
20449,-25.678,-22.141
20461,-29.168,-25.062
20473,-24.912,-30.945
20484,-23.57,-28.484
20496,-26.976,-27.76
20508,-25.265,-26.373
20520,-25.901,-27.288
20531,-26.485,-28.19
20543,-23.736,-25.988
20555,-24.797,-26.222
20566,-25.828,-24.439
20578,-24.598,-23.15
20590,-24.571,-23.409
20602,-24.772,-25.856
20613,-26.073,-26.03
20625,-27.842,-26.233
20637,-27.115,-27.974
20648,-25.864,-26.225
20660,-24.646,-25.25
20672,-24.56,-25.96
20684,-26.706,-26.109
20695,-25.984,-24.871
20707,-24.369,-23.913
20719,-23.019,-26.569
20730,-23.913,-26.076
20742,-24.325,-27.765
20754,-26.108,-28.91
20766,-26.997,-28.896
20777,-26.01,-26.542
20789,-24.742,-26.93
20801,-27.267,-24.359
20813,-28.082,-23.161
20824,-26.63,-27.57
20836,-26.293,-25.801
20848,-27.956,-30.728
20859,-26.322,-27.209
20871,-26.222,-27.227
20883,-26.45,-27.563
20895,-25.989,-26.497
20906,-26.169,-27.291
20918,-26.595,-25.393
20930,-26.445,-26.152
20941,-25.152,-25.05
20953,-26.468,-24.325
20965,-25.51,-24.532
20977,-24.911,-25.187
20988,-23.62,-22.606
21000,-24.294,-25.081
21012,-25.891,-28.132
21023,-24.365,-29.377
21035,-24.452,-25.517
21047,-24.643,-27.498
21059,-26.73,-28.393
21070,-27.802,-28.449
21082,-29.981,-27.939
21094,-27.181,-26.616
21105,-27.201,-26.47
21117,-26.09,-27.347
21129,-25.866,-27.344
21141,-26.885,-26.318
21152,-25.243,-26.334
21164,-26.826,-27.337
21176,-23.849,-26.551
21188,-25.8,-29.233
21199,-29.267,-27.35
21211,-29.489,-26.272
21223,-25.018,-27.131
21234,-23.336,-25.274
21246,-26.098,-24.552
21258,-27.492,-26.913
21270,-25.762,-28.157
21281,-25.225,-26.048
21293,-26.833,-24.305
21305,-26.464,-25.251
21316,-25.624,-25.055
21328,-27.012,-25.201
21340,-28.259,-30.048
21352,-26.44,-23.857
21363,-23.242,-25.37
21375,-24.368,-29.26
21387,-29.344,-28.911
21398,-30.544,-30.155
21410,-27.646,-27.939
21422,-26.213,-25.581
21434,-25.546,-26.369
21445,-24.606,-28.423
21457,-25.173,-27.301
21469,-26.731,-27.097
21480,-27.32,-28.429
21492,-25.701,-27.69
21504,-28.118,-27.553
21516,-26.239,-27.477
21527,-22.457,-27.962
21539,-23.345,-25.92
21551,-26.739,-27.136
21563,-25.594,-30.314
21574,-28.366,-30.152
21586,-27.687,-30.528
21598,-30.424,-30.336
21609,-27.552,-27.04
21621,-24.958,-27.181
21633,-27.358,-28.879
21645,-28.138,-30.153
21656,-25.702,-26.355
21668,-22.982,-25.192
21680,-22.784,-28.435
21691,-24.461,-28.695
21703,-29.882,-28.318
21715,-25.31,-26.97
21727,-25.008,-25.645
21738,-24.427,-27.223
21750,-26.5,-26.136
21762,-25.635,-25.16
21773,-26.41,-26.734
21785,-25.338,-30.368
21797,-24.372,-29.502
21809,-23.535,-28.569
21820,-27.41,-29.486
21832,-30.901,-25.15
21844,-29.974,-25.288
21855,-26.654,-23.16
21867,-25.435,-26.693
21879,-26.164,-31.489
21891,-25.135,-27.186
21902,-26.124,-27.166
21914,-31.892,-28.273
21926,-26.453,-26.411
21938,-26.074,-23.578
21949,-28.324,-24.869
21961,-28.614,-25.495
21973,-29.001,-27.081
21984,-26.061,-31.271
21996,-26.959,-29.872
22008,-28.559,-28.277
22020,-25.923,-27.134
22031,-26.114,-28.866
22043,-26.85,-32.402
22055,-27.843,-32.219
22066,-26.487,-27.456
22078,-28.477,-26.437
22090,-31.572,-25.753
22102,-30.35,-27.292
22113,-29.901,-30.493
22125,-30.59,-28.219
22137,-27.043,-26.701
22148,-24.844,-26.763
22160,-26.022,-28.289
22172,-28.291,-27.168
22184,-26.731,-26.678
22195,-26.913,-28.387
22207,-26.065,-29.175
22219,-25.609,-27.385
22230,-26.693,-28.274
22242,-27.166,-28.613
22254,-23.148,-28.696
22266,-26.255,-30.904
22277,-30.245,-29.005
22289,-27.564,-29.532
22301,-28.822,-27.569
22313,-30.29,-27.692
22324,-27.407,-27.725
22336,-26.965,-28.925
22348,-25.896,-28.298
22359,-24.904,-31.671
22371,-24.91,-31.944
22383,-24.799,-31.928
22395,-25.319,-26.176
22406,-26.896,-26.827
22418,-24.946,-27.595
22430,-25.564,-26.133
22441,-26.398,-24.4
22453,-26.362,-27.309
22465,-29.325,-30.252
22477,-27.161,-29.458
22488,-26.53,-27.765
22500,-27.54,-25.614
22512,-27.568,-28.63
22523,-28.336,-29.089
22535,-30.612,-27.242
22547,-29.63,-26.591
22559,-27.212,-26.705
22570,-27.473,-26.891
22582,-29.777,-26.085
22594,-28.602,-26.049
22605,-28.428,-26.317
22617,-28.282,-27.474
22629,-25.163,-26.092
22641,-23.863,-26.093
22652,-23.5,-29.374
22664,-25.524,-29.46
22676,-24.788,-26.411
22688,-26.596,-28.691
22699,-27.166,-28.725
22711,-28.378,-28.516
22723,-27.575,-28.97
22734,-25.134,-30.895
22746,-25.407,-30.493
22758,-26.75,-28.803
22770,-31.248,-28.841
22781,-32.328,-26.127
22793,-31.279,-25.225
22805,-28.922,-27.162
22816,-28.723,-25.961
22828,-29.982,-27.691
22840,-27.489,-28.781
22852,-25.799,-28.316
22863,-26.12,-27.842
22875,-25.538,-27.718
22887,-27.152,-27.069
22898,-28.275,-25.293
22910,-26.541,-26.496
22922,-25.733,-29.135
22934,-25.642,-29.382
22945,-27.492,-28.608
22957,-30.42,-28.821
22969,-26.869,-28.092
22980,-27.287,-29.239
22992,-27.461,-25.679
23004,-27.474,-23.501
23016,-27.069,-26.344
23027,-29.049,-28.862
23039,-31.005,-29.629
23051,-27.838,-30.466
23063,-26.743,-27.601
23074,-26.59,-30.081
23086,-29.338,-28.91
23098,-28.312,-25.286
23109,-26.828,-26.934
23121,-28.166,-30.441
23133,-25.17,-30.001
23145,-26.521,-29.824
23156,-24.973,-29.78
23168,-26.692,-28.797
23180,-27.821,-27.191
23191,-29.335,-30.546
23203,-30.255,-30.544
23215,-27.936,-28.85
23227,-27.719,-26.902
23238,-30.652,-28.777
23250,-26.933,-28.093
23262,-25.702,-28.613
23273,-27.78,-27.798
23285,-26.797,-27.147
23297,-25.253,-28.866
23309,-24.124,-30.479
23320,-26.814,-26.215
23332,-27.229,-29.35
23344,-27.464,-28.109
23355,-23.877,-25.821
23367,-25.116,-28.261
23379,-25.799,-31.139
23391,-27.305,-28.922
23402,-26.684,-24.947
23414,-26.721,-28.083
23426,-27.249,-31.851
23438,-27.899,-29.86
23449,-29.548,-28.946
23461,-27.868,-29.154
23473,-28.499,-29.312
23484,-28.888,-29.437
23496,-29.006,-27.863
23508,-30.745,-28.711
23520,-28.008,-28.82
23531,-25.239,-30.619
23543,-25.738,-31.163
23555,-27.694,-29.506
23566,-29.982,-30.881
23578,-26.994,-27.306
23590,-26.685,-25.998
23602,-27.534,-29.211
23613,-27.768,-29.418
23625,-28.241,-26.687
23637,-27.986,-27.322
23648,-29.695,-28.798
23660,-28.885,-26.52
23672,-26.849,-25.449
23684,-28.565,-27.785
23695,-29.918,-26.221
23707,-30.604,-25.203
23719,-28.048,-28.547
23730,-27.998,-28.175
23742,-26.271,-26.788
23754,-29.092,-27.585
23766,-29.453,-28.631
23777,-29.861,-28.708
23789,-29.753,-31.682
23801,-28.519,-28.517
23813,-28.689,-26.932
23824,-29.791,-28.428
23836,-32.756,-30.356
23848,-25.643,-28.36
23859,-18.169,-27.978
23871,-18.945,-27.99
23883,-25.6,-28.573
23895,-27.277,-32.61
23906,-29.16,-29.435
23918,-28.774,-29.545
23930,-28.471,-26.473
23941,-29.969,-25.532
23953,-27.691,-27.587
23965,-28.784,-28.106
23977,-29.769,-26.269
23988,-25.293,-25.66
