FFT,Power Spectrum
Frequency[Hz],Level-L[dB],Level-R[dB]
11.719,-21.459,-25.317
23.438,-0.50311,-4.2821
35.156,-2.8197,-2.0496
46.875,1.623,1.5062
58.594,1.5456,4.8545
70.313,3.522,5.2447
82.031,8.326,5.743
93.75,13.697,8.876
105.47,12.589,9.0819
117.19,9.8606,9.2623
128.91,9.3856,7.1752
140.63,11.109,8.6242
152.34,9.7383,8.3807
164.06,4.6932,6.2068
175.78,3.1401,6.8743
187.5,8.4868,7.7524
199.22,9.4414,7.627
210.94,9.3167,7.163
222.66,8.0099,7.4185
234.38,12.746,11.844
246.09,10.874,10.25
257.81,7.3475,6.4352
269.53,9.6961,3.6455
281.25,10.42,6.6872
292.97,8.681,8.8252
304.69,7.6125,8.1685
316.41,7.7922,8.5828
328.13,8.855,8.0921
339.84,11.756,10.395
351.56,8.0817,6.8951
363.28,5.01,5.6688
375,4.7087,6.6177
386.72,5.2213,6.167
398.44,7.0179,7.0411
410.16,5.7957,6.9661
421.88,6.496,2.5903
433.59,5.1087,2.4937
445.31,5.0036,5.576
457.03,6.5093,4.9164
468.75,6.3507,5.2975
480.47,7.8806,7.5562
492.19,7.0211,7.2591
503.91,7.097,7.0773
515.63,8.4993,6.1831
527.34,8.6228,5.85
539.06,8.3688,6.703
550.78,5.0916,4.0756
562.5,5.0064,1.9589
574.22,5.7788,3.9316
585.94,6.1708,2.509
597.66,6.3538,3.2346
609.38,6.9372,6.2259
621.09,6.9263,6.6832
632.81,4.6962,4.5668
644.53,4.5263,5.0511
656.25,5.754,4.515
667.97,2.0899,3.4059
679.69,3.9438,5.5493
691.41,5.7451,4.9706
703.13,4.1057,3.954
714.84,5.5301,2.3135
726.56,6.9478,3.54
738.28,5.0982,4.1662
750,5.0684,0.67679
761.72,9.9246,9.7756
773.44,9.9627,9.006
785.16,7.1428,5.6536
796.88,12.016,7.6962
808.59,12.318,7.2822
820.31,10.937,6.7302
832.03,9.9715,8.5261
843.75,11.432,10.058
855.47,11.199,8.4085
867.19,9.7465,7.8569
878.91,9.8832,8.8252
890.63,8.0802,7.3227
902.34,8.4987,8.0822
914.06,8.9033,6.9684
925.78,2.633,3.8321
937.5,6.5489,6.6481
949.22,6.2306,7.0022
960.94,7.1787,5.6622
972.66,4.3164,3.3913
984.38,6.0387,3.2783
996.09,4.1679,4.4323
1007.8,2.176,3.3028
1019.5,6.2696,2.4395
1031.3,5.8526,5.5662
1043,4.1501,4.7587
1054.7,5.2223,6.3587
1066.4,5.1763,5.9224
1078.1,5.3331,4.245
1089.8,3.5115,3.0772
1101.6,6.823,3.6005
1113.3,7.5028,2.2826
1125,4.944,4.9962
1136.7,3.5624,3.4466
1148.4,2.8487,3.1128
1160.2,3.0085,3.9975
1171.9,7.6716,3.6303
1183.6,8.9179,5.2738
1195.3,7.0268,3.5739
1207,5.8992,5.1736
1218.8,4.258,7.9723
1230.5,5.8954,5.7752
1242.2,3.6279,2.0693
1253.9,1.3471,3.3331
1265.6,0.86536,5.3567
1277.3,1.0758,6.4658
1289.1,0.30166,6.2754
1300.8,-0.35963,3.7149
1312.5,5.295,3.665
1324.2,6.159,3.3872
1335.9,0.68151,3.421
1347.7,2.5131,5.9876
1359.4,4.5043,5.8857
1371.1,4.1625,5.5013
1382.8,3.249,6.7031
1394.5,6.0656,7.8653
1406.3,3.8155,3.3465
1418,0.81814,5.4213
1429.7,3.3806,5.0223
1441.4,1.8569,3.7058
1453.1,3.7259,2.2859
1464.8,3.3783,4.0174
1476.6,6.6104,4.7976
1488.3,7.1833,4.0792
1500,4.7445,5.2277
1511.7,6.2513,4.3037
1523.4,3.2026,4.0201
1535.2,4.3814,5.2471
1546.9,7.4017,6.1304
1558.6,6.3628,4.2043
1570.3,3.0864,3.9307
1582,0.70875,1.8004
1593.8,-1.5595,0.8371
1605.5,0.94987,0.52223
1617.2,3.1593,-1.9007
1628.9,0.12975,2.3381
1640.6,2.3771,2.2688
1652.3,2.7015,0.12715
1664.1,3.135,4.7079
1675.8,4.8276,6.2515
1687.5,3.846,6.1141
1699.2,5.0316,4.5992
1710.9,1.0451,4.1771
1722.7,2.7653,4.4641
1734.4,4.0577,4.3649
1746.1,3.4946,1.7846
1757.8,1.4584,3.7015
1769.5,3.4502,3.2101
1781.3,4.2987,2.3748
1793,4.639,2.631
1804.7,3.6857,6.0451
1816.4,5.2102,4.504
1828.1,7.2208,3.0184
1839.8,15.353,2.5438
1851.6,13.672,1.3945
1863.3,5.266,4.3893
1875,4.5254,4.2156
1886.7,4.5649,1.1596
1898.4,5.1784,2.1345
1910.2,2.7059,2.2827
1921.9,1.9837,3.9661
1933.6,2.2395,2.8776
1945.3,1.2862,1.2491
1957,1.7175,-0.13617
1968.8,0.76157,1.7404
1980.5,-0.12026,5.5606
1992.2,2.0199,4.0042
2003.9,3.6604,2.5449
2015.6,1.8186,2.7126
2027.3,2.0056,2.1026
2039.1,2.2593,0.89255
2050.8,2.9446,0.3195
2062.5,3.1286,3.5795
2074.2,2.3649,5.1584
2085.9,1.5536,2.0265
2097.7,1.3504,1.0456
2109.4,1.5781,4.5905
2121.1,3.3497,5.8144
2132.8,2.1888,5.3219
2144.5,3.9424,4.3754
2156.3,3.5244,0.55842
2168,4.7088,2.3724
2179.7,11.791,7.0562
2191.4,8.9668,4.544
2203.1,2.4399,5.0463
2214.8,2.5178,2.5694
2226.6,2.0863,4.2116
2238.3,0.74672,4.1483
2250,-0.22131,2.6974
2261.7,-0.34048,3.7314
2273.4,-1.6497,2.3029
2285.2,-1.2625,-0.074598
2296.9,-0.79595,3.5419
2308.6,-1.1133,3.0516
2320.3,0.52943,3.7742
2332,0.10654,2.969
2343.8,0.19808,3.0481
2355.5,-2.3213,3.5791
2367.2,1.3249,0.85624
2378.9,-0.50892,0.536
2390.6,-0.58665,1.1576
2402.3,-1.0937,-1.9855
2414.1,-0.72588,1.4051
2425.8,3.2142,2.9836
2437.5,4.2279,2.3093
2449.2,1.868,4.3245
2460.9,-0.31906,3.6359
2472.7,1.6173,3.4573
2484.4,2.4611,2.5684
2496.1,3.3444,0.1035
2507.8,0.69758,2.0306
2519.5,1.0278,5.1906
2531.3,-1.6865,3.9945
2543,-3.5686,-1.3076
2554.7,-1.4452,1.0042
2566.4,-0.46891,0.67268
2578.1,3.2087,-1.5043
2589.8,3.6691,-0.084266
2601.6,1.5242,1.1685
2613.3,0.46512,2.7912
2625,-1.4901,2.2036
2636.7,-0.5996,-0.13046
2648.4,-1.27,0.81547
2660.2,-0.51461,1.1665
2671.9,1.4668,-0.38081
2683.6,-0.067871,-0.73115
2695.3,-0.26058,2.1556
2707,-0.14233,1.3706
2718.8,0.58892,2.6453
2730.5,2.0172,2.0339
2742.2,1.629,1.2468
2753.9,3.6635,0.49228
2765.6,4.628,-1.4147
2777.3,1.0651,0.60377
2789.1,2.5616,3.5385
2800.8,3.3305,1.7029
2812.5,0.06822,1.2208
2824.2,2.0472,1.6252
2835.9,-1.6062,-2.1738
2847.7,-0.14985,-3.1027
2859.4,2.1752,0.29305
2871.1,0.74843,1.7132
2882.8,0.25692,2.0505
2894.5,3.0349,0.34655
2906.3,0.27702,0.89703
2918,-2.7139,-0.06807
2929.7,-1.2975,-0.23572
2941.4,-1.5103,-0.65849
2953.1,-2.1503,1.932
2964.8,-2.4073,-0.2041
2976.6,-0.48422,1.0309
2988.3,-0.40509,1.3994
3000,-1.5358,2.8
3011.7,-0.29268,3.1901
3023.4,-0.054348,2.7009
3035.2,-1.9829,0.70821
3046.9,-0.52389,-1.0555
3058.6,-1.126,-0.67112
3070.3,-0.9585,-2.3439
3082,-0.76861,-2.5682
3093.8,0.51008,-0.36901
3105.5,1.801,2.1291
3117.2,-0.42925,1.0542
3128.9,-2.1384,-1.5321
3140.6,-1.0111,-0.69998
3152.3,-4.1107,-0.038866
3164.1,0.70385,1.5309
3175.8,2.2121,0.50093
3187.5,1.3222,-6.3001
3199.2,-0.31574,-3.5786
3210.9,-2.2649,-1.9518
3222.7,-2.1505,-2.518
3234.4,0.48838,-3.7791
3246.1,0.29541,-2.483
3257.8,2.4498,-0.067699
3269.5,1.3876,-2.0086
3281.3,-0.04421,0.63173
3293,0.88465,1.624
3304.7,1.8925,0.66727
3316.4,-0.39472,0.36098
3328.1,-0.53996,-0.663
3339.8,1.9802,0.5635
3351.6,2.3492,0.2725
3363.3,-1.8196,-4.7496
3375,-2.5343,-4.6508
3386.7,-1.7175,-3.7575
3398.4,-3.6644,-1.7827
3410.2,-2.0032,0.76983
3421.9,0.35915,-1.2641
3433.6,-1.3043,-4.5787
3445.3,-3.2908,-3.3858
3457,-2.9248,-1.8829
3468.8,-3.7793,1.0133
3480.5,-2.7419,1.4332
3492.2,-1.536,2.6745
3503.9,-0.43129,0.32838
3515.6,1.3446,-0.46819
3527.3,0.045082,0.2149
3539.1,-1.6613,-0.68402
3550.8,-2.6589,-0.50262
3562.5,-2.4221,-0.6708
3574.2,-2.2895,0.11281
3585.9,-4.7748,0.63047
3597.7,-1.9706,-1.4223
3609.4,1.1873,-3.4889
3621.1,0.57208,-0.20866
3632.8,-0.28738,-0.26744
3644.5,1.6525,-1.0055
3656.3,1.0791,-0.33455
3668,-2.945,1.6859
3679.7,-2.0029,-0.73824
3691.4,-1.1606,-3.3632
3703.1,-0.029798,-3.1663
3714.8,0.18064,0.068105
3726.6,-2.5085,-0.11672
3738.3,0.19288,-2.8769
3750,0.50951,-2.5009
3761.7,0.24872,-0.74833
3773.4,-0.76797,-0.906
3785.2,-2.676,-1.0903
3796.9,0.30796,-2.5697
3808.6,-1.657,1.1316
3820.3,-0.82684,-0.99777
3832,0.047939,-5.5454
3843.8,0.83623,-3.7539
3855.5,-1.621,-2.7733
3867.2,-1.6289,0.47166
3878.9,-1.9884,-1.2174
3890.6,-6.9709,-2.7334
3902.3,-1.76,-2.5356
3914.1,-3.3952,-2.3857
3925.8,-1.7508,-3.4228
3937.5,-1.7162,-3.0822
3949.2,-4.7407,-2.1929
3960.9,-5.4754,-6.0777
3972.7,-3.3528,-2.5753
3984.4,-0.85127,-1.807
3996.1,-3.2899,-2.8169
4007.8,-5.0919,-2.5769
4019.5,-2.8837,-2.8591
4031.3,-1.3001,-0.15859
4043,-0.6794,-1.1473
4054.7,-4.1276,-2.7884
4066.4,-2.2585,-1.2187
4078.1,-2.9753,-0.57952
4089.8,-3.7336,-2.3434
4101.6,-2.9343,-3.0705
4113.3,-5.7166,-2.0909
4125,-2.5893,-1.9014
4136.7,-2.2931,-4.7616
4148.4,-2.4944,-2.0631
4160.2,-4.6022,1.0382
4171.9,-3.4189,0.21171
4183.6,-3.5145,-3.5298
4195.3,-1.4193,-4.5189
4207,-1.1372,-7.3552
4218.8,-2.541,-6.9601
4230.5,-3.0325,-5.9404
4242.2,-2.3618,-5.0921
4253.9,0.60886,-3.5743
4265.6,0.52412,-2.6549
4277.3,-1.9274,-3.8889
4289.1,1.1411,-7.0075
4300.8,-0.35865,-2.3981
4312.5,-2.9897,0.49421
4324.2,-4.5488,-0.95341
4335.9,-1.8875,-4.0636
4347.7,-0.54919,-3.1393
4359.4,-1.206,-0.48417
4371.1,-1.7964,-2.205
4382.8,-1.2496,-4.4532
4394.5,-3.9026,-2.9829
4406.3,-0.82675,-2.115
4418,-0.45872,-3.8751
4429.7,-3.0419,-4.4709
4441.4,-7.1621,-3.7538
4453.1,-1.6876,-2.6339
4464.8,-1.0985,-4.5873
4476.6,-0.56227,-3.5107
4488.3,0.12507,-2.8301
4500,-2.1335,-3.383
4511.7,-4.4035,-3.8934
4523.4,-3.2199,-3.6923
4535.2,-2.201,-7.2874
4546.9,-1.3211,0.081205
4558.6,-2.1144,0.026796
4570.3,-3.8702,-5.1433
4582,-3.5856,-5.2182
4593.8,-0.14636,-6.0726
4605.5,-2.6434,-3.1095
4617.2,-2.4908,-3.3359
4628.9,-2.6686,-3.3603
4640.6,-0.63205,-4.1392
4652.3,0.26034,-1.8472
4664.1,-1.7145,-9.0688
4675.8,-0.9573,-4.2363
4687.5,-1.0869,-3.4835
4699.2,-0.92233,-5.3278
4710.9,-0.63474,-3.5264
4722.7,-0.14778,-2.9515
4734.4,-2.8619,-5.1758
4746.1,-5.3222,-1.2811
4757.8,-3.2317,-1.6667
4769.5,-3.5087,-1.5329
4781.3,-2.0144,-3.6279
4793,1.2249,-5.3947
4804.7,-1.4109,-6.2644
4816.4,-5.1228,-2.6625
4828.1,-4.6581,-4.3347
4839.8,-4.8681,-3.2342
4851.6,-8.078,-2.957
4863.3,-7.923,-4.7144
4875,-4.5698,-6.5321
4886.7,-4.5013,-6.0264
4898.4,-4.3598,-5.6385
4910.2,-2.6839,-5.0776
4921.9,-2.7857,-5.0032
4933.6,-5.0701,-1.5398
4945.3,-2.8693,-4.5308
4957,-2.6825,-3.8729
4968.8,-3.187,-2.6302
4980.5,-1.2351,-2.9954
4992.2,-1.5428,-5.5353
5003.9,-0.53572,-6.2253
5015.6,-0.74135,-3.0923
5027.3,-1.4243,-1.6717
5039.1,-3.2329,-4.3453
5050.8,-5.4667,-7.2103
5062.5,-7.8397,-7.6579
5074.2,-2.1962,-5.9633
5085.9,-0.010771,-5.4577
5097.7,-1.2937,-5.7664
5109.4,-2.6097,-4.0457
5121.1,-3.411,-3.4412
5132.8,-4.5859,-3.6551
5144.5,-4.355,-2.8929
5156.3,-3.9313,-2.4705
5168,-3.8639,-4.3513
5179.7,-2.9799,-6.8679
5191.4,-5.8047,-2.4806
5203.1,-6.0135,-2.7096
5214.8,-3.4651,-2.2804
5226.6,-4.3535,-4.8323
5238.3,-6.1238,-6.7911
5250,-5.875,-7.6687
5261.7,-2.3658,-7.5152
5273.4,-1.9421,-7.4281
5285.2,-3.9903,-8.3362
5296.9,-6.0926,-5.9898
5308.6,-4.7973,-6.2457
5320.3,-5.088,-5.935
5332,-5.4809,-2.7414
5343.8,-3.4571,-3.7552
5355.5,-3.959,-7.2312
5367.2,-3.4998,-5.6777
5378.9,-3.5309,-5.534
5390.6,-5.9499,-6.389
5402.3,-6.964,-2.0545
5414.1,-5.0741,-3.5094
5425.8,-4.3031,-8.0102
5437.5,-3.97,-6.2472
5449.2,-1.6916,-4.6528
5460.9,-3.5853,-0.42597
5472.7,-4.4003,-3.2354
5484.4,-4.3723,-9.9584
5496.1,-3.3261,-8.9778
5507.8,-2.6813,-5.8243
5519.5,-4.9745,-6.2981
5531.3,-5.9384,-6.6465
5543,-3.7111,-7.1457
5554.7,-3.8537,-6.1109
5566.4,-5.7084,-6.6813
5578.1,-4.3715,-6.919
5589.8,-6.2561,-6.0754
5601.6,-4.9026,-6.6339
5613.3,-6.0104,-7.1809
5625,-7.4882,-4.8851
5636.7,-7.0503,-2.327
5648.4,-4.5424,-2.0584
5660.2,-4.3477,-5.8918
5671.9,-3.3415,-7.5131
5683.6,-2.2694,-7.5725
5695.3,-1.4024,-7.3431
5707,-2.8904,-4.0558
5718.8,-4.7467,-2.4001
5730.5,-7.6723,-2.5207
5742.2,-5.2974,-6.0547
5753.9,-4.8118,-8.4298
5765.6,-6.6329,-6.1544
5777.3,-4.1743,-5.0165
5789.1,-5.6437,-5.7131
5800.8,-7.5157,-5.9502
5812.5,-4.36,-8.8873
5824.2,-5.5443,-6.1353
5835.9,-7.114,-5.1445
5847.7,-7.1832,-5.6808
5859.4,-6.8176,-4.7205
5871.1,-6.7802,-4.0299
5882.8,-5.9983,-4.1993
5894.5,-6.2438,-6.479
5906.3,-4.7193,-4.2589
5918,-3.2183,-3.187
5929.7,-4.9728,-5.0777
5941.4,-5.1465,-6.268
5953.1,-6.3483,-4.6862
5964.8,-6.0436,-6.1333
5976.6,-5.7455,-5.812
5988.3,-5.9002,-6.5392
6000,-4.5331,-8.0787
6011.7,-6.5039,-6.5368
6023.4,-6.1112,-4.5187
6035.2,-6.5002,-6.1793
6046.9,-3.7541,-6.1288
6058.6,-2.9993,-6.2963
6070.3,-4.6293,-7.0211
6082,-8.137,-9.0472
6093.8,-7.5958,-5.9757
6105.5,-6.0292,-4.6183
6117.2,-6.7409,-4.2636
6128.9,-5.5847,-6.1068
6140.6,-6.2535,-6.3605
6152.3,-6.5043,-8.9651
6164.1,-7.22,-7.0965
6175.8,-5.5283,-5.8776
6187.5,-7.8098,-4.3152
6199.2,-5.7262,-1.9659
6210.9,-3.4487,-2.7904
6222.7,-4.784,-4.6155
6234.4,-7.7064,-5.2645
6246.1,-8.4319,-7.8457
6257.8,-6.8057,-4.9033
6269.5,-7.8987,-5.1058
6281.3,-6.48,-6.3949
6293,-6.0983,-8.9479
6304.7,-2.6631,-6.8571
6316.4,-3.1337,-8.3923
6328.1,-7.6644,-10.903
6339.8,-4.9276,-7.5657
6351.6,-4.8344,-6.8513
6363.3,-5.393,-5.714
6375,-6.6121,-4.0517
6386.7,-3.7829,-6.507
6398.4,-1.299,-5.712
6410.2,-2.4403,-5.8923
6421.9,-6.7433,-6.0495
6433.6,-4.5511,-4.2047
6445.3,-6.6507,-4.5274
6457,-9.6948,-7.6934
6468.8,-7.7833,-8.4471
6480.5,-4.8258,-7.8543
6492.2,-5.9412,-5.804
6503.9,-7.3775,-3.2181
6515.6,-6.2349,-3.8283
6527.3,-4.0216,-8.7422
6539.1,-2.7019,-5.2835
6550.8,-4.3374,-6.1706
6562.5,-5.2029,-6.9806
6574.2,-5.2887,-6.8402
6585.9,-4.4186,-5.1978
6597.7,-9.8964,-5.7598
6609.4,-8.3448,-7.3456
6621.1,-5.1818,-7.5143
6632.8,-5.863,-9.5006
6644.5,-9.0896,-4.5036
6656.3,-6.5545,-3.2878
6668,-5.389,-7.5685
6679.7,-5.3945,-10.538
6691.4,-4.489,-8.1871
6703.1,-4.1796,-5.8958
6714.8,-6.3902,-9.6601
6726.6,-7.4475,-8.1145
6738.3,-7.6832,-7.1119
6750,-8.8181,-7.4664
6761.7,-4.6559,-8.5025
6773.4,-8.7405,-9.4797
6785.2,-5.8737,-10.143
6796.9,-4.3384,-12.146
6808.6,-6.0077,-8.8154
6820.3,-7.6336,-4.4526
6832,-7.472,-7.8506
6843.8,-6.8963,-10.333
6855.5,-8.8125,-8.8043
6867.2,-6.3757,-9.2404
6878.9,-5.8204,-11.122
6890.6,-5.5623,-10.208
6902.3,-7.2463,-9.0936
6914.1,-5.9237,-8.3766
6925.8,-7.2406,-9.626
6937.5,-6.6417,-8.9422
6949.2,-5.6,-7.8847
6960.9,-4.7634,-5.645
6972.7,-4.4004,-5.1544
6984.4,-7.4841,-7.6149
6996.1,-10.03,-6.1574
7007.8,-7.1194,-8.9697
7019.5,-5.9472,-11.394
7031.3,-10.45,-11.124
7043,-8.7183,-6.7623
7054.7,-6.8797,-5.8363
7066.4,-7.3545,-6.0729
7078.1,-7.1373,-6.4388
7089.8,-7.2297,-9.5261
7101.6,-5.3561,-9.39
7113.3,-3.8911,-6.8718
7125,-4.6512,-6.4483
7136.7,-5.8227,-9.3995
7148.4,-6.3721,-10.741
7160.2,-7.1333,-9.8606
7171.9,-6.1729,-7.3461
7183.6,-5.2897,-6.7684
7195.3,-5.5201,-7.3485
7207,-8.5129,-6.6856
7218.8,-8.4909,-7.9503
7230.5,-7.5391,-11.239
7242.2,-4.9862,-8.5775
7253.9,-6.1598,-8.1938
7265.6,-10.859,-9.5531
7277.3,-11.266,-9.0014
7289.1,-8.9416,-7.9192
7300.8,-7.2641,-7.867
7312.5,-8.2992,-7.3827
7324.2,-9.3987,-6.5379
7335.9,-10.094,-6.4543
7347.7,-9.6489,-7.4349
7359.4,-8.4115,-8.752
7371.1,-8.1899,-8.6774
7382.8,-7.9121,-10.305
7394.5,-9.1626,-10.672
7406.3,-8.7012,-9.5632
7418,-7.1462,-10.574
7429.7,-3.7489,-10.673
7441.4,-6.0725,-7.5684
7453.1,-4.81,-5.1445
7464.8,-8.1436,-7.8949
7476.6,-8.9558,-11.636
7488.3,-7.1128,-10.166
7500,-11.408,-9.5638
7511.7,-12.767,-11.129
7523.4,-10.623,-9.702
7535.2,-7.0769,-9.8547
7546.9,-6.5618,-9.1744
7558.6,-8.8809,-9.1612
7570.3,-10.345,-8.5973
7582,-7.5473,-7.6639
7593.8,-6.2181,-11.053
7605.5,-7.846,-11.606
7617.2,-11.712,-9.3348
7628.9,-8.6308,-9.2264
7640.6,-8.1555,-5.7867
7652.3,-4.5983,-7.1226
7664.1,-3.6161,-9.9563
7675.8,-3.1595,-8.2552
7687.5,-5.7536,-10.522
7699.2,-10.61,-8.0229
7710.9,-10.163,-7.8721
7722.7,-7.0673,-8.2951
7734.4,-8.2436,-7.026
7746.1,-8.2669,-7.2163
7757.8,-9.6444,-8.8932
7769.5,-9.1063,-9.9866
7781.3,-10.028,-9.0508
7793,-9.579,-8.37
7804.7,-9.4937,-9.116
7816.4,-8.7101,-9.7238
7828.1,-7.5822,-9.7974
7839.8,-6.5498,-7.5317
7851.6,-7.9875,-8.5071
7863.3,-7.7788,-10.641
7875,-7.5271,-7.8863
7886.7,-8.024,-8.536
7898.4,-9.3806,-9.7364
7910.2,-10.746,-9.0658
7921.9,-10.574,-8.6016
7933.6,-9.6766,-7.9185
7945.3,-9.6053,-10.819
7957,-9.5315,-7.4904
7968.8,-9.2275,-9.38
7980.5,-8.7412,-9.5837
7992.2,-8.4015,-10.989
8003.9,-6.7601,-7.2844
8015.6,-8.0405,-9.1164
8027.3,-10.618,-9.9238
8039.1,-13.17,-9.3773
8050.8,-9.3586,-8.973
8062.5,-9.4817,-11.646
8074.2,-9.0801,-7.7166
8085.9,-9.1687,-6.0336
8097.7,-9.1889,-8.3791
8109.4,-9.1341,-10.55
8121.1,-9.5122,-9.6725
8132.8,-11.75,-10.946
8144.5,-10.057,-10.315
8156.3,-7.9756,-13.061
8168,-8.5804,-9.9315
8179.7,-7.5059,-7.5728
8191.4,-8.9378,-11.457
8203.1,-11.372,-8.6401
8214.8,-8.6182,-8.319
8226.6,-8.5696,-8.5621
8238.3,-7.0984,-12.081
8250,-4.8759,-12.506
8261.7,-8.1399,-10.056
8273.4,-8.1462,-8.7131
8285.2,-11.716,-10.028
8296.9,-10.412,-9.8847
8308.6,-7.5362,-10.282
8320.3,-6.3271,-9.7256
8332,-6.9112,-9.4029
8343.8,-8.9849,-11.71
8355.5,-8.4673,-6.207
8367.2,-8.2747,-6.8052
8378.9,-8.0802,-9.3642
8390.6,-10.269,-9.011
8402.3,-11.557,-11.79
8414.1,-10.434,-11.274
8425.8,-12.49,-9.5575
8437.5,-11.31,-10.024
8449.2,-9.456,-11.455
8460.9,-11.831,-9.9224
8472.7,-11.715,-8.427
8484.4,-10.817,-8.7887
8496.1,-7.8772,-8.988
8507.8,-8.0773,-9.1233
8519.5,-11.896,-10.878
8531.3,-12.26,-10.746
8543,-10.046,-12.458
8554.7,-10.079,-11.141
8566.4,-9.6869,-8.5791
8578.1,-9.6199,-6.4551
8589.8,-10.097,-8.1602
8601.6,-7.7579,-5.7859
8613.3,-6.6007,-8.3391
8625,-8.9305,-10.7
8636.7,-7.9013,-8.0703
8648.4,-8.1801,-8.7101
8660.2,-9.9709,-10.996
8671.9,-11.403,-9.8151
8683.6,-12.337,-13.652
8695.3,-11.34,-9.8732
8707,-8.7902,-11.039
8718.8,-10.082,-10.286
8730.5,-9.6527,-7.1099
8742.2,-11.262,-11.707
8753.9,-10.263,-12.822
8765.6,-10.83,-11.505
8777.3,-9.5617,-16.407
8789.1,-9.8794,-13.492
8800.8,-9.9791,-12.597
8812.5,-10.367,-10.061
8824.2,-12.668,-7.317
8835.9,-8.9004,-9.3234
8847.7,-6.787,-6.839
8859.4,-7.8855,-7.4038
8871.1,-8.292,-10.399
8882.8,-8.5233,-10.573
8894.5,-6.583,-12.862
8906.3,-10.756,-11.621
8918,-6.9809,-10.554
8929.7,-7.7949,-9.8986
8941.4,-11.915,-9.7244
8953.1,-10.283,-7.9191
8964.8,-7.3394,-8.1083
8976.6,-10.465,-10.809
8988.3,-12.423,-12.723
9000,-10.227,-8.2079
9011.7,-10.432,-8.7663
9023.4,-11.913,-9.4617
9035.2,-13.421,-8.6423
9046.9,-9.6263,-12.384
9058.6,-7.2352,-10.917
9070.3,-7.5871,-10.139
9082,-10.225,-12.827
9093.8,-10.502,-13.254
9105.5,-8.3382,-9.1886
9117.2,-7.9577,-7.5191
9128.9,-7.8522,-10.145
9140.6,-7.2784,-12.141
9152.3,-10.122,-11.233
9164.1,-9.6058,-10.058
9175.8,-8.598,-12.373
9187.5,-9.5579,-11.658
9199.2,-8.6719,-11.718
9210.9,-5.9896,-13.16
9222.7,-4.2326,-10.06
9234.4,-9.607,-11.298
9246.1,-15.403,-13.321
9257.8,-13.665,-12.935
9269.5,-11.703,-11.385
9281.3,-9.1849,-8.4236
9293,-8.7485,-7.8762
9304.7,-10.21,-9.5281
9316.4,-11.074,-13.272
9328.1,-9.2059,-12.08
9339.8,-9.4262,-11.78
9351.6,-10.741,-10.688
9363.3,-12.627,-11.826
9375,-11.041,-10.559
9386.7,-9.0152,-8.5476
9398.4,-10.011,-9.531
9410.2,-10.453,-10.239
9421.9,-12.442,-7.9341
9433.6,-12.86,-10.157
9445.3,-8.9467,-10.8
9457,-9.0822,-12.926
9468.8,-9.86,-11.873
9480.5,-11.87,-11.967
9492.2,-13.086,-11.221
9503.9,-10.018,-11.128
9515.6,-10.82,-11.309
9527.3,-9.8682,-11.187
9539.1,-13.224,-11.828
9550.8,-11.282,-13.015
9562.5,-9.4437,-13.844
9574.2,-8.5703,-12.799
9585.9,-10.648,-11.899
9597.7,-11.206,-12.108
9609.4,-10.909,-12.424
9621.1,-12.132,-10.465
9632.8,-12.565,-13.443
9644.5,-11.791,-11.583
9656.3,-12.145,-12.914
9668,-13.514,-14.041
9679.7,-12.038,-11.976
9691.4,-11.329,-10.244
9703.1,-11.842,-12.164
9714.8,-10.198,-12.25
9726.6,-7.9454,-11.374
9738.3,-6.1761,-8.8363
9750,-8.2252,-9.9355
9761.7,-12.085,-11.88
9773.4,-12.069,-11.743
9785.2,-12.465,-11.4
9796.9,-12.947,-12.3
9808.6,-12.756,-12.629
9820.3,-11.622,-13.219
9832,-10.377,-9.379
9843.8,-11.673,-11.181
9855.5,-11.619,-13.109
9867.2,-10.736,-12.915
9878.9,-11.312,-12.178
9890.6,-14.179,-14.675
9902.3,-12.951,-13.662
9914.1,-13.587,-13.735
9925.8,-13.904,-11.032
9937.5,-12.015,-10.23
9949.2,-11.272,-11.342
9960.9,-11.779,-12.048
9972.7,-12.944,-12.629
9984.4,-13.033,-9.8145
9996.1,-10.687,-9.1064
10008,-8.9969,-10.784
10020,-10.919,-10.478
10031,-9.4609,-11.248
10043,-8.7023,-14.163
10055,-8.9321,-12.117
10066,-8.593,-12.084
10078,-10.375,-11.634
10090,-9.7104,-10.308
10102,-11.953,-10.539
10113,-13.425,-11.152
10125,-12.024,-11.457
10137,-13.516,-14.3
10148,-11.375,-13.764
10160,-10.571,-13.989
10172,-10.024,-12.33
10184,-13.758,-13.06
10195,-11.665,-12.824
10207,-9.9689,-13.567
10219,-9.2411,-13.367
10230,-10.099,-11.246
10242,-13.698,-12.079
10254,-14.74,-9
10266,-13.293,-11.007
10277,-14.133,-14.338
10289,-10.359,-13.937
10301,-10.191,-12.289
10313,-12.163,-10.237
10324,-13.768,-13.686
10336,-10.992,-11.662
10348,-10.576,-9.2257
10359,-12.583,-10.923
10371,-13.053,-12.474
10383,-9.5686,-13.511
10395,-9.8168,-11.765
10406,-11.292,-13.469
10418,-11.092,-17.642
10430,-12.2,-16.297
10441,-13.873,-11.44
10453,-10.853,-9.7418
10465,-11.006,-10.712
10477,-12.538,-15.14
10488,-11.535,-13.388
10500,-13.713,-13.616
10512,-12.713,-13.525
10523,-12.087,-13.134
10535,-11.163,-12.065
10547,-11.718,-10.543
10559,-14.191,-11.011
10570,-13.859,-12.248
10582,-13.877,-14.172
10594,-10.416,-13.127
10605,-10.572,-10.911
10617,-13.929,-12.017
10629,-11.278,-12.738
10641,-11.786,-13.928
10652,-13.738,-14.019
10664,-14.522,-14.132
10676,-11.839,-14.846
10688,-12.568,-13.997
10699,-12.596,-12.401
10711,-13.862,-13.734
10723,-14.35,-14.589
10734,-13.711,-14.617
10746,-13.378,-12.05
10758,-11.778,-13.095
10770,-10.592,-13.305
10781,-12.206,-15.006
10793,-11.68,-13.47
10805,-15.978,-11.908
10816,-14.444,-12.599
10828,-12.381,-12.608
10840,-12.435,-14.628
10852,-11.621,-14.946
10863,-9.0858,-13.72
10875,-11.363,-14.475
10887,-14.805,-16.116
10898,-13.474,-15.342
10910,-13.47,-14.428
10922,-13.408,-12.605
10934,-11.318,-11.749
10945,-12.385,-16.21
10957,-14.671,-15.204
10969,-15.229,-13.448
10980,-13.044,-14.147
10992,-12.041,-15.178
11004,-14.222,-13.74
11016,-11.066,-11.559
11027,-11.329,-13.929
11039,-12.482,-10.088
11051,-13.661,-13.014
11063,-13.523,-14.917
11074,-14.225,-14.198
11086,-14.604,-16.576
11098,-12.751,-16.276
11109,-11.788,-13.65
11121,-14.242,-15.397
11133,-14.158,-14.757
11145,-11.94,-13.573
11156,-12.789,-15.018
11168,-14.425,-12.229
11180,-15.275,-10.487
11191,-10.051,-14.44
11203,-11.134,-14.934
11215,-12.025,-11.544
11227,-13.459,-12.482
11238,-11.343,-15.137
11250,-12.567,-15.752
11262,-12.299,-13.168
11273,-12.99,-13.803
11285,-11.28,-13.345
11297,-10.19,-12.477
11309,-10.328,-12.867
11320,-13.722,-16.384
11332,-14.489,-11.955
11344,-16.065,-10.801
11355,-14.616,-14.84
11367,-10.839,-19.565
11379,-10.456,-15.563
11391,-12.399,-17.532
11402,-12.138,-16.731
11414,-15.358,-12.893
11426,-16.235,-11.426
11438,-13.769,-13.445
11449,-13.371,-13.072
11461,-14.608,-14.69
11473,-12.487,-14.503
11484,-13.868,-12.363
11496,-12.349,-12.67
11508,-10.445,-14.915
11520,-9.9388,-15.998
11531,-11.349,-17.16
11543,-18.597,-17.23
11555,-11.941,-15.075
11566,-11.052,-15.15
11578,-15.583,-12.741
11590,-15.451,-11.601
11602,-13.283,-13.49
11613,-15.284,-14.877
11625,-13.695,-15.404
11637,-11.985,-15.527
11648,-10.428,-15.778
11660,-13.163,-16.648
11672,-14.191,-14.838
11684,-16.979,-13.97
11695,-14.723,-14.125
11707,-14.862,-11.466
11719,-12.685,-10.539
11730,-10.869,-15.915
11742,-9.7189,-15.224
11754,-10.091,-13.362
11766,-9.0535,-13.97
11777,-10.294,-14.179
11789,-12.492,-14.595
11801,-10.953,-15.399
11813,-10.234,-15.675
11824,-11.732,-15.668
11836,-14.705,-16.23
11848,-13.026,-15.207
11859,-13.311,-12.929
11871,-12.87,-14.636
11883,-11.078,-13.181
11895,-10.458,-13.49
11906,-12.584,-13.304
11918,-10.341,-14.066
11930,-10.074,-15.928
11941,-12.207,-17.231
11953,-12.485,-15.637
11965,-13.462,-13.192
11977,-13.492,-14.37
11988,-14.236,-14.847
12000,-10.157,-15.705
12012,-9.0011,-17.373
12023,-10.293,-15.542
12035,-11.851,-16.857
12047,-10.994,-15.581
12059,-10.378,-13.14
12070,-12.788,-12.831
12082,-14.402,-14.005
12094,-10.849,-13.943
12105,-10.711,-13.428
12117,-12.627,-14.652
12129,-14.868,-14.95
12141,-12.438,-13.94
12152,-11.901,-16.332
12164,-12.52,-18.24
12176,-13.554,-15.722
12188,-15.466,-14.806
12199,-18.151,-14.411
12211,-14.223,-18.33
12223,-10.85,-13.361
12234,-9.4953,-14.531
12246,-9.489,-14.481
12258,-11.652,-13.27
12270,-16.742,-13.007
12281,-15.074,-13.258
12293,-11.227,-13.689
12305,-10.086,-13.089
12316,-12.344,-14.015
12328,-13.408,-15.189
12340,-11.262,-15.916
12352,-12.83,-18.035
12363,-12.44,-19.814
12375,-11.361,-16.071
12387,-10.006,-15.126
12398,-9.6144,-13.673
12410,-13.431,-11.841
12422,-13.88,-13.981
12434,-13.408,-16.901
12445,-11.934,-13.592
12457,-12.24,-14.647
12469,-9.7653,-14.464
12480,-12.765,-15.521
12492,-11.696,-17.129
12504,-14.115,-16.67
12516,-11.889,-15.404
12527,-11.189,-14.229
12539,-10.361,-15.448
12551,-11.021,-14.134
12563,-13.667,-12.855
12574,-13.316,-15.325
12586,-13.867,-16.706
12598,-15.02,-17.731
12609,-13.682,-15.279
12621,-12.658,-13.931
12633,-14.402,-15.712
12645,-14.545,-16.778
12656,-14.714,-13.762
12668,-14.077,-13.562
12680,-14.731,-14.709
12691,-14.882,-15.35
12703,-15.784,-15.662
12715,-15.268,-12.355
12727,-12.817,-13.743
12738,-13.722,-13.527
12750,-13.378,-12.021
12762,-14.161,-13.837
12773,-13.62,-15.675
12785,-17.519,-15.304
12797,-11.86,-16.142
12809,-14.095,-15.086
12820,-14.104,-14.375
12832,-13.713,-14.037
12844,-14.297,-15.592
12855,-12.741,-17.287
12867,-13.11,-18.183
12879,-11.68,-17.212
12891,-6.3434,-14.173
12902,3.5602,-14.316
12914,4.4751,-14.281
12926,-4.4033,-14.886
12938,-13.904,-12.631
12949,-15.061,-11.773
12961,-13.194,-13.254
12973,-14.66,-16.35
12984,-13.53,-16.273
12996,-11.423,-14.204
13008,-10.896,-14.109
13020,-10.54,-15.303
13031,-11.619,-16.021
13043,-12.501,-15.772
13055,-12.359,-15.575
13066,-10.499,-17.088
13078,-12.751,-18.569
13090,-13.516,-13.983
13102,-14.371,-13.469
13113,-12.97,-16.792
13125,-13.272,-18.488
13137,-14.155,-16.42
13148,-15.072,-13.385
13160,-17.615,-13.812
13172,-12.619,-14.43
13184,-13.758,-15.78
13195,-14.494,-15.998
13207,-13.937,-14.808
13219,-13.595,-15.84
13230,-17.225,-14.926
13242,-16.389,-15.182
13254,-14.764,-14.565
13266,-12.181,-16.128
13277,-13.766,-17.723
13289,-13.256,-16.913
13301,-14.115,-19.274
13313,-15.237,-19.102
13324,-15.091,-15.959
13336,-13.597,-16.29
13348,-15.467,-16.751
13359,-17.994,-17.208
13371,-15.619,-17.133
13383,-12.765,-15.452
13395,-10.987,-16.97
13406,-11.671,-13.006
13418,-12.426,-14.118
13430,-15.95,-15.616
13441,-13.916,-17.531
13453,-12.033,-16.592
13465,-14.106,-13.813
13477,-14.209,-16.28
13488,-14.482,-14.689
13500,-16.804,-14.243
13512,-15.295,-11.871
13523,-14.24,-13.388
13535,-15.065,-18.599
13547,-13.516,-17.052
13559,-13.65,-17.738
13570,-13.124,-16.7
13582,-10.934,-17.589
13594,-12.269,-20.241
13605,-14.582,-16.863
13617,-16.26,-14.479
13629,-10.771,-13.589
13641,-11.866,-18.074
13652,-15.557,-16.051
13664,-13.808,-16.37
13676,-14.149,-17.195
13688,-16.147,-18.393
13699,-14.138,-17.755
13711,-14.599,-16.015
13723,-15.139,-14.828
13734,-16.448,-16.186
13746,-17.343,-16.441
13758,-16.825,-18.177
13770,-12.384,-18.093
13781,-11.749,-15.97
13793,-13.424,-15.992
13805,-13.388,-14.457
13816,-14.28,-16.674
13828,-15.209,-16.814
13840,-16.395,-17.808
13852,-18.552,-19.132
13863,-16.603,-18.285
13875,-18.539,-13.79
13887,-17.882,-16.311
13898,-17.81,-17.875
13910,-11.85,-15.527
13922,-12.628,-14.241
13934,-11.586,-16.007
13945,-11.174,-16.473
13957,-13.668,-16.954
13969,-15.843,-18.68
13980,-13.904,-17.058
13992,-12.748,-16.417
14004,-15.945,-16.48
14016,-16.004,-17.297
14027,-15.318,-16.286
14039,-16.653,-15.41
14051,-17.953,-14.95
14063,-15.718,-14.656
14074,-12.82,-18.533
14086,-15.611,-19.716
14098,-15.216,-19.074
14109,-16.775,-18.951
14121,-15.884,-16.664
14133,-14.316,-16.971
14145,-14.844,-18.384
14156,-15.003,-19.893
14168,-14.554,-16.872
14180,-15.685,-19.091
14191,-14.538,-19.165
14203,-16.769,-18.051
14215,-17.885,-18.461
14227,-15.847,-17.38
14238,-16.499,-18.352
14250,-18.153,-18.314
14262,-17.145,-20.079
14273,-16.002,-21.653
14285,-14.897,-18.371
14297,-13.758,-19.048
14309,-15.343,-18.824
14320,-19.018,-17.899
14332,-20.241,-14.973
14344,-17.101,-15.291
14355,-17.528,-17.352
14367,-17.938,-16.654
14379,-14.464,-15.456
14391,-15.34,-15.465
14402,-14.52,-15.253
14414,-13.765,-17.147
14426,-17.617,-19.379
14438,-17.237,-18.121
14449,-14.12,-17.832
14461,-15.909,-17.622
14473,-19.151,-16.154
14484,-15.457,-15.405
14496,-17.021,-17.201
14508,-20.111,-19.607
14520,-16.838,-18.259
14531,-14.374,-16.845
14543,-16.464,-18.116
14555,-17.361,-18.119
14566,-18.866,-19.189
14578,-18.702,-17.8
14590,-15.78,-17.286
14602,-17.041,-19.698
14613,-20.212,-15.062
14625,-22.924,-14.218
14637,-20.818,-15.625
14648,-16.202,-16.388
14660,-14.495,-16.349
14672,-14.246,-16.758
14684,-19.112,-14.195
14695,-18.319,-16.083
14707,-14.98,-15.169
14719,-14.401,-15.671
14730,-15.172,-16.691
14742,-17.881,-19.946
14754,-16.84,-19.707
14766,-17.795,-21.396
14777,-18.084,-17.551
14789,-17.972,-16.421
14801,-16.497,-18.112
14813,-17.458,-19.876
14824,-15.985,-18.946
14836,-17.163,-17.278
14848,-19.092,-18.209
14859,-20.422,-18.686
14871,-21.304,-19.219
14883,-17.703,-18.286
14895,-16.179,-19.322
14906,-15.896,-16.642
14918,-20.912,-15.499
14930,-20.989,-20.833
14941,-17.687,-18.842
14953,-16.302,-21.343
14965,-16.079,-18.355
14977,-18.187,-18.065
14988,-18.187,-16.527
15000,-18.124,-15.905
15012,-23.582,-19.553
15023,-21.545,-18.137
15035,-20.084,-15.896
15047,-18.888,-16.404
15059,-16.047,-19.65
15070,-14.64,-20.688
15082,-14.613,-19.264
15094,-18.002,-17.431
15105,-20.06,-15.188
15117,-17.49,-15.023
15129,-17.877,-18.148
15141,-16.923,-19.888
15152,-16.769,-18.512
15164,-16.022,-19.304
15176,-16.922,-21.687
15188,-18.645,-25.608
15199,-19.99,-19.745
15211,-19.486,-17.927
15223,-17.453,-19.353
15234,-15.903,-17.954
15246,-17.569,-21.731
15258,-18.154,-17.437
15270,-15.789,-18.209
15281,-15.914,-16.663
15293,-17.065,-17.012
15305,-17.702,-16.353
15316,-17.011,-17.34
15328,-19.702,-18.93
15340,-18.445,-18.577
15352,-17.498,-18.744
15363,-19.847,-19.587
15375,-20.321,-19.526
15387,-20.985,-21.125
15398,-19.802,-18.849
15410,-17.893,-18.744
15422,-17.586,-18.331
15434,-19.551,-19.019
15445,-20.146,-19.673
15457,-19.553,-18.82
15469,-17.728,-21.316
15480,-15.423,-22.174
15492,-15.553,-19.406
15504,-17.301,-15.69
15516,-18.755,-20.331
15527,-20.198,-19.897
15539,-20.545,-20.033
15551,-19.353,-20.992
15563,-21.085,-16.952
15574,-19.111,-19.339
15586,-17.436,-18.8
15598,-19.534,-18.281
15609,-18.066,-15.595
15621,-17.863,-17.226
15633,-19.393,-18.451
15645,-18.446,-17.627
15656,-18.676,-21.791
15668,-18.042,-21.778
15680,-18.369,-20.099
15691,-17.917,-18.72
15703,-19.366,-18.213
15715,-21.611,-18.84
15727,-16.016,-21.271
15738,-15.831,-19.695
15750,-18.204,-19.039
15762,-21.208,-19.706
15773,-21.158,-20.016
15785,-19.128,-23.219
15797,-17.111,-25.157
15809,-17.481,-21.739
15820,-17.204,-19.387
15832,-20.117,-20.751
15844,-19.106,-19.145
15855,-18.653,-19.371
15867,-18.655,-22.065
15879,-16.699,-20.179
15891,-16.688,-21.266
15902,-18.839,-18.92
15914,-16.844,-19.173
15926,-16.312,-20.229
15938,-16.091,-21.23
15949,-16.214,-19.294
15961,-16.888,-20.957
15973,-17.453,-20.007
15984,-17.643,-16.99
15996,-16.678,-17.493
16008,-17.357,-18.848
16020,-19.454,-19.989
16031,-20.37,-22.955
16043,-20.851,-19.857
16055,-20.252,-20.906
16066,-17.732,-19.361
16078,-17.504,-19.147
16090,-19.574,-21.177
16102,-17.164,-20.32
16113,-19.256,-18.515
16125,-20.013,-21.121
16137,-19.565,-19.716
16148,-22.313,-17.558
16160,-19.791,-18.576
16172,-19.07,-22.361
16184,-20.918,-21.633
16195,-17.917,-21.929
16207,-17.564,-17.552
16219,-17.457,-17.098
16230,-20.069,-22.06
16242,-23.168,-21.409
16254,-23.673,-17.912
16266,-21.998,-17.435
16277,-21.543,-22.304
16289,-21.82,-22.032
16301,-21.195,-21.392
16313,-22.717,-19.088
16324,-19.778,-19.396
16336,-19.627,-19.754
16348,-21.654,-18.822
16359,-21.966,-20.043
16371,-19.512,-18.928
16383,-20.312,-19.771
16395,-21.628,-21.495
16406,-19.147,-21.308
16418,-19.711,-22.31
16430,-21.527,-21.606
16441,-21.195,-19.45
16453,-21.425,-21.789
16465,-21.817,-18.83
16477,-22.727,-19.168
16488,-21.986,-22.423
16500,-21.281,-23.417
16512,-20.18,-20.932
16523,-18.621,-18.359
16535,-21.892,-22.747
16547,-20.023,-22.462
16559,-19.352,-18.288
16570,-19.554,-19.988
16582,-21.841,-19.916
16594,-18.416,-22.347
16605,-19.461,-21.052
16617,-24.007,-23.702
16629,-22.421,-23.39
16641,-19.658,-21.107
16652,-20.727,-20.875
16664,-22.547,-21.295
16676,-23.593,-18.672
16688,-19.675,-16.996
16699,-19.237,-18.793
16711,-22.301,-21.43
16723,-21.01,-21.238
16734,-20.385,-21.579
16746,-20.237,-20.242
16758,-20.154,-18.904
16770,-22.572,-19.805
16781,-23.282,-19.885
16793,-22.14,-24.049
16805,-20.8,-21.618
16816,-19.82,-21.817
16828,-20.108,-23.272
16840,-22.937,-21.284
16852,-20.018,-20.883
16863,-18.971,-23.217
16875,-19.199,-19.005
16887,-23.053,-21.884
16898,-24.653,-25.923
16910,-22.092,-20.489
16922,-22.548,-19.403
16934,-21.643,-20.036
16945,-21,-18.084
16957,-21.492,-19.568
16969,-23.235,-23.498
16980,-26.016,-22.316
16992,-24.569,-19.382
17004,-22.182,-19.872
17016,-20.525,-19.669
17027,-22.181,-23.89
17039,-23.195,-20.4
17051,-24.874,-19.796
17063,-23.214,-23.582
17074,-21.718,-23.604
17086,-20.632,-23.405
17098,-23.844,-22.907
17109,-25.637,-19.995
17121,-21.668,-19.798
17133,-17.88,-21.903
17145,-17.255,-22.381
17156,-18.487,-23.319
17168,-19.371,-26.964
17180,-19.956,-24.178
17191,-20.506,-22.557
17203,-25.716,-21.711
17215,-22.884,-22.354
17227,-20.72,-27.535
17238,-20.984,-23.552
17250,-21.248,-22.549
17262,-19.049,-23.644
17273,-21.255,-22.67
17285,-21.062,-20.543
17297,-18.643,-21.136
17309,-20.975,-21.178
17320,-22.73,-21.27
17332,-19.398,-23.734
17344,-17.785,-22.861
17355,-18.948,-25.034
17367,-22.652,-24.517
17379,-25.613,-21.606
17391,-21.675,-19.052
17402,-19.023,-20.567
17414,-23.123,-22.778
17426,-25.045,-23.797
17438,-24.685,-24.524
17449,-21.904,-23.49
17461,-21.38,-24.01
17473,-20.824,-21.729
17484,-24.991,-20.083
17496,-22.049,-20.603
17508,-20.889,-21.267
17520,-20.707,-23.444
17531,-21.689,-20.841
17543,-27.459,-21.258
17555,-22.853,-26.004
17566,-22.149,-22.413
17578,-23.554,-22.59
17590,-25.328,-24.829
17602,-22.899,-21.893
17613,-21.992,-21.463
17625,-22.534,-25.181
17637,-22.453,-23.89
17648,-22.386,-21.202
17660,-21.196,-22.489
17672,-19.814,-25.093
17684,-21.744,-24.342
17695,-20.495,-23.733
17707,-20.792,-23.615
17719,-25.101,-24.854
17730,-24.674,-22.584
17742,-21.657,-22.476
17754,-22.088,-25.143
17766,-22.846,-23.604
17777,-23.461,-25.114
17789,-23.804,-23.494
17801,-24.448,-23.079
17813,-24.423,-21.704
17824,-23.372,-21.967
17836,-22.951,-23.437
17848,-22.69,-22.926
17859,-22.075,-20.954
17871,-23.148,-21.585
17883,-22.722,-22.732
17895,-21.514,-22.988
17906,-20.421,-22.072
17918,-22.653,-22.998
17930,-24.859,-24.358
17941,-21.524,-25.733
17953,-18.789,-25.51
17965,-18.6,-24.558
17977,-22.286,-22.718
17988,-22.947,-22.689
18000,-22.647,-24.141
18012,-26.45,-24.028
18023,-23.912,-25.534
18035,-25.175,-23.017
18047,-26.302,-21.597
18059,-25.802,-21.699
18070,-23.57,-23.772
18082,-23.197,-24.871
18094,-24.212,-22.272
18105,-25.747,-22.192
18117,-22.075,-22.575
18129,-21.406,-20.446
18141,-22.256,-21.294
18152,-26.466,-20.976
18164,-24.086,-20.603
18176,-22.637,-19.023
18188,-22.026,-20.297
18199,-22.153,-22.511
18211,-24.365,-24.792
18223,-21.219,-24.454
18234,-20.576,-24.879
18246,-23.511,-22.868
18258,-23.773,-22.561
18270,-24.986,-20.399
18281,-24.097,-22.487
18293,-22.374,-23.736
18305,-23.556,-21.723
18316,-24.554,-25.552
18328,-23.089,-27.509
18340,-20.619,-24.429
18352,-23.673,-24.091
18363,-24.912,-23.668
18375,-25.012,-21.123
18387,-24.466,-22.316
18398,-24.861,-24.836
18410,-23.797,-23.427
18422,-24.155,-20.87
18434,-25.515,-22.617
18445,-26.912,-24.501
18457,-26.227,-26.131
18469,-25.252,-24.551
18480,-23.806,-23.448
18492,-21.57,-22.403
18504,-23.624,-23.694
18516,-25.42,-26.427
18527,-21.314,-26.958
18539,-20.885,-25.1
18551,-21.409,-23.256
18563,-21.815,-22.934
18574,-23.857,-28.333
18586,-22.974,-27.109
18598,-22.84,-24.33
18609,-25.054,-22.261
18621,-23.127,-22.05
18633,-24.814,-22.692
18645,-21.416,-23.851
18656,-20.705,-22.969
18668,-19.869,-22.568
18680,-21.132,-23.236
18691,-24.317,-22.545
18703,-23.009,-23.37
18715,-22.533,-22.483
18727,-23.561,-22.231
18738,-24.819,-22.756
18750,-26.981,-24.788
18762,-26.234,-25.111
18773,-24.709,-23.748
18785,-24.417,-22.119
18797,-23.512,-24.298
18809,-22.593,-24.662
18820,-23.421,-23.479
18832,-24.894,-25.245
18844,-23.424,-22.209
18855,-22.918,-23.582
18867,-21.225,-24.885
18879,-22.267,-27.426
18891,-24.354,-26.56
18902,-25.372,-22.185
18914,-24.173,-23.606
18926,-25.128,-25.301
18938,-22.333,-25.183
18949,-25.985,-23.665
18961,-23.322,-22.113
18973,-21.683,-24.253
18984,-20.101,-24.993
18996,-21.288,-18.803
19008,-24.48,-20.234
19020,-26.001,-24.453
19031,-26.684,-26.105
19043,-24.377,-26.183
19055,-26.221,-24.692
19066,-25.872,-23.765
19078,-23.689,-23.036
19090,-24.967,-25.662
19102,-25.357,-24.297
19113,-25.27,-24.409
19125,-20.833,-25.029
19137,-19.757,-25.037
19148,-23.431,-25.796
19160,-22.498,-25.711
19172,-22.072,-26.294
19184,-25.446,-26.28
19195,-26.276,-24.539
19207,-25.55,-23.385
19219,-25.636,-26.475
19230,-26.416,-25.882
19242,-26.393,-29.535
19254,-23.43,-26.567
19266,-23.913,-24.415
19277,-27.361,-25.138
19289,-28.138,-25.396
19301,-25.774,-23.293
19313,-24.841,-22.833
19324,-24.061,-25.026
19336,-23.606,-25.245
19348,-25.214,-23.965
19359,-25.714,-24.278
19371,-24.64,-22.252
19383,-22.692,-22.787
19395,-24.678,-26.423
19406,-22.084,-23.791
19418,-23.964,-24.21
19430,-24.406,-23.147
19441,-24.134,-24.617
19453,-24.86,-25.423
19465,-21.939,-26.228
19477,-23.741,-24.928
19488,-24.604,-25.704
19500,-23.209,-26.513
19512,-22.914,-22.389
19523,-24.167,-22.833
19535,-23.933,-27.418
19547,-24.159,-29.444
19559,-23.243,-25.717
19570,-23.172,-24.211
19582,-26.504,-23.452
19594,-27.471,-25.514
19605,-25.278,-24.881
19617,-24.334,-24.281
19629,-24.337,-25.779
19641,-22.643,-24.913
19652,-25.051,-22.68
19664,-25.867,-24.226
19676,-23.798,-27.527
19688,-20.152,-27.891
19699,-23.177,-23.12
19711,-23.257,-25.065
19723,-24.742,-24.043
19734,-25.049,-22.019
19746,-24.496,-25.558
19758,-25.028,-28.917
19770,-28.049,-25.704
19781,-26.603,-24.731
19793,-24.631,-24.663
19805,-24.185,-25.958
19816,-22.543,-22.509
19828,-20.606,-24.128
19840,-18.914,-27.104
19852,-22.182,-20.417
19863,-24.865,-21.643
19875,-23.991,-26.638
19887,-26.037,-28.301
19898,-24.513,-28.305
19910,-23.434,-27.002
19922,-22.106,-26.484
19934,-24.839,-23.722
19945,-29.318,-23.019
19957,-28.039,-26.222
19969,-27.136,-25.594
19980,-26.218,-24.955
19992,-25.536,-24.175
20004,-24.301,-23.248
20016,-26.62,-25.551
20027,-27.476,-27.181
20039,-28.625,-28.683
20051,-27.931,-27.798
20063,-24.461,-25.166
20074,-23.235,-26.626
20086,-24.797,-28.963
20098,-26.372,-25.884
20109,-21.268,-26.825
20121,-22.432,-26.54
20133,-26.021,-24.096
20145,-29.258,-24.271
20156,-28.618,-24.202
20168,-25.432,-26.44
20180,-28.082,-22.804
20191,-27.759,-20.701
20203,-29.078,-23.756
20215,-26.237,-24.084
20227,-23.384,-23.448
20238,-24.262,-26.144
20250,-28.782,-27.71
20262,-27.617,-28.766
20273,-26.027,-24.854
20285,-27.955,-23.205
20297,-26.613,-23.783
20309,-25.794,-25.816
20320,-26.02,-26.217
20332,-24.443,-25.013
20344,-27.337,-23.923
20355,-26.201,-25.53
20367,-26.522,-28.511
20379,-26.037,-26.23
20391,-28.824,-24.566
20402,-28.502,-27.094
20414,-26.13,-27.426
20426,-24.574,-26.533
20438,-24.827,-26.607
20449,-23.883,-25.145
20461,-27.167,-26.804
20473,-27.525,-27.238
20484,-28.088,-26.642
20496,-26.731,-26.56
20508,-26.595,-24.148
20520,-23.382,-22.929
20531,-22.918,-24.819
20543,-24.043,-27.364
20555,-24.795,-27.877
20566,-25.165,-26.233
20578,-26.562,-26.43
20590,-27.118,-28.936
20602,-26.134,-28.719
20613,-27.573,-25.798
20625,-28.462,-27.483
20637,-23.447,-26.351
20648,-23.995,-27.134
20660,-25.874,-26.674
20672,-23.331,-25.28
20684,-23.432,-27.044
20695,-25.152,-27.863
20707,-27.617,-27.075
20719,-27.276,-27.985
20730,-30.938,-25.739
20742,-28.203,-24.475
20754,-27.316,-25.41
20766,-29.131,-26.424
20777,-24.458,-25.645
20789,-25.275,-24.476
20801,-25.681,-23.641
20813,-25.76,-24.288
20824,-25.881,-24.186
20836,-27.991,-26.99
20848,-26.761,-29.169
20859,-27.218,-29.31
20871,-25.703,-30.512
20883,-24.411,-30.623
20895,-24.957,-31.574
20906,-28.511,-30.735
20918,-27.915,-26.147
20930,-25.902,-22.779
20941,-27.497,-24.656
20953,-28.391,-26.193
20965,-26.934,-23.825
20977,-25.798,-25.982
20988,-26.116,-28.083
21000,-24.766,-26.539
21012,-25.865,-27.582
21023,-28.08,-26.826
21035,-24.77,-26.282
21047,-24.663,-22.83
21059,-27.4,-22.037
21070,-29.699,-23.993
21082,-26.721,-27.494
21094,-25.982,-26.065
21105,-28.24,-24.87
21117,-26.548,-26.639
21129,-25.663,-29.849
21141,-28.697,-26.824
21152,-26.479,-26.422
21164,-25.332,-26.625
21176,-25.704,-27.835
21188,-29.612,-27.299
21199,-26.123,-24.491
21211,-25.406,-26.123
21223,-26.207,-27.791
21234,-27.665,-25.906
21246,-25.573,-27.841
21258,-23.284,-26.626
21270,-25.172,-26.617
21281,-24.762,-27.584
21293,-25.972,-29.68
21305,-25.172,-29.283
21316,-24.931,-27.274
21328,-28.763,-26.912
21340,-27.628,-26.514
21352,-26.937,-26.734
21363,-26.111,-26.579
21375,-23.793,-28.064
21387,-24.26,-27.487
21398,-24.697,-27.091
21410,-23.792,-25.61
21422,-25.738,-25.922
21434,-28,-29.871
21445,-27.922,-28.839
21457,-27.927,-26.318
21469,-24.956,-28.279
21480,-24.31,-27.152
21492,-22.408,-27.316
21504,-23.747,-25.92
21516,-24.764,-27.716
21527,-22.984,-29.141
21539,-24.626,-29.74
21551,-26.769,-29.525
21563,-27.197,-29.698
21574,-28.687,-26.567
21586,-27.774,-26.24
21598,-26.124,-25.859
21609,-25.873,-26.86
21621,-26.942,-25.307
21633,-29.477,-28.643
21645,-26.966,-26.339
21656,-25.887,-24.695
21668,-26.766,-24.321
21680,-26.973,-24.957
21691,-23.123,-25.571
21703,-23.266,-27.331
21715,-24.823,-25.038
21727,-24.686,-26.676
21738,-29.808,-29.433
21750,-30.343,-27.616
21762,-29.619,-27.544
21773,-24.362,-27.261
21785,-26.73,-27.802
21797,-28.534,-27.135
21809,-29.15,-26.334
21820,-26.953,-28.481
21832,-24.825,-26.893
21844,-25.851,-25.006
21855,-27.638,-24.345
21867,-26.282,-25.489
21879,-25.919,-27.237
21891,-28.403,-27.792
21902,-27.002,-27.041
21914,-26.942,-27.327
21926,-28.271,-27.588
21938,-25.844,-29.861
21949,-24.907,-28.312
21961,-28.27,-26.791
21973,-25.871,-26.056
21984,-27.731,-25.201
21996,-25.957,-22.058
22008,-26.243,-23.069
22020,-26.101,-28.818
22031,-24.731,-26.608
22043,-23.69,-26.838
22055,-24.176,-30.099
22066,-27.457,-27.067
22078,-29.32,-26.133
22090,-28.008,-27.393
22102,-24.368,-26.591
22113,-21.461,-26.126
22125,-24.517,-27.499
22137,-25.456,-27.129
22148,-25.766,-30.871
22160,-25.84,-27.042
22172,-27.676,-24.37
22184,-27.607,-25.474
22195,-27.933,-25.244
22207,-25.914,-27.054
22219,-25.354,-23.985
22230,-23.545,-27.458
22242,-24.04,-28.881
22254,-26.166,-25.554
22266,-26.785,-25.877
22277,-26.467,-29.486
22289,-25.439,-27.337
22301,-23.706,-28.788
22313,-22.685,-28.839
22324,-23.262,-24.681
22336,-25.35,-27.539
22348,-27.566,-26.747
22359,-27.597,-26.632
22371,-26.359,-30.035
22383,-27.044,-28.241
22395,-28.201,-29.04
22406,-26.271,-26.815
22418,-26.695,-28.842
22430,-27.814,-26.837
22441,-27.08,-28.912
22453,-27.045,-29.275
22465,-28.358,-27.526
22477,-27.349,-26.771
22488,-23.499,-28.284
22500,-23.236,-26.52
22512,-27.983,-27.967
22523,-27.849,-29.894
22535,-27.684,-30.642
22547,-30.088,-27.42
22559,-29.274,-25.588
22570,-26.405,-28.722
22582,-26.56,-29.464
22594,-26.902,-27.107
22605,-26.202,-27.063
22617,-27.667,-28.063
22629,-27.241,-26.454
22641,-27.954,-24.705
22652,-26.785,-24.679
22664,-27.385,-28.584
22676,-25.529,-33.161
22688,-27.342,-28.255
22699,-29.08,-27.377
22711,-26.154,-28.529
22723,-28.205,-28.987
22734,-28.799,-27.209
22746,-28.394,-26.134
22758,-26.2,-26.325
22770,-26.752,-26.981
22781,-28.077,-29.009
22793,-29.702,-29.891
22805,-28.424,-27.9
22816,-25.47,-27.403
22828,-25.668,-29.731
22840,-26.67,-31.197
22852,-27.498,-28.754
22863,-27.516,-28.875
22875,-27.242,-28.497
22887,-26.645,-32.671
22898,-28.89,-32.733
22910,-31.009,-28.962
22922,-30.388,-26.551
22934,-30.042,-28.101
22945,-26.637,-30.636
22957,-27.485,-28.71
22969,-29.381,-27.153
22980,-27.032,-27.471
22992,-30.324,-26.87
23004,-27.91,-28.964
23016,-24.49,-31.082
23027,-24.203,-27.433
23039,-27.797,-25.515
23051,-27.578,-26.286
23063,-25.846,-25.153
23074,-25.458,-28.21
23086,-29.12,-30.295
23098,-27.54,-31.901
23109,-28.339,-27.396
23121,-27.351,-26.645
23133,-26.775,-28.358
23145,-28.041,-28.017
23156,-28.04,-27.455
23168,-27.84,-28.571
23180,-25.49,-29.561
23191,-26.421,-29.516
23203,-27.849,-30.516
23215,-30.134,-30.31
23227,-29.111,-29.235
23238,-27.784,-29.68
23250,-27.421,-29.341
23262,-29.238,-27.627
23273,-28.448,-26.277
23285,-26.573,-27.215
23297,-27.822,-30.88
23309,-29.901,-27.985
23320,-31.434,-28.073
23332,-28.317,-30.418
23344,-27.581,-31.15
23355,-27.967,-29.924
23367,-28.053,-27.224
23379,-30.031,-25.398
23391,-30.498,-26.97
23402,-30.803,-27.395
23414,-28.933,-29.436
23426,-29.618,-29.352
23438,-29.201,-30.76
23449,-27.185,-30.646
23461,-27.106,-31.78
23473,-29.233,-30.375
23484,-26.389,-27.985
23496,-29.249,-28.329
23508,-28.009,-29.905
23520,-29.203,-30.681
23531,-30.644,-29.678
23543,-28.436,-30.89
23555,-26.632,-30.737
23566,-25.919,-29.078
23578,-26.777,-28.144
23590,-29.208,-28.706
23602,-31.46,-28.93
23613,-29.833,-28.74
23625,-29.475,-30.804
23637,-26.276,-32.764
23648,-26.029,-29.794
23660,-27.522,-28.355
23672,-27.83,-27.035
23684,-28.968,-29.237
23695,-26.774,-30.233
23707,-29.473,-28.92
23719,-30.21,-30.977
23730,-27.078,-29.444
23742,-27.171,-27.277
23754,-28.202,-31.139
23766,-30.431,-29.999
23777,-31.64,-27.479
23789,-27.764,-28.167
23801,-26.946,-30.45
23813,-30.805,-29.231
23824,-32.274,-25.906
23836,-30.172,-26.578
23848,-29.906,-28.421
23859,-29.946,-29.05
23871,-29.322,-29.066
23883,-28.243,-30.42
23895,-28.511,-31.402
23906,-28.129,-30.408
23918,-28.299,-31.865
23930,-31.21,-29.446
23941,-25.988,-27.69
23953,-15.502,-27.491
23965,-15.298,-27.619
23977,-22.368,-26.446
23988,-24.696,-26.249
