FFT,Power Spectrum
Frequency[Hz],Level-L[dB],Level-R[dB]
11.719,-17.921,-21.071
23.438,2.0735,-0.86815
35.156,0.091192,-1.3768
46.875,1.0312,3.4253
58.594,2.2269,3.9868
70.313,4.7091,1.0405
82.031,9.8821,6.1259
93.75,13.153,9.9307
105.47,9.3479,6.8122
117.19,8.6685,8.6402
128.91,9.3554,9.7559
140.63,9.6076,9.4972
152.34,6.6935,8.0391
164.06,2.2448,4.4671
175.78,5.1428,7.0089
187.5,11.688,8.1247
199.22,12.078,8.1775
210.94,8.8922,6.1284
222.66,8.15,7.7944
234.38,6.8423,6.5016
246.09,6.9019,2.7715
257.81,8.6729,5.5313
269.53,7.2151,7.4393
281.25,5.8796,4.0161
292.97,5.3499,3.8261
304.69,5.6809,7.5913
316.41,7.1306,9.3778
328.13,4.5687,6.4397
339.84,5.7503,5.9811
351.56,6.1443,1.5366
363.28,4.9958,1.8996
375,7.7746,7.0033
386.72,8.6514,6.7769
398.44,7.0096,5.6474
410.16,5.3182,4.4859
421.88,3.2907,6.5291
433.59,2.0188,5.8339
445.31,4.6033,3.0456
457.03,5.64,2.894
468.75,1.3278,2.8354
480.47,4.7909,2.562
492.19,4.642,3.0328
503.91,6.417,4.6707
515.63,5.972,7.0606
527.34,8.5401,7.3071
539.06,9.0108,5.9521
550.78,9.77,5.7328
562.5,8.2192,4.1253
574.22,5.7233,9.3435
585.94,8.5846,8.9278
597.66,11.254,6.0959
609.38,11.386,6.4096
621.09,8.3339,4.814
632.81,7.6544,3.2888
644.53,7.9428,2.8201
656.25,4.4545,4.3528
667.97,6.3895,5.2542
679.69,7.7041,5.7053
691.41,7.075,6.5072
703.13,3.3791,3.7347
714.84,5.7957,3.7302
726.56,4.3237,3.8205
738.28,6.9713,1.8468
750,8.37,7.8456
761.72,7.692,8.8705
773.44,8.9178,7.0164
785.16,8.892,4.4637
796.88,9.9452,7.138
808.59,10.527,6.0454
820.31,8.674,6.2064
832.03,10.152,5.2346
843.75,9.6573,7.1339
855.47,10.293,9.5295
867.19,7.0776,5.7742
878.91,10.115,7.7705
890.63,9.6304,7.4692
902.34,10.712,8.0908
914.06,8.7128,8.9114
925.78,5.8668,7.559
937.5,8.748,4.7091
949.22,7.0493,5.8561
960.94,5.4343,8.0176
972.66,6.8933,6.7644
984.38,5.0539,4.8755
996.09,5.6549,3.6404
1007.8,3.5893,0.89764
1019.5,4.9477,4.5651
1031.3,4.1289,3.4586
1043,5.5095,3.7976
1054.7,5.6136,5.68
1066.4,7.0991,4.8807
1078.1,5.5281,6.1345
1089.8,8.1436,4.2213
1101.6,8.1078,4.5074
1113.3,7.3752,5.2072
1125,7.7913,6.2586
1136.7,5.4769,5.8636
1148.4,4.7814,2.798
1160.2,5.8133,3.9342
1171.9,6.3665,5.5046
1183.6,4.062,5.6223
1195.3,3.9397,5.5712
1207,5.2832,3.7898
1218.8,7.0049,3.958
1230.5,5.7075,3.6923
1242.2,2.9119,3.5336
1253.9,1.4219,3.7432
1265.6,5.2713,2.8456
1277.3,6.6315,3.8794
1289.1,1.8713,3.0214
1300.8,2.7156,1.0837
1312.5,3.2615,2.0045
1324.2,3.69,1.3222
1335.9,1.9899,4.92
1347.7,2.867,2.185
1359.4,2.2414,4.6826
1371.1,2.6525,5.0413
1382.8,1.2735,4.8447
1394.5,0.53237,4.1098
1406.3,0.36314,1.4189
1418,3.8743,0.10716
1429.7,4.8028,1.6902
1441.4,6.4623,3.5729
1453.1,5.7293,4.5501
1464.8,5.1316,4.3493
1476.6,5.1391,0.26046
1488.3,3.36,2.0351
1500,2.8242,3.6159
1511.7,1.8676,4.7999
1523.4,6.0846,5.7723
1535.2,7.9036,6.4598
1546.9,7.5425,5.6159
1558.6,8.7926,4.5589
1570.3,8.3938,3.9012
1582,6.6301,2.656
1593.8,3.3484,1.4285
1605.5,0.90084,0.54481
1617.2,3.2633,4.0484
1628.9,3.1053,2.7158
1640.6,1.7233,2.296
1652.3,4.3012,6.6312
1664.1,3.1064,3.6474
1675.8,4.533,3.4897
1687.5,6.7414,4.0801
1699.2,8.3267,2.8944
1710.9,7.1625,5.2632
1722.7,5.4351,6.024
1734.4,4.8081,1.1932
1746.1,2.7145,1.5823
1757.8,3.3083,1.9766
1769.5,3.6095,3.9234
1781.3,7.2133,5.3079
1793,8.4721,5.5728
1804.7,9.0029,4.4244
1816.4,6.3606,3.6604
1828.1,23.224,8.3632
1839.8,34.171,17.933
1851.6,32.606,16.448
1863.3,16.233,5.8171
1875,3.7354,3.5341
1886.7,4.8569,3.6033
1898.4,5.9346,2.8347
1910.2,6.1051,1.9039
1921.9,0.64842,3.912
1933.6,3.5538,3.7814
1945.3,3.1217,2.7468
1957,2.3158,3.9028
1968.8,3.311,3.9074
1980.5,2.0443,4.7014
1992.2,4.1387,3.5501
2003.9,3.9612,3.4639
2015.6,1.166,4.1333
2027.3,2.0757,2.5906
2039.1,3.9441,2.4398
2050.8,3.5509,2.3258
2062.5,3.7283,3.3296
2074.2,2.6779,3.598
2085.9,2.0568,3.3389
2097.7,2.8305,1.4709
2109.4,2.9763,3.3758
2121.1,4.8112,6.3637
2132.8,5.1092,7.1948
2144.5,4.9175,6.6162
2156.3,4.4624,2.1146
2168,2.5552,-1.0219
2179.7,3.5434,0.58311
2191.4,4.5757,2.8587
2203.1,4.2769,4.3606
2214.8,5.0539,4.9591
2226.6,3.3174,4.2762
2238.3,1.5676,0.94191
2250,1.9242,1.1204
2261.7,1.6211,0.56577
2273.4,0.30192,2.7961
2285.2,0.81223,2.7522
2296.9,1.1465,2.5825
2308.6,-0.25081,2.9439
2320.3,-1.0761,1.4543
2332,3.3466,1.8752
2343.8,3.1531,0.40508
2355.5,4.005,1.3482
2367.2,6.5137,-0.18429
2378.9,5.4478,1.1132
2390.6,4.8004,4.3983
2402.3,4.0377,4.9134
2414.1,3.9787,2.0023
2425.8,7.3774,-3.4382
2437.5,5.6515,0.98023
2449.2,3.0501,4.4971
2460.9,2.2261,4.8995
2472.7,2.6407,3.7979
2484.4,1.1638,3.4215
2496.1,1.2,1.5454
2507.8,0.96077,3.251
2519.5,2.1882,3.5864
2531.3,0.069219,2.5436
2543,-1.4626,0.60736
2554.7,1.7112,1.232
2566.4,4.0062,0.60657
2578.1,4.7327,2.0134
2589.8,4.323,4.27
2601.6,2.4847,5.0698
2613.3,3.7158,2.005
2625,2.6331,-0.51928
2636.7,3.4298,1.5258
2648.4,0.77104,2.9844
2660.2,0.78987,3.735
2671.9,0.28747,-0.61661
2683.6,-1.6206,0.10132
2695.3,1.5363,0.41975
2707,0.63994,-0.83225
2718.8,-1.5252,-2.8591
2730.5,-1.6463,-4.0259
2742.2,-1.9628,-0.74234
2753.9,0.64304,-0.82529
2765.6,-1.0006,0.40435
2777.3,-0.069659,1.6575
2789.1,3.9217,2.0047
2800.8,3.6233,1.9369
2812.5,1.064,0.2874
2824.2,2.3879,1.8663
2835.9,3.6351,2.7196
2847.7,-0.78291,0.37751
2859.4,0.22054,0.26653
2871.1,3.447,3.3183
2882.8,0.32631,1.1873
2894.5,3.0323,0.60707
2906.3,2.7007,0.75552
2918,1.2033,1.5454
2929.7,-1.5628,1.3928
2941.4,0.92401,-0.2367
2953.1,1.7751,1.9608
2964.8,1.1252,3.4975
2976.6,-1.8921,2.1586
2988.3,-4.0499,-2.8898
3000,-0.57201,-1.2408
3011.7,-0.1901,1.3391
3023.4,-0.12121,-0.34133
3035.2,3.8936,-3.4714
3046.9,1.7985,-3.3155
3058.6,0.033456,-0.21643
3070.3,-1.3066,0.19892
3082,-0.39309,1.1785
3093.8,2.1202,-1.0389
3105.5,4.0004,0.3051
3117.2,2.9547,1.8297
3128.9,0.75683,-0.25051
3140.6,0.12,-1.769
3152.3,-1.5198,-2.1147
3164.1,1.3006,2.0679
3175.8,0.73997,2.6458
3187.5,1.2729,-1.2768
3199.2,3.5264,-0.67255
3210.9,-1.1384,-1.4051
3222.7,2.0701,-1.1865
3234.4,2.9941,-1.9061
3246.1,-0.57245,-1.1606
3257.8,-0.24229,-3.1478
3269.5,0.9137,-4.8296
3281.3,0.10293,0.26637
3293,-0.35363,-0.090113
3304.7,-2.0333,-1.8821
3316.4,-2.5431,0.4679
3328.1,-2.2687,0.70414
3339.8,-0.65926,-0.89819
3351.6,-2.8455,0.11576
3363.3,-0.41572,0.49431
3375,-0.65992,1.7588
3386.7,-2.8024,2.1584
3398.4,-1.4908,0.74122
3410.2,0.67798,1.7445
3421.9,0.36271,-1.5237
3433.6,0.27291,-4.6204
3445.3,-2.4059,-3.8025
3457,-5.7934,-2.573
3468.8,-2.0442,-1.0834
3480.5,1.1927,0.12464
3492.2,-0.33711,-2.477
3503.9,1.2388,-0.67433
3515.6,-1.2892,-0.14948
3527.3,-0.36441,-4.0781
3539.1,-2.1046,-2.5274
3550.8,-2.0521,-0.8965
3562.5,-3.8326,-2.3608
3574.2,-2.1331,-3.3608
3585.9,-0.12607,-3.109
3597.7,-1.5567,-1.5894
3609.4,1.1818,-3.0822
3621.1,-0.94782,-3.8815
3632.8,-1.901,-2.0946
3644.5,-0.14429,-1.724
3656.3,1.5681,-1.1056
3668,-3.2452,-0.094239
3679.7,-4.1476,-2.8746
3691.4,-1.5474,-3.1178
3703.1,-2.5824,-5.1127
3714.8,-1.2216,-2.6936
3726.6,-0.28333,-2.0117
3738.3,-0.97841,-3.0085
3750,-0.29193,-4.7527
3761.7,-1.5483,-4.0627
3773.4,-3.0629,0.78732
3785.2,-2.0368,-0.24798
3796.9,-1.7207,-2.72
3808.6,-0.72664,-0.88595
3820.3,-1.8131,-3.0519
3832,-3.3733,-0.84142
3843.8,-2.7711,1.2686
3855.5,-4.122,-1.489
3867.2,-2.8585,-0.69007
3878.9,-0.49077,-2.6584
3890.6,-2.1451,-5.638
3902.3,-3.7658,-0.87281
3914.1,-1.8585,-0.68997
3925.8,-1.186,-1.9755
3937.5,-0.61147,-3.403
3949.2,-1.0611,-4.539
3960.9,-2.2609,-0.45208
3972.7,-2.3197,-1.2703
3984.4,-1.2875,-1.2463
3996.1,-2.2519,-0.91639
4007.8,-2.9912,1.0528
4019.5,-2.9851,-0.70459
4031.3,-4.1491,-2.6584
4043,-1.4466,-3.3384
4054.7,0.31199,-6.7931
4066.4,0.035917,-3.5863
4078.1,-1.8198,-3.6079
4089.8,-1.2983,-1.3159
4101.6,-4.0882,1.7171
4113.3,-3.868,0.050335
4125,-0.68392,-0.55575
4136.7,-1.4677,-0.30563
4148.4,-3.7403,0.51272
4160.2,-2.9135,-1.554
4171.9,-3.8464,-3.8935
4183.6,-3.666,-0.57921
4195.3,-3.6384,-5.1874
4207,-3.2888,-4.6432
4218.8,-1.3999,-3.5066
4230.5,-1.4962,-1.8678
4242.2,-1.3951,-3.5913
4253.9,-0.24924,-8.0134
4265.6,-0.1074,-1.8631
4277.3,-2.9141,-0.77241
4289.1,-3.2067,-0.47352
4300.8,-3.2043,-2.1724
4312.5,-2.8214,-0.088719
4324.2,0.48035,-0.2902
4335.9,-0.55543,-4.5869
4347.7,-2.5481,-4.724
4359.4,-1.3687,-2.3918
4371.1,-1.3149,-2.4834
4382.8,-2.2641,-2.5891
4394.5,-3.6702,-5.4656
4406.3,-2.375,-4.3042
4418,-2.2678,-3.5774
4429.7,-2.9171,-6.6256
4441.4,-0.90834,-4.9634
4453.1,-1.0681,-3.4526
4464.8,-4.268,-1.807
4476.6,-3.6567,-3.9713
4488.3,-1.2191,-2.9108
4500,-1.787,-4.8748
4511.7,-2.8523,-4.22
4523.4,-0.85097,-1.6719
4535.2,-2.6937,-4.1073
4546.9,-2.6577,-4.5411
4558.6,-1.5913,-4.0202
4570.3,-1.5872,-0.056157
4582,-2.9497,-5.2359
4593.8,-2.3601,-3.6637
4605.5,-0.91349,-2.9533
4617.2,-4.2038,-5.3717
4628.9,-5.7686,-2.9022
4640.6,-2.2095,-4.9741
4652.3,0.087411,-3.3752
4664.1,-1.1961,-2.4596
4675.8,-2.2111,-5.2265
4687.5,-4.0177,-6.5279
4699.2,-2.7646,-5.8392
4710.9,-0.57403,-3.8551
4722.7,-2.1474,-4.8322
4734.4,-2.9614,-6.0073
4746.1,-2.8023,-6.1727
4757.8,-2.6616,-5.8931
4769.5,-5.5782,-6.3204
4781.3,-1.853,-5.6626
4793,-0.093163,-5.4804
4804.7,-3.1527,-4.7143
4816.4,-3.8863,-3.0365
4828.1,-6.2302,-5.468
4839.8,-4.9289,-5.6152
4851.6,-5.2742,-6.191
4863.3,-4.3602,-5.0052
4875,-3.7719,-4.8349
4886.7,-4.6537,-5.49
4898.4,-5.7113,-4.4538
4910.2,-8.2561,-4.9092
4921.9,-5.899,-5.2519
4933.6,-2.6167,-3.9123
4945.3,-4.2522,-6.535
4957,-4.2945,-7.7016
4968.8,-7.6003,-6.3369
4980.5,-6.9858,-2.6731
4992.2,-2.6491,-3.031
5003.9,0.0083516,-7.6983
5015.6,-2.7324,-4.7117
5027.3,-3.6126,-2.6029
5039.1,-6.0297,-2.4269
5050.8,-8.6966,-4.901
5062.5,-6.1124,-4.8401
5074.2,-6.1148,-6.5991
5085.9,-8.2395,-7.8245
5097.7,-6.5551,-6.765
5109.4,-6.4455,-6.1352
5121.1,-4.4349,-5.9218
5132.8,-5.302,-3.6814
5144.5,-5.2511,-4.1862
5156.3,-4.6152,-5.0817
5168,-4.8613,-6.8035
5179.7,-4.2763,-4.8613
5191.4,-5.8064,-6.6546
5203.1,-5.08,-2.2454
5214.8,-2.0205,-2.3866
5226.6,-3.3724,-5.4422
5238.3,-6.7581,-5.5038
5250,-5.5765,-4.0848
5261.7,-4.3407,-3.5563
5273.4,-5.9287,-3.977
5285.2,-2.7121,-6.137
5296.9,-4.256,-6.7914
5308.6,-4.0424,-2.0939
5320.3,-2.1472,-2.4472
5332,-3.9773,-4.7343
5343.8,-5.7473,-4.4498
5355.5,-2.1674,-3.4116
5367.2,-3.0683,-3.5881
5378.9,-3.074,-4.7539
5390.6,-5.4678,-6.4686
5402.3,-4.8369,-7.978
5414.1,-4.3314,-5.5825
5425.8,-6.1469,-3.9045
5437.5,-4.8642,-2.1253
5449.2,-4.3802,-1.8917
5460.9,-5.1178,-4.0182
5472.7,-4.243,-7.0206
5484.4,-3.0245,-6.3646
5496.1,-3.7533,-5.8487
5507.8,-5.923,-5.6194
5519.5,-4.0498,-7.0768
5531.3,-5.7739,-6.0812
5543,-5.2802,-6.281
5554.7,-6.0311,-5.0353
5566.4,-6.3926,-3.7105
5578.1,-5.4897,-5.1354
5589.8,-6.1261,-4.5133
5601.6,-5.396,-5.1555
5613.3,-6.1792,-6.4306
5625,-4.4013,-4.9466
5636.7,-6.3535,-4.8247
5648.4,-6.3439,-5.6988
5660.2,-7.0927,-7.7949
5671.9,-7.4932,-6.333
5683.6,-4.985,-5.1545
5695.3,-3.6487,-5.8405
5707,-4.0373,-10.112
5718.8,-3.3316,-5.7874
5730.5,-3.7853,-4.9971
5742.2,-2.9154,-6.1461
5753.9,-1.8946,-5.789
5765.6,-2.4599,-7.5674
5777.3,-7.3886,-6.3798
5789.1,-4.5107,-4.0059
5800.8,-2.8345,-2.6349
5812.5,-1.8328,-2.5072
5824.2,-1.907,-4.0761
5835.9,-1.6799,-7.2772
5847.7,-4.0536,-7.7074
5859.4,-7.7574,-5.4074
5871.1,-8.1523,-7.1672
5882.8,-6.6872,-5.7431
5894.5,-4.8484,-5.3196
5906.3,-2.8624,-5.1993
5918,-3.6773,-4.4998
5929.7,-2.9405,-5.5631
5941.4,-4.129,-6.0141
5953.1,-5.3823,-7.0341
5964.8,-5.6842,-5.5315
5976.6,-5.1195,-4.2668
5988.3,-5.0599,-5.6772
6000,-4.0786,-7.2943
6011.7,-4.9532,-3.9138
6023.4,-8.0283,-2.0552
6035.2,-5.7934,-3.5266
6046.9,-0.65745,-5.9164
6058.6,-3.4268,-7.562
6070.3,-9.4394,-6.981
6082,-6.2174,-7.3455
6093.8,-4.6968,-5.8535
6105.5,-5.3116,-6.6319
6117.2,-5.7916,-4.4287
6128.9,-6.7586,-4.2552
6140.6,-9.174,-4.7583
6152.3,-7.9995,-4.9759
6164.1,-5.5722,-2.9752
6175.8,-6.3398,-3.5082
6187.5,-5.3978,-6.5409
6199.2,-3.4048,-7.081
6210.9,-4.1701,-5.0281
6222.7,-7.0188,-6.0474
6234.4,-8.057,-8.1734
6246.1,-7.9038,-7.528
6257.8,-4.2853,-6.8583
6269.5,-4.9436,-4.4365
6281.3,-7.3556,-4.5472
6293,-5.5576,-6.7225
6304.7,-8.968,-8.1257
6316.4,-4.9492,-5.5598
6328.1,-5.7215,-4.907
6339.8,-5.8939,-10.285
6351.6,-4.6913,-8.0815
6363.3,-5.6822,-9.0095
6375,-7.6977,-8.4622
6386.7,-8.9117,-5.3154
6398.4,-6.6603,-6.8899
6410.2,-4.3396,-5.6179
6421.9,-5.9263,-6.2357
6433.6,-7.8423,-6.6406
6445.3,-6.0369,-4.0272
6457,-5.2057,-3.5942
6468.8,-6.5827,-4.9771
6480.5,-6.8344,-7.2872
6492.2,-4.0337,-6.7846
6503.9,-4.4294,-5.3844
6515.6,-8.4943,-5.8002
6527.3,-10.289,-5.892
6539.1,-7.7342,-9.3303
6550.8,-7.8858,-5.9851
6562.5,-6.8871,-6.9574
6574.2,-4.8386,-3.8941
6585.9,-3.5818,-4.6038
6597.7,-5.2403,-6.6473
6609.4,-7.0716,-8.354
6621.1,-6.1274,-3.194
6632.8,-5.6978,-2.8307
6644.5,-6.1123,-7.3655
6656.3,-5.8082,-6.2475
6668,-5.4141,-5.6673
6679.7,-5.8277,-6.827
6691.4,-5.5844,-7.809
6703.1,-5.3742,-7.6379
6714.8,-7.7152,-7.787
6726.6,-8.3209,-8.1658
6738.3,-5.9534,-10.955
6750,-6.4097,-12.346
6761.7,-5.6607,-8.3894
6773.4,-7.5756,-7.9859
6785.2,-12.866,-3.9766
6796.9,-9.051,-6.6353
6808.6,-5.4147,-9.1211
6820.3,-7.9151,-11.277
6832,-7.0727,-9.4148
6843.8,-5.6425,-8.1755
6855.5,-4.9416,-6.9752
6867.2,-4.2597,-10.064
6878.9,-6.6842,-7.9693
6890.6,-7.3007,-6.5097
6902.3,-7.397,-7.3168
6914.1,-10.291,-8.7789
6925.8,-9.3198,-8.9298
6937.5,-5.7874,-10.023
6949.2,-4.1788,-9.2324
6960.9,-6.4362,-7.5169
6972.7,-6.3984,-7.8178
6984.4,-10.673,-8.8181
6996.1,-10.142,-7.0926
7007.8,-6.1924,-7.2657
7019.5,-5.7255,-7.6976
7031.3,-8.7594,-7.9298
7043,-6.3649,-6.7773
7054.7,-6.4714,-6.0507
7066.4,-5.3149,-4.9529
7078.1,-6.4067,-5.6541
7089.8,-8.0741,-5.7909
7101.6,-9.5679,-8.4383
7113.3,-8.2602,-10.458
7125,-6.4784,-9.286
7136.7,-7.2559,-9.886
7148.4,-6.6549,-8.9978
7160.2,-4.7675,-7.9125
7171.9,-6.8805,-8.7993
7183.6,-9.9346,-7.6949
7195.3,-10.588,-8.7458
7207,-9.5531,-10.506
7218.8,-10.039,-8.1472
7230.5,-8.8852,-8.1447
7242.2,-7.3161,-8.3919
7253.9,-7.449,-8.347
7265.6,-4.5711,-8.3477
7277.3,-4.4112,-9.6841
7289.1,-6.3811,-6.175
7300.8,-7.4052,-6.8763
7312.5,-8.0394,-7.8765
7324.2,-8.7808,-6.4484
7335.9,-7.9291,-7.5521
7347.7,-6.4687,-6.3139
7359.4,-6.3134,-8.3282
7371.1,-7.4931,-7.0552
7382.8,-9.2218,-9.3507
7394.5,-9.4693,-10.728
7406.3,-11.048,-9.6757
7418,-10.184,-7.2587
7429.7,-8.7787,-7.8246
7441.4,-8.616,-8.1492
7453.1,-6.8785,-9.6245
7464.8,-9.6119,-8.7019
7476.6,-11.964,-6.8962
7488.3,-10.147,-8.7322
7500,-9.6501,-7.3434
7511.7,-11.061,-9.3129
7523.4,-7.03,-10.032
7535.2,-6.0164,-6.7959
7546.9,-8.4112,-6.7938
7558.6,-10.572,-5.8979
7570.3,-12.447,-6.6999
7582,-9.7319,-9.0559
7593.8,-8.0122,-10.529
7605.5,-6.191,-9.6468
7617.2,-6.5417,-8.7544
7628.9,-9.1161,-8.9276
7640.6,-8.831,-7.991
7652.3,-8.9254,-9.491
7664.1,-8.4245,-9.7887
7675.8,-9.072,-9.5953
7687.5,-7.9251,-9.3328
7699.2,-8.0794,-11.082
7710.9,-9.0553,-10.87
7722.7,-6.8921,-8.9469
7734.4,-4.2025,-9.7381
7746.1,-5.18,-10.185
7757.8,-7.8605,-10.618
7769.5,-7.3421,-7.5743
7781.3,-8.832,-6.8609
7793,-7.5923,-9.9438
7804.7,-7.7711,-7.8698
7816.4,-10.737,-10.856
7828.1,-11.528,-13.897
7839.8,-9.0544,-10.874
7851.6,-8.0376,-10.617
7863.3,-7.9621,-9.9935
7875,-7.4155,-8.9444
7886.7,-8.1731,-7.096
7898.4,-12.198,-6.8914
7910.2,-11.499,-4.957
7921.9,-9.086,-7.0704
7933.6,-11.501,-10.165
7945.3,-9.4306,-8.8485
7957,-8.3682,-7.5112
7968.8,-9.3411,-10.532
7980.5,-11.06,-13.181
7992.2,-9.4109,-13.323
8003.9,-12.584,-10.066
8015.6,-13.36,-10.632
8027.3,-10.625,-8.0036
8039.1,-7.8507,-6.9551
8050.8,-8.8018,-7.8734
8062.5,-9.4714,-10.054
8074.2,-6.512,-6.0802
8085.9,-7.2955,-6.0686
8097.7,-10.04,-9.6302
8109.4,-6.0692,-12.264
8121.1,-7.9845,-11.863
8132.8,-8.4365,-9.5936
8144.5,-8.5084,-7.8421
8156.3,-8.5031,-9.127
8168,-8.0922,-11.59
8179.7,-8.5749,-11.973
8191.4,-7.5748,-8.5707
8203.1,-8.1968,-8.3422
8214.8,-8.2044,-9.4102
8226.6,-8.5306,-9.0318
8238.3,-9.5126,-11.011
8250,-9.912,-12.587
8261.7,-7.1072,-8.9413
8273.4,-7.6446,-8.2393
8285.2,-5.7585,-7.0361
8296.9,-8.3717,-8.1927
8308.6,-11.698,-9.808
8320.3,-11.451,-8.9484
8332,-12.358,-9.4588
8343.8,-11.424,-12.105
8355.5,-11.478,-9.5843
8367.2,-9.8208,-9.0408
8378.9,-9.8906,-10.419
8390.6,-8.6173,-11.024
8402.3,-10.245,-9.4449
8414.1,-9.1123,-7.0462
8425.8,-10.442,-7.7987
8437.5,-9.3365,-8.9666
8449.2,-8.538,-10.199
8460.9,-9.8744,-11.551
8472.7,-8.4145,-9.7516
8484.4,-8.8327,-9.9016
8496.1,-9.1565,-9.2294
8507.8,-8.6001,-8.3504
8519.5,-9.062,-6.0206
8531.3,-8.2489,-7.5855
8543,-7.224,-5.7259
8554.7,-6.4741,-7.9948
8566.4,-7.8562,-9.0639
8578.1,-8.1517,-8.4688
8589.8,-8.7763,-7.8999
8601.6,-10.948,-9.8271
8613.3,-11.919,-14.287
8625,-9.7655,-15.381
8636.7,-8.5308,-13.546
8648.4,-7.7073,-9.0933
8660.2,-7.6277,-8.0544
8671.9,-9.7658,-9.8842
8683.6,-10.949,-10.742
8695.3,-9.8032,-15.266
8707,-11.993,-13.802
8718.8,-10.21,-11.546
8730.5,-10.038,-10.28
8742.2,-10.303,-8.3529
8753.9,-8.8266,-11.426
8765.6,-8.8642,-13.416
8777.3,-11.068,-10.766
8789.1,-11.565,-10.8
8800.8,-14.806,-12.991
8812.5,-10.844,-11.387
8824.2,-10.852,-10.487
8835.9,-10.133,-11.415
8847.7,-12.254,-12.708
8859.4,-11.715,-12.688
8871.1,-8.5874,-10.724
8882.8,-9.8585,-12.002
8894.5,-9.0959,-12.786
8906.3,-7.42,-12.209
8918,-9.4538,-11.407
8929.7,-11.756,-10.196
8941.4,-14.759,-8.4607
8953.1,-13.195,-8.0276
8964.8,-8.4593,-11.575
8976.6,-8.0959,-14.555
8988.3,-12.35,-8.8301
9000,-13.256,-8.8963
9011.7,-12.554,-11.484
9023.4,-11.175,-13.092
9035.2,-13.971,-10.559
9046.9,-10.844,-10.503
9058.6,-7.1646,-10.911
9070.3,-7.9781,-11.457
9082,-10.667,-10.293
9093.8,-9.9894,-13.272
9105.5,-11.014,-14.194
9117.2,-11.986,-12.402
9128.9,-12.488,-9.6905
9140.6,-10.444,-10.296
9152.3,-7.2181,-11.493
9164.1,-8.0899,-15.426
9175.8,-8.9853,-11.955
9187.5,-10.972,-11.054
9199.2,-10.583,-12.62
9210.9,-11.307,-10.798
9222.7,-7.285,-12.702
9234.4,-10.466,-9.1375
9246.1,-11.628,-9.5027
9257.8,-12.968,-10.987
9269.5,-10.022,-9.6351
9281.3,-10.576,-12.764
9293,-11.869,-11.433
9304.7,-11.157,-8.3245
9316.4,-13.408,-13.049
9328.1,-10.373,-11.588
9339.8,-8.6087,-7.8196
9351.6,-9.6725,-7.6687
9363.3,-10.973,-11.668
9375,-12.612,-13.73
9386.7,-11.917,-11.106
9398.4,-10.29,-9.4516
9410.2,-10.241,-11.25
9421.9,-9.7579,-14.15
9433.6,-9.9946,-8.7534
9445.3,-13.416,-9.4511
9457,-10.576,-10.904
9468.8,-9.4439,-13.54
9480.5,-10.536,-16.086
9492.2,-12.07,-13.414
9503.9,-11.07,-15.366
9515.6,-10.659,-10.204
9527.3,-11.011,-10.231
9539.1,-10.575,-11.067
9550.8,-9.9661,-11.484
9562.5,-9.2898,-9.9401
9574.2,-9.502,-8.6005
9585.9,-9.4466,-8.0187
9597.7,-11.034,-8.2559
9609.4,-16.318,-12.752
9621.1,-14.309,-11.096
9632.8,-10.903,-10.549
9644.5,-13.889,-13.267
9656.3,-10.7,-10.063
9668,-11.375,-11.552
9679.7,-13.725,-12.055
9691.4,-11.389,-12.721
9703.1,-13.159,-12.158
9714.8,-11.788,-10.094
9726.6,-10.582,-9.4212
9738.3,-13.096,-11.326
9750,-9.878,-12.646
9761.7,-11.337,-15.248
9773.4,-13.304,-14.524
9785.2,-12.398,-12.849
9796.9,-13.319,-13.759
9808.6,-15.207,-13.029
9820.3,-13.542,-9.9688
9832,-9.775,-11.391
9843.8,-8.8756,-11.902
9855.5,-9.4577,-16.141
9867.2,-10.968,-14.284
9878.9,-12.667,-12.457
9890.6,-12.398,-13.457
9902.3,-11.218,-13.116
9914.1,-12.014,-11.197
9925.8,-11.531,-11.643
9937.5,-10.776,-14.364
9949.2,-10.435,-17.763
9960.9,-13.208,-13.745
9972.7,-11.088,-12.489
9984.4,-9.5729,-11.432
9996.1,-15.674,-11.709
10008,-11.406,-13.091
10020,-8.9703,-13.184
10031,-11.038,-12.169
10043,-10.472,-11.296
10055,-8.2406,-9.8787
10066,-9.1332,-8.6033
10078,-11.785,-11.166
10090,-15.038,-12.219
10102,-12.993,-16.179
10113,-11.397,-14.445
10125,-15.202,-15.29
10137,-10.444,-13.8
10148,-10.807,-12.48
10160,-13.317,-12.203
10172,-13.434,-12.711
10184,-9.6936,-11.559
10195,-9.9013,-11.799
10207,-11.046,-13.768
10219,-11.407,-13.43
10230,-12.517,-10.614
10242,-12.503,-10.906
10254,-11.803,-12.818
10266,-12.374,-12.585
10277,-12.499,-13.768
10289,-12.975,-12.801
10301,-12.558,-10.542
10313,-12.285,-9.6189
10324,-13.382,-11.778
10336,-10.327,-14.132
10348,-10.249,-15.9
10359,-11.68,-13.697
10371,-11.017,-12.186
10383,-11.368,-14.159
10395,-14.113,-13.395
10406,-13.11,-12.669
10418,-10.661,-13.912
10430,-10.875,-11.891
10441,-10.708,-13.79
10453,-12.093,-13.169
10465,-12.647,-16.29
10477,-11.113,-13.846
10488,-11.932,-15.775
10500,-12.787,-14.217
10512,-11.081,-12.46
10523,-9.1437,-13.679
10535,-11.606,-13.87
10547,-14.204,-12.272
10559,-9.349,-11.934
10570,-11.702,-15.568
10582,-16.398,-12.173
10594,-13.622,-12.665
10605,-13.826,-12.081
10617,-13.33,-10.7
10629,-13.99,-10.083
10641,-13.513,-11.429
10652,-13.564,-13.018
10664,-11.222,-14.825
10676,-12.877,-13.201
10688,-12.797,-14.004
10699,-13.335,-15.174
10711,-14.321,-13.961
10723,-14.65,-12.357
10734,-14.873,-15.005
10746,-15.277,-14.523
10758,-14.201,-11.584
10770,-12.159,-11.607
10781,-9.8766,-14.235
10793,-10.993,-15.415
10805,-12.509,-16.656
10816,-10.029,-17.492
10828,-8.7929,-14.183
10840,-9.6299,-11.988
10852,-10.698,-11.077
10863,-11.393,-13.654
10875,-12.877,-16.101
10887,-11.591,-15.19
10898,-9.5925,-14.953
10910,-9.9545,-12.214
10922,-11.059,-9.1981
10934,-12.719,-12.614
10945,-12.576,-15.519
10957,-12.995,-15.393
10969,-10.654,-13.731
10980,-11.86,-16.127
10992,-12.906,-16.85
11004,-14.095,-13.081
11016,-11.083,-12.027
11027,-9.1293,-13.946
11039,-11.898,-15.395
11051,-11.594,-13.332
11063,-10.522,-14.03
11074,-15.483,-17.843
11086,-11.191,-16.174
11098,-10.208,-13.801
11109,-10.703,-16.33
11121,-11.528,-16.298
11133,-10.233,-12.093
11145,-10.579,-10.176
11156,-12.002,-13.478
11168,-14.294,-13.324
11180,-15.25,-14.214
11191,-12.612,-13.033
11203,-12.423,-12.123
11215,-11.97,-13.122
11227,-10.636,-11.393
11238,-13.794,-9.2528
11250,-13.097,-8.8738
11262,-12.359,-11.991
11273,-13.488,-14.88
11285,-14.773,-13.967
11297,-10.476,-17.365
11309,-10.714,-16.194
11320,-14.886,-15.975
11332,-14.509,-13.082
11344,-11.815,-12.55
11355,-9.1225,-16.002
11367,-8.851,-14.612
11379,-11.827,-15.214
11391,-12.826,-14.508
11402,-13.719,-12.078
11414,-14.081,-10.394
11426,-12.526,-10.337
11438,-9.6691,-11.275
11449,-10.84,-14.424
11461,-14.751,-15.234
11473,-13.693,-14.122
11484,-14.25,-11.572
11496,-10.974,-14.567
11508,-11.084,-13.619
11520,-15.132,-16.645
11531,-14.141,-16.631
11543,-13.178,-14.965
11555,-12.148,-14.982
11566,-11.565,-18.715
11578,-10.019,-14.943
11590,-12.268,-12.771
11602,-10.193,-13.705
11613,-10.284,-16.626
11625,-13.544,-16.364
11637,-14.577,-16.172
11648,-13.151,-17.104
11660,-12.123,-17.648
11672,-12.988,-17.326
11684,-13.045,-15.253
11695,-12.803,-13.861
11707,-12.704,-13.594
11719,-13.198,-15.991
11730,-11.318,-16.624
11742,-12.637,-16.653
11754,-9.63,-14.224
11766,-10.337,-14.201
11777,-14.507,-14.186
11789,-11.018,-16.119
11801,-10.321,-14.771
11813,-10.742,-14.747
11824,-7.6691,-14.007
11836,-7.858,-12.376
11848,-10.231,-13.639
11859,-10.897,-16.404
11871,-10.518,-16.569
11883,-10.518,-15.076
11895,-11.599,-13.595
11906,-11.415,-13.634
11918,-11.736,-14.659
11930,-13.492,-15.853
11941,-13.629,-14.589
11953,-10.322,-13.341
11965,-12.125,-13.049
11977,-14.249,-13.229
11988,-13.552,-12.651
12000,-14.734,-15.062
12012,-15.194,-16.569
12023,-13.938,-18.159
12035,-12.401,-13.201
12047,-14.938,-13.489
12059,-12.869,-13.334
12070,-14.449,-12.639
12082,-10.229,-16.122
12094,-9.9816,-15.747
12105,-12.405,-15.872
12117,-11.44,-14.035
12129,-9.5934,-14.991
12141,-12.858,-14.67
12152,-13.182,-15.585
12164,-13.622,-17.88
12176,-14.649,-18.114
12188,-12.963,-15.621
12199,-10.943,-14.776
12211,-12.524,-15.542
12223,-14.167,-16.155
12234,-12.568,-13.43
12246,-13.124,-14.618
12258,-15.667,-15.216
12270,-13.609,-15.987
12281,-13.58,-15.452
12293,-13.497,-17.771
12305,-10.169,-15.384
12316,-11.724,-19.763
12328,-15.323,-17.597
12340,-13.851,-16.185
12352,-15.968,-15.025
12363,-15.205,-14.537
12375,-13.455,-15.792
12387,-14.313,-17.481
12398,-12.308,-15.381
12410,-12.744,-14.246
12422,-13.4,-10.745
12434,-12.87,-10.555
12445,-12.236,-14.272
12457,-13.887,-17.065
12469,-16.776,-16.37
12480,-15.801,-14.654
12492,-16.159,-14.377
12504,-15.777,-13.245
12516,-12.726,-13.364
12527,-13.719,-12.744
12539,-14.893,-13.598
12551,-16.372,-12.279
12563,-13.766,-19.385
12574,-10.224,-14.325
12586,-12.599,-13.434
12598,-11.695,-13.665
12609,-11.662,-13.818
12621,-11.019,-14.73
12633,-10.503,-14.735
12645,-11.156,-17.262
12656,-10.48,-15.399
12668,-11.575,-13.792
12680,-14.345,-15.849
12691,-11.373,-15.833
12703,-11.178,-14.871
12715,-11.845,-15.844
12727,-15.14,-17.833
12738,-13.783,-16.91
12750,-15.206,-15.664
12762,-19.229,-14.987
12773,-14.587,-15.259
12785,-9.654,-17.064
12797,-9.8635,-16.478
12809,-13.498,-14.591
12820,-12.879,-15.352
12832,-13.136,-16.883
12844,-11.391,-13.108
12855,-11.582,-15.255
12867,-13.661,-17.716
12879,-13.848,-18.527
12891,-12.918,-14.207
12902,-4.9173,-13.915
12914,-4.0157,-16.238
12926,-11.678,-15.4
12938,-15.104,-15.961
12949,-14.228,-16.762
12961,-14.682,-16.305
12973,-13.011,-15.091
12984,-14.899,-16.978
12996,-11.759,-17.687
13008,-15.023,-14.484
13020,-11.081,-13.636
13031,-11.202,-16.071
13043,-14.252,-16.736
13055,-10.534,-17.513
13066,-11.058,-16.204
13078,-15.968,-16.593
13090,-16.343,-15.156
13102,-12.432,-15.754
13113,-11.548,-15.238
13125,-13.03,-16.403
13137,-15.544,-12.611
13148,-15.172,-14.819
13160,-14.642,-17.475
13172,-14.529,-17.837
13184,-16.055,-15.318
13195,-16.24,-13.405
13207,-15.064,-12.566
13219,-16.45,-14.726
13230,-16.093,-17.495
13242,-13.422,-18.546
13254,-14.802,-17.511
13266,-12.391,-16.476
13277,-10.646,-16.614
13289,-13.444,-14.921
13301,-14.859,-16.837
13313,-14.282,-17.885
13324,-13.914,-15.949
13336,-14.179,-14.305
13348,-12.883,-13.624
13359,-14.354,-13.853
13371,-16.283,-14.046
13383,-14.6,-16.057
13395,-16.181,-14.961
13406,-13.545,-16.546
13418,-13.799,-15.407
13430,-10.973,-14.136
13441,-12.54,-18.119
13453,-13.905,-17.51
13465,-14.104,-15.656
13477,-14.537,-13.512
13488,-13.439,-15.409
13500,-15.367,-15.442
13512,-13.241,-13.371
13523,-14.179,-14.424
13535,-16.18,-17.63
13547,-13.638,-18.557
13559,-13.813,-18.445
13570,-14.763,-15.921
13582,-13.171,-15.686
13594,-13.179,-15.889
13605,-11.237,-16.088
13617,-9.3249,-16.357
13629,-12.764,-19.24
13641,-12.917,-17.53
13652,-12.405,-16.453
13664,-14.298,-16.173
13676,-13.508,-16.066
13688,-11.596,-14.244
13699,-15.123,-15.274
13711,-15.7,-17.008
13723,-11.057,-16.415
13734,-12.44,-16.09
13746,-16.478,-16.13
13758,-19.396,-17.99
13770,-18.071,-17.299
13781,-14.671,-19.914
13793,-12.593,-13.206
13805,-14.165,-11.641
13816,-13.758,-16.333
13828,-13.164,-17.539
13840,-12.351,-15.491
13852,-15.567,-16.55
13863,-14.854,-17.236
13875,-13.633,-19.683
13887,-14.241,-21.009
13898,-13.123,-19.154
13910,-14.2,-17.071
13922,-15.095,-17.126
13934,-12.469,-18.181
13945,-14.032,-18.362
13957,-14.004,-16.786
13969,-17.982,-16.033
13980,-14.652,-17.395
13992,-15.306,-19.272
14004,-12.91,-18.042
14016,-14.077,-16.827
14027,-13.999,-17.202
14039,-12.481,-13.627
14051,-17.48,-13.985
14063,-16.734,-13.87
14074,-13.889,-12.729
14086,-14.401,-14.839
14098,-21.604,-18.388
14109,-15.53,-15.329
14121,-13.571,-15.154
14133,-14.92,-16.163
14145,-17.583,-15.244
14156,-14.512,-15.708
14168,-13.191,-17.071
14180,-15.472,-17.907
14191,-15.737,-15.969
14203,-15.955,-16.03
14215,-15.177,-17.362
14227,-12.429,-17.795
14238,-12.722,-18.85
14250,-14.132,-17.012
14262,-16.339,-17.802
14273,-17.321,-17.629
14285,-14.859,-15.834
14297,-15.737,-16.351
14309,-14.003,-15.557
14320,-15.656,-15.804
14332,-18.103,-15.304
14344,-17.048,-15.461
14355,-17.772,-16.196
14367,-19.796,-16.225
14379,-17.034,-16.832
14391,-15.517,-16.128
14402,-15.356,-18.387
14414,-16.672,-20.529
14426,-14.514,-17.788
14438,-12.65,-17.164
14449,-15.003,-19.794
14461,-15.814,-20.538
14473,-17.44,-18.464
14484,-20.038,-18.219
14496,-17.607,-17.374
14508,-13.301,-18.394
14520,-14.037,-21.291
14531,-14.901,-20.124
14543,-15.714,-18.982
14555,-20.135,-21.695
14566,-20.494,-18.888
14578,-17.881,-16.506
14590,-17.594,-17.146
14602,-18.091,-20.337
14613,-17.642,-19.652
14625,-16.18,-18.329
14637,-18.02,-18.088
14648,-17.097,-17.765
14660,-13.139,-14.228
14672,-15.92,-17.623
14684,-18.868,-18.507
14695,-19.151,-16.114
14707,-19.146,-16.938
14719,-16.646,-17.053
14730,-13.407,-15.845
14742,-14.982,-17.544
14754,-20.081,-20.903
14766,-18.171,-18.797
14777,-17.407,-17.842
14789,-16.768,-17.593
14801,-15.547,-18.819
14813,-18.706,-17.272
14824,-20.03,-17.624
14836,-19.378,-18.306
14848,-17.47,-17.99
14859,-18.874,-18.049
14871,-19.161,-15.433
14883,-15.006,-14.519
14895,-13.358,-16.558
14906,-15.597,-16.203
14918,-16.081,-16.912
14930,-15.766,-17.854
14941,-16.662,-16.678
14953,-17.278,-14.372
14965,-18.785,-18.432
14977,-17.019,-22.901
14988,-18.349,-21.867
15000,-22.085,-20.37
15012,-20.939,-17.21
15023,-17.264,-15.087
15035,-17.709,-17.58
15047,-18.724,-18.416
15059,-18.516,-17.673
15070,-15.846,-22.075
15082,-17.587,-20.674
15094,-19.128,-18.742
15105,-19.672,-16.862
15117,-19.357,-18.625
15129,-16.551,-19.193
15141,-16.523,-18.129
15152,-19.449,-19.402
15164,-18.289,-21.382
15176,-15.706,-20.222
15188,-17.406,-20.266
15199,-18.687,-18.877
15211,-17.647,-16.817
15223,-16.299,-18.047
15234,-18.748,-22.473
15246,-18.269,-20.097
15258,-17.214,-17.56
15270,-17.843,-18.557
15281,-16.031,-18.128
15293,-18.661,-18.025
15305,-20.538,-16.691
15316,-20.458,-14.896
15328,-18.795,-16.949
15340,-18.404,-18.655
15352,-19.355,-16.997
15363,-20.099,-16.735
15375,-18.469,-17.376
15387,-18.836,-19.34
15398,-19.189,-18.484
15410,-17.303,-19.43
15422,-17.744,-20.777
15434,-17.481,-19.121
15445,-15.067,-19.038
15457,-18.744,-18.935
15469,-22.051,-19.666
15480,-19.833,-18.632
15492,-19.885,-20.513
15504,-18.293,-16.879
15516,-18.257,-16.694
15527,-18.8,-20.292
15539,-17.951,-19.575
15551,-19.153,-18.647
15563,-19.825,-18.355
15574,-19.249,-19.19
15586,-21.275,-18.896
15598,-20.379,-18.955
15609,-20.513,-19.161
15621,-20.724,-17.697
15633,-18.737,-18.052
15645,-16.274,-19.972
15656,-15.505,-19.538
15668,-17.211,-17.048
15680,-19.055,-21.049
15691,-19.717,-21.246
15703,-16.591,-19.416
15715,-18.023,-16.53
15727,-21.337,-15.433
15738,-18.114,-19.184
15750,-20.078,-19.819
15762,-20.06,-18.835
15773,-18.762,-17.019
15785,-20.991,-19.972
15797,-21.384,-22.286
15809,-19.754,-18.808
15820,-20.884,-17.663
15832,-16.803,-18.596
15844,-17.747,-18.88
15855,-17.17,-20.296
15867,-19.526,-22.196
15879,-20.28,-19.641
15891,-21.15,-18.721
15902,-20.462,-20.382
15914,-19.992,-19.725
15926,-18.746,-21.603
15938,-20.087,-21.922
15949,-20.07,-20.56
15961,-19.816,-19.327
15973,-20.434,-16.861
15984,-19.842,-16.812
15996,-18.389,-21.089
16008,-18.693,-22.225
16020,-19.057,-21.759
16031,-17.554,-21.747
16043,-20.489,-21.743
16055,-21.503,-23.451
16066,-21.236,-24.247
16078,-22.952,-24.021
16090,-20.313,-21.103
16102,-22.135,-19.838
16113,-20.417,-21.28
16125,-18.97,-22.911
16137,-16.882,-19.464
16148,-18.387,-23.193
16160,-20.655,-21.216
16172,-22.505,-22.29
16184,-21.204,-20.99
16195,-19.602,-21.189
16207,-20.324,-21.447
16219,-21.421,-21.52
16230,-19.429,-20.069
16242,-16.625,-21.859
16254,-17.041,-19.824
16266,-17.523,-18.323
16277,-18.055,-19.748
16289,-20.489,-20.101
16301,-21.47,-16.113
16313,-21.053,-16.056
16324,-21.06,-19.11
16336,-22.336,-18.018
16348,-21.347,-18.061
16359,-21.671,-22.428
16371,-21.53,-23.987
16383,-22.458,-23.247
16395,-20.505,-21.094
16406,-20.272,-22.774
16418,-21.336,-19.961
16430,-21.567,-17.882
16441,-19.911,-18.484
16453,-18.153,-18.49
16465,-20.071,-18.964
16477,-17.64,-22.85
16488,-17.972,-22.308
16500,-17.395,-20.483
16512,-17.912,-20.518
16523,-20.051,-21.765
16535,-22.226,-21.412
16547,-23.534,-23.624
16559,-20.866,-18.999
16570,-19.401,-17.524
16582,-21.645,-19.081
16594,-19.12,-20.286
16605,-20.539,-21.701
16617,-21.877,-22.731
16629,-21.152,-22.156
16641,-19.999,-21.33
16652,-21.133,-19.79
16664,-21.797,-22.897
16676,-19.273,-20.894
16688,-20.122,-24.503
16699,-23.801,-19.393
16711,-21.219,-17.355
16723,-20.592,-20.649
16734,-22.604,-18.406
16746,-22.769,-18.622
16758,-22.376,-20.588
16770,-21.915,-22.07
16781,-21.254,-24.64
16793,-19.863,-21.138
16805,-23.601,-20.305
16816,-21.169,-22.351
16828,-19.703,-23.459
16840,-19.998,-23.719
16852,-21.002,-20.945
16863,-21.062,-20.911
16875,-24.185,-20.58
16887,-21.607,-21.013
16898,-18.511,-20.524
16910,-20.192,-21.338
16922,-22.827,-21.484
16934,-20.749,-24.527
16945,-22.188,-21.617
16957,-22.264,-19.327
16969,-20.63,-20.612
16980,-20.596,-22.404
16992,-18.606,-24.613
17004,-21.253,-22.509
17016,-18.69,-22.511
17027,-21.14,-21.951
17039,-19.827,-21.188
17051,-19.723,-21.185
17063,-20.856,-19.874
17074,-21.765,-22.258
17086,-24.655,-23.12
17098,-23.884,-19.345
17109,-23.553,-19.248
17121,-23.087,-24.861
17133,-21.173,-23.99
17145,-20.338,-22.326
17156,-21.552,-22.98
17168,-22.492,-24.14
17180,-21.941,-23.902
17191,-21.836,-24.085
17203,-22.919,-24.408
17215,-21.171,-24.477
17227,-22.02,-25.081
17238,-23.602,-24.148
17250,-19.905,-22.439
17262,-22.046,-21.316
17273,-23.83,-23.101
17285,-22.865,-21.618
17297,-23.09,-19.685
17309,-22.88,-21.552
17320,-25.329,-24.211
17332,-19.071,-20.218
17344,-18.729,-20.519
17355,-21.167,-18.948
17367,-22.943,-24.02
17379,-22.207,-23.876
17391,-21.164,-23.301
17402,-23.829,-21.223
17414,-21.286,-19.773
17426,-20.301,-21.892
17438,-22.485,-24.663
17449,-25.253,-23.105
17461,-25.618,-23.796
17473,-22.82,-24.134
17484,-23.922,-24.257
17496,-22.07,-23.325
17508,-21.503,-19.075
17520,-21.121,-20.516
17531,-22.022,-23.149
17543,-21.724,-24.824
17555,-26.651,-23.394
17566,-24.604,-22.954
17578,-21.789,-21.172
17590,-22.842,-23.423
17602,-22.26,-22.866
17613,-22.14,-20.252
17625,-22.68,-20.284
17637,-22.087,-21.873
17648,-22.159,-19.758
17660,-21.036,-22.222
17672,-19.519,-22.363
17684,-22.875,-23.001
17695,-23.055,-24.448
17707,-23.39,-23.138
17719,-24.139,-23.753
17730,-22.404,-23.61
17742,-24.902,-24.013
17754,-23.286,-24.696
17766,-19.996,-24.007
17777,-18,-21.351
17789,-18.555,-21.849
17801,-17.504,-23.556
17813,-17.182,-23.503
17824,-22.92,-24.075
17836,-22.323,-25.936
17848,-24.23,-21.577
17859,-21.391,-20.331
17871,-20.494,-20.788
17883,-21.427,-22.707
17895,-24.775,-20.37
17906,-21.491,-18.848
17918,-21.439,-21.186
17930,-21.015,-23.203
17941,-22.679,-22.134
17953,-21.935,-21.729
17965,-23.646,-21.453
17977,-25.932,-22.841
17988,-24.761,-22.861
18000,-23.263,-21.379
18012,-21.364,-20.895
18023,-24.859,-23.714
18035,-24.746,-23.201
18047,-22.455,-22.849
18059,-22.048,-24.657
18070,-21.928,-28.232
18082,-19.66,-25.145
18094,-23.199,-25.551
18105,-24.401,-22.235
18117,-22.876,-23.601
18129,-23.77,-23.227
18141,-24.899,-22.64
18152,-21.581,-20.149
18164,-19.573,-22.551
18176,-20.816,-26.863
18188,-23.622,-25.76
18199,-22.064,-21.621
18211,-24.378,-22.783
18223,-24.117,-25.92
18234,-24.216,-24.818
18246,-22.37,-24.815
18258,-24.534,-24.27
18270,-24.878,-23.955
18281,-24.326,-20.171
18293,-24.82,-19.587
18305,-22.853,-21.655
18316,-21.699,-21.878
18328,-23.33,-22.703
18340,-24.67,-24.904
18352,-25.749,-23.54
18363,-24.796,-25.435
18375,-20.676,-23.29
18387,-19.603,-19.824
18398,-22.582,-22.11
18410,-24.533,-24.396
18422,-23.273,-25.368
18434,-20.953,-27.475
18445,-22.664,-25.353
18457,-22.775,-22.782
18469,-21.571,-24.01
18480,-23.837,-25.765
18492,-24.296,-27.085
18504,-22.216,-28.806
18516,-23.722,-26.246
18527,-23.479,-22.044
18539,-21.33,-21.115
18551,-20.554,-21.963
18563,-22.807,-21.154
18574,-22.832,-21.949
18586,-26.787,-23.976
18598,-23.159,-22.484
18609,-22.457,-23.428
18621,-22.15,-25.41
18633,-21.732,-23.453
18645,-23.85,-24.146
18656,-27.561,-22.942
18668,-24.813,-22.831
18680,-23.239,-24.794
18691,-27.009,-26.445
18703,-24.286,-26.448
18715,-22.873,-23.328
18727,-24.457,-23.599
18738,-26.081,-24.195
18750,-24.284,-24.084
18762,-24.746,-24.073
18773,-25.695,-25.52
18785,-21.438,-28.394
18797,-21.063,-24.528
18809,-23.351,-23.188
18820,-25.867,-23.476
18832,-24.458,-22.888
18844,-21.354,-22.879
18855,-21.653,-23.482
18867,-20.845,-22.906
18879,-21.086,-24.749
18891,-25.883,-25.62
18902,-26.1,-24.609
18914,-24.273,-24.928
18926,-21.49,-23.846
18938,-20.774,-25.057
18949,-23.299,-25.602
18961,-23.817,-25.402
18973,-23.164,-26.434
18984,-22.938,-26.214
18996,-25.832,-24.24
19008,-25.376,-24.998
19020,-21.878,-21.86
19031,-23.319,-24.465
19043,-24.846,-23.419
19055,-22.837,-23.363
19066,-22.857,-25.657
19078,-25.149,-23.999
19090,-23.286,-23.106
19102,-23.927,-24.477
19113,-22.891,-26.062
19125,-26.171,-24.49
19137,-25.502,-21.556
19148,-23.408,-24.071
19160,-24.214,-22.04
19172,-23.631,-21.804
19184,-22.73,-24.018
19195,-24.553,-25.485
19207,-24.846,-25.509
19219,-23.379,-24.731
19230,-24.763,-23.353
19242,-26.118,-25.181
19254,-25.313,-26.716
19266,-28.392,-22.949
19277,-26.785,-22.821
19289,-25.492,-22.197
19301,-23.546,-22.366
19313,-23.666,-24.262
19324,-25.792,-25.146
19336,-24.415,-21.995
19348,-23.539,-23.829
19359,-26.531,-24.773
19371,-25.804,-24.896
19383,-24.444,-21.146
19395,-23.061,-22.475
19406,-24.595,-28.3
19418,-23.969,-26.763
19430,-23.918,-25.902
19441,-22.814,-26.012
19453,-23.25,-23.445
19465,-28.204,-25.465
19477,-24.891,-27.398
19488,-25.225,-24.967
19500,-26.592,-23.165
19512,-26.968,-23.792
19523,-29.45,-25.179
19535,-25.836,-24.404
19547,-23.658,-25.111
19559,-24.002,-26.907
19570,-24.135,-23.58
19582,-23.771,-23.381
19594,-26.484,-25.822
19605,-25.073,-25.475
19617,-22.817,-21.89
19629,-22.395,-21.953
19641,-22.607,-24.998
19652,-23.751,-25.582
19664,-25.309,-26.816
19676,-22.283,-26.048
19688,-21.708,-25.788
19699,-25.29,-24.557
19711,-26.152,-25.238
19723,-26.068,-26.593
19734,-26.592,-26.39
19746,-25.118,-25.669
19758,-26.015,-26.331
19770,-26.03,-24.396
19781,-26.096,-21.816
19793,-23.468,-23.117
19805,-22.585,-25.389
19816,-26.786,-26.064
19828,-23.001,-25.788
19840,-24.667,-24.488
19852,-23.607,-25.011
19863,-25.244,-25.709
19875,-26.513,-25.122
19887,-25.234,-25.501
19898,-24.168,-27.073
19910,-24.378,-26.795
19922,-27.166,-25.758
19934,-28.136,-27.52
19945,-26.02,-28.025
19957,-24.715,-26.826
19969,-21.125,-26.993
19980,-23.571,-24.186
19992,-24.935,-25.802
20004,-22.103,-26.274
20016,-23.061,-27.06
20027,-25.499,-28.303
20039,-24.959,-28.045
20051,-22.792,-29.024
20063,-22.104,-28.214
20074,-28.333,-28.949
20086,-25.29,-25.16
20098,-28.397,-21.155
20109,-25.437,-23.463
20121,-23.047,-24.531
20133,-26.398,-23.101
20145,-26.869,-23.909
20156,-29.3,-25.49
20168,-25.68,-26.119
20180,-24.215,-27.552
20191,-24.159,-24.301
20203,-23.797,-24.047
20215,-24.365,-26.032
20227,-25.049,-27.324
20238,-23.031,-26.934
20250,-21.445,-27.559
20262,-22.699,-23.742
20273,-23.859,-23.731
20285,-23.892,-28.39
20297,-23.852,-27.837
20309,-24.05,-27.376
20320,-25.746,-26.609
20332,-24.121,-27.842
20344,-23.433,-28.889
20355,-24.71,-27.262
20367,-26.256,-25.214
20379,-27.499,-23.218
20391,-23.721,-26.446
20402,-22.793,-25.35
20414,-25.163,-25.497
20426,-26.383,-26.369
20438,-26.251,-28.516
20449,-23.644,-27.796
20461,-26.149,-23.605
20473,-29.188,-23.719
20484,-28.267,-26.357
20496,-26.908,-27.262
20508,-28.203,-24.471
20520,-26.733,-25.541
20531,-22.933,-27.016
20543,-23.919,-25.103
20555,-27.989,-26.506
20566,-26.961,-26.304
20578,-22.715,-24.955
20590,-23.47,-24.521
20602,-23.564,-27.485
20613,-26.702,-24.692
20625,-26.214,-24.914
20637,-26.704,-25.965
20648,-24.363,-25.206
20660,-24.297,-23.419
20672,-24.521,-28.502
20684,-26.199,-27.584
20695,-26.181,-27.394
20707,-25.314,-26.074
20719,-25.651,-26.104
20730,-28.377,-26.675
20742,-22.47,-26.622
20754,-23.412,-24.588
20766,-23.788,-24.357
20777,-25.121,-28.072
20789,-25.485,-26.341
20801,-26.613,-24.141
20813,-25.445,-24.054
20824,-25.48,-26.489
20836,-24.767,-27.803
20848,-25.435,-28.264
20859,-27.063,-25.328
20871,-26.84,-21.941
20883,-26.702,-24.414
20895,-23.962,-28.082
20906,-23.925,-25.695
20918,-24.92,-25.627
20930,-26.739,-25.624
20941,-28.187,-30.699
20953,-26.969,-29.544
20965,-26.617,-27.639
20977,-25.002,-25.567
20988,-26.86,-29.152
21000,-27.799,-24.618
21012,-24.273,-25.898
21023,-26.977,-28.419
21035,-28.361,-25.166
21047,-26.007,-26.174
21059,-25.825,-31.713
21070,-25.42,-27.278
21082,-25.211,-25.208
21094,-25.806,-25.475
21105,-26.598,-27.294
21117,-26.529,-27.001
21129,-26.577,-25.3
21141,-25.323,-25.559
21152,-25.945,-25.074
21164,-25.574,-24.933
21176,-24.846,-27.958
21188,-23.669,-25.851
21199,-25.008,-25.237
21211,-26.129,-26.454
21223,-26.805,-26.063
21234,-29.03,-26.328
21246,-28.549,-26.1
21258,-26.104,-27.714
21270,-24.176,-28.84
21281,-23.778,-30.301
21293,-26.309,-25.771
21305,-28.625,-23.275
21316,-25.332,-25.492
21328,-23.919,-24.85
21340,-26.24,-25.583
21352,-24.987,-27.498
21363,-25.835,-27.176
21375,-23.747,-27.581
21387,-23.979,-28.624
21398,-26.304,-29.674
21410,-26.18,-25.195
21422,-27.614,-25.153
21434,-26.009,-25.717
21445,-26.506,-24.614
21457,-26.865,-25.103
21469,-26.016,-24.866
21480,-23.053,-25.06
21492,-22.49,-27.116
21504,-25.478,-26.707
21516,-27.295,-26.647
21527,-25.927,-26.59
21539,-26.455,-25.332
21551,-24.971,-25.239
21563,-25.171,-26.259
21574,-26.344,-24.258
21586,-25.707,-26.68
21598,-27.281,-28.12
21609,-31.348,-27.005
21621,-26.583,-27.67
21633,-27.907,-26.634
21645,-26.463,-24.81
21656,-27.879,-28.495
21668,-27.699,-25.562
21680,-27.803,-25.132
21691,-26.432,-26.225
21703,-24.433,-28.098
21715,-27.151,-26.598
21727,-30.302,-27.027
21738,-25.995,-29.73
21750,-24.774,-26.263
21762,-25.753,-31.676
21773,-26.79,-28.527
21785,-26.748,-26.607
21797,-27.959,-25.249
21809,-29.882,-24
21820,-27.127,-26.542
21832,-25.098,-27.202
21844,-23.72,-27.657
21855,-24.059,-28.642
21867,-28.404,-27.935
21879,-26.156,-25.779
21891,-25.096,-23.532
21902,-26.498,-26.836
21914,-24.793,-28.206
21926,-25.49,-25.296
21938,-25.544,-26.007
21949,-29.747,-27.271
21961,-24.566,-27.971
21973,-24.562,-28.064
21984,-28.152,-27.693
21996,-26.288,-27.784
22008,-26.213,-25.148
22020,-26.224,-24.964
22031,-23.12,-26.655
22043,-22.059,-28.684
22055,-23.014,-27.825
22066,-26.775,-25.521
22078,-28.269,-26.869
22090,-28.946,-29.27
22102,-26.374,-25.084
22113,-29.648,-25.693
22125,-28.136,-31.343
22137,-28.092,-26.754
22148,-28.529,-24.554
22160,-28.049,-25.167
22172,-25.637,-25.656
22184,-25.599,-27.957
22195,-27.184,-25.412
22207,-27.114,-26.485
22219,-24.234,-26.565
22230,-24.52,-29.137
22242,-26.926,-29.742
22254,-25.747,-28.165
22266,-27.324,-29.795
22277,-29.034,-28.325
22289,-26.544,-29.293
22301,-25.492,-30.012
22313,-25.425,-27.909
22324,-25.635,-25.543
22336,-28.65,-26.299
22348,-26.999,-25.251
22359,-25.969,-25.601
22371,-26.364,-28.377
22383,-28.654,-28.277
22395,-28.012,-25.878
22406,-28.028,-25.501
22418,-28.108,-26.823
22430,-29.537,-25.831
22441,-31.64,-25.347
22453,-29.171,-28.619
22465,-27.56,-30.679
22477,-27.799,-29.459
22488,-27.984,-26.552
22500,-28.504,-27.707
22512,-27.121,-27.633
22523,-27.376,-25.001
22535,-30.08,-25.402
22547,-29.424,-27.797
22559,-25.239,-26.789
22570,-25.575,-27.455
22582,-30.654,-29.899
22594,-28.986,-29.443
22605,-26.681,-27.779
22617,-26.143,-26.679
22629,-27.604,-28.507
22641,-27.31,-27.114
22652,-27.373,-25.724
22664,-28.203,-25.77
22676,-27.154,-25.37
22688,-26.842,-26.847
22699,-25.733,-27.607
22711,-25.03,-32.714
22723,-22.81,-29.255
22734,-26.591,-27.326
22746,-29.61,-26.797
22758,-27.868,-27.947
22770,-30.726,-27.232
22781,-29.462,-26.641
22793,-27.912,-27.082
22805,-23.902,-30.867
22816,-24.167,-29.217
22828,-28.132,-28.575
22840,-30.506,-27.876
22852,-26.028,-28.149
22863,-25.026,-26.294
22875,-26.065,-25.694
22887,-24.899,-25.414
22898,-24.085,-26.669
22910,-24.907,-29.865
22922,-27.333,-29.55
22934,-27.809,-31.069
22945,-27.528,-29.803
22957,-27.961,-29.335
22969,-27.808,-30.158
22980,-27.952,-30.015
22992,-30.541,-30.3
23004,-29.449,-30.586
23016,-28.721,-31.127
23027,-29.575,-32.387
23039,-29.493,-29.788
23051,-28.566,-27.601
23063,-28.101,-27.21
23074,-28.638,-31.412
23086,-27.282,-31.874
23098,-27.251,-31.446
23109,-27.61,-31.626
23121,-26.776,-27.593
23133,-28.362,-26.801
23145,-27.867,-28.097
23156,-27.071,-30.096
23168,-25.566,-27.992
23180,-26.553,-27.066
23191,-28.894,-26.645
23203,-27.404,-25.32
23215,-26.152,-25.931
23227,-29.634,-24.9
23238,-28.916,-26.975
23250,-29.225,-30.792
23262,-26.864,-32.092
23273,-27.965,-33.163
23285,-28.062,-29.535
23297,-25.972,-27.317
23309,-28.355,-30.502
23320,-27.082,-28.256
23332,-26.088,-27.872
23344,-27.856,-27.754
23355,-29.637,-27.886
23367,-29.905,-26.567
23379,-30.251,-29.266
23391,-29.494,-30.404
23402,-28.867,-29.864
23414,-27.796,-26.241
23426,-27.415,-27.175
23438,-27.326,-29.816
23449,-28.842,-30.355
23461,-28.59,-25.807
23473,-28.062,-23.934
23484,-27.506,-26.863
23496,-30.625,-28.887
23508,-31.341,-27.039
23520,-32.472,-28.567
23531,-28.889,-29.761
23543,-29.297,-30.383
23555,-25.61,-31.204
23566,-27.357,-27.275
23578,-30.408,-29.475
23590,-34.396,-30.402
23602,-27.28,-28.529
23613,-25.753,-30.624
23625,-29.624,-32.037
23637,-28.756,-31.298
23648,-25.3,-29.783
23660,-26.147,-29.069
23672,-28.752,-27.33
23684,-30.855,-26.822
23695,-32.953,-27.029
23707,-30.556,-28.461
23719,-29.987,-32.653
23730,-28.469,-27.797
23742,-29.608,-28.449
23754,-28.866,-33.335
23766,-27.989,-31.662
23777,-29.316,-27.275
23789,-29.627,-24.12
23801,-26.69,-26.986
23813,-27.65,-28.543
23824,-30.967,-29.96
23836,-28.612,-30.918
23848,-29.494,-30.51
23859,-27.148,-29.667
23871,-29.873,-29.821
23883,-28.962,-30.527
23895,-25.227,-30.197
23906,-25.918,-28.334
23918,-27.228,-28.325
23930,-26.765,-30.17
23941,-20.007,-30.178
23953,-13.783,-27.993
23965,-19.268,-30.704
23977,-29.924,-30.925
23988,-29.905,-28.456
