FFT,Power Spectrum
Frequency[Hz],Level-L[dB],Level-R[dB]
11.719,-18.158,-21.264
23.438,2.5398,-0.077727
35.156,2.4676,1.0069
46.875,2.6372,-4.4492
58.594,7.812,4.6793
70.313,6.4895,4.4472
82.031,4.0738,1.8347
93.75,7.3626,5.4849
105.47,6.3614,5.8506
117.19,4.7846,5.1954
128.91,13.823,12.15
140.63,16.266,14
152.34,11.864,10.39
164.06,-1.8414,3.2887
175.78,7.2629,7.5943
187.5,13.011,12.177
199.22,11.736,9.8227
210.94,9.488,7.4376
222.66,5.2555,5.4178
234.38,7.2818,4.6764
246.09,6.0577,4.3286
257.81,6.8121,5.6127
269.53,5.0379,5.0915
281.25,4.9427,3.3284
292.97,7.0572,4.0118
304.69,7.2736,4.8909
316.41,5.4395,5.433
328.13,2.6381,3.932
339.84,1.3032,3.6621
351.56,3.5362,3.8574
363.28,4.2129,3.9308
375,4.4885,3.6834
386.72,5.9217,2.7988
398.44,7.0655,3.6595
410.16,6.3048,5.5624
421.88,9.367,5.387
433.59,16.622,3.7877
445.31,40.105,18.743
457.03,49.521,28.054
468.75,46.545,25.169
480.47,25.262,5.1167
492.19,10.569,0.77401
503.91,11.255,6.0117
515.63,5.9119,4.5089
527.34,7.8625,5.2575
539.06,6.0215,3.5768
550.78,2.4248,2.8628
562.5,6.0029,5.4527
574.22,8.8853,5.674
585.94,7.8861,4.4428
597.66,8.3281,7.0055
609.38,9.3156,6.5
621.09,8.7778,7.5051
632.81,4.5462,5.077
644.53,7.1754,4.8011
656.25,8.9479,5.5394
667.97,6.7875,3.8797
679.69,5.9833,3.7074
691.41,3.6468,4.9654
703.13,1.7465,5.4692
714.84,5.4021,3.6415
726.56,6.8705,4.7853
738.28,6.1553,6.3219
750,6.2543,6.9506
761.72,5.9461,6.76
773.44,5.7916,3.6488
785.16,2.7436,6.2745
796.88,1.4025,6.1758
808.59,3.7394,6.296
820.31,3.5615,6.2971
832.03,6.9465,4.1057
843.75,6.6224,3.3417
855.47,7.0725,3.3244
867.19,7.2351,4.1095
878.91,4.9333,5.6334
890.63,6.0956,5.8634
902.34,6.6017,6.6967
914.06,5.4133,4.0115
925.78,6.8556,7.8989
937.5,5.7232,3.5153
949.22,3.3317,3.2854
960.94,4.9744,3.6054
972.66,6.7334,4.5576
984.38,7.7928,5.2228
996.09,7.4243,3.6788
1007.8,8.4442,2.9304
1019.5,8.339,4.2652
1031.3,3.7085,4.001
1043,6.6715,1.0947
1054.7,8.0072,4.5465
1066.4,7.232,5.5154
1078.1,6.945,4.8983
1089.8,6.0624,6.4185
1101.6,4.3886,6.1118
1113.3,6.9532,5.5686
1125,8.6595,3.6947
1136.7,7.0603,3.1036
1148.4,5.318,4.1567
1160.2,4.853,3.8375
1171.9,7.6304,3.0116
1183.6,7.9653,4.7562
1195.3,7.4749,4.9769
1207,6.0236,4.1773
1218.8,5.099,4.5894
1230.5,6.9735,6.254
1242.2,6.6945,6.6881
1253.9,5.8876,4.3223
1265.6,4.5273,3.9714
1277.3,7.7983,7.5442
1289.1,8.8846,7.1754
1300.8,6.8619,4.7554
1312.5,3.2247,1.9487
1324.2,5.1384,3.8969
1335.9,4.322,5.0206
1347.7,5.9704,4.6906
1359.4,7.7195,1.5286
1371.1,8.3712,-2.2399
1382.8,10.041,6.2253
1394.5,3.4626,8.0659
1406.3,4.9574,4.0373
1418,9.26,2.2864
1429.7,9.0406,6.7571
1441.4,5.1105,4.3716
1453.1,2.7832,3.4314
1464.8,-0.91031,1.9464
1476.6,1.0685,2.4152
1488.3,3.0829,4.2642
1500,1.9461,5.274
1511.7,5.8918,4.7392
1523.4,7.2097,2.7433
1535.2,6.1564,1.7681
1546.9,6.3944,5.02
1558.6,9.374,6.6299
1570.3,6.7587,5.4966
1582,5.559,3.6115
1593.8,3.9814,5.2384
1605.5,5.5619,7.1503
1617.2,6.1412,7.1113
1628.9,6.2135,5.6566
1640.6,3.5957,-0.78857
1652.3,-0.89381,1.9568
1664.1,2.4592,4.9605
1675.8,1.5272,4.8622
1687.5,2.9422,4.0873
1699.2,2.5625,7.6533
1710.9,2.3997,7.5811
1722.7,5.3165,5.4204
1734.4,5.5993,5.5261
1746.1,3.8398,7.0793
1757.8,3.0885,2.7639
1769.5,4.2803,3.6356
1781.3,4.1891,2.981
1793,0.73842,-0.37729
1804.7,1.9535,2.9732
1816.4,1.0287,3.8155
1828.1,-0.59783,1.4199
1839.8,2.3595,7.2308
1851.6,5.1968,5.6588
1863.3,3.5861,3.4639
1875,0.57256,2.8162
1886.7,2.0949,0.34279
1898.4,2.6537,3.4019
1910.2,0.63648,2.1404
1921.9,1.5298,1.3224
1933.6,2.1236,2.8261
1945.3,5.3921,3.3278
1957,7.4831,1.6729
1968.8,6.9593,3.6721
1980.5,1.8889,2.2742
1992.2,2.0553,3.7531
2003.9,2.265,-1.4604
2015.6,1.7936,-0.64402
2027.3,1.7382,1.6115
2039.1,3.1815,1.9949
2050.8,1.7158,3.4037
2062.5,-0.26245,5.8151
2074.2,0.91228,5.4574
2085.9,3.3011,3.278
2097.7,4.6579,2.0257
2109.4,2.3559,1.0348
2121.1,0.17933,-0.98382
2132.8,1.6045,1.7358
2144.5,2.48,3.9924
2156.3,0.81272,2.795
2168,3.4191,2.2343
2179.7,3.4936,0.4155
2191.4,3.9349,1.3086
2203.1,3.7553,0.2818
2214.8,3.137,1.8532
2226.6,-1.0685,1.9833
2238.3,-0.63024,1.0884
2250,0.7454,0.28237
2261.7,1.3781,-0.47226
2273.4,-2.2902,1.7825
2285.2,0.53864,1.2436
2296.9,1.5358,0.23619
2308.6,0.086928,0.073948
2320.3,-0.96872,-1.0998
2332,2.2449,-2.4501
2343.8,3.7013,3.4216
2355.5,5.4494,1.2226
2367.2,4.822,2.0408
2378.9,2.9067,3.5623
2390.6,1.9868,-1.7866
2402.3,2.7542,-0.29243
2414.1,2.3787,-0.54634
2425.8,4.137,2.2135
2437.5,4.3181,3.5198
2449.2,3.812,1.0204
2460.9,0.62624,-1.8392
2472.7,1.9676,2.4103
2484.4,0.96268,1.8392
2496.1,1.3204,1.1472
2507.8,3.5803,1.6486
2519.5,3.4898,0.90278
2531.3,4.1277,1.2114
2543,3.4012,2.313
2554.7,0.13971,2.5912
2566.4,-0.31302,3.3298
2578.1,-0.33879,3.6482
2589.8,-1.9157,3.1336
2601.6,-2.7627,3.1595
2613.3,-1.0944,0.8296
2625,-1.0862,-0.43647
2636.7,1.5206,-3.2407
2648.4,1.0142,-2.0807
2660.2,1.1287,-0.39495
2671.9,3.0524,0.19638
2683.6,2.3381,2.9232
2695.3,-1.111,3.4824
2707,-0.049669,-0.61419
2718.8,-1.2383,-1.9733
2730.5,-3.2246,0.98435
2742.2,-1.5458,1.1947
2753.9,-0.047898,0.20442
2765.6,0.80026,-0.64849
2777.3,0.79112,1.3459
2789.1,-2.3212,1.1515
2800.8,-1.5904,-0.94782
2812.5,0.54202,-0.50422
2824.2,2.2408,0.27515
2835.9,-0.47387,-2.0504
2847.7,1.8724,-2.6893
2859.4,1.8828,0.52883
2871.1,-0.46348,-0.91341
2882.8,-2.9175,-0.81912
2894.5,-1.4458,0.4658
2906.3,2.2032,0.44975
2918,-1.9969,-2.3268
2929.7,-1.979,-2.3465
2941.4,-1.2455,-1.7578
2953.1,0.080045,1.4156
2964.8,0.022893,1.0632
2976.6,-2.1501,-0.92426
2988.3,-0.82697,-0.36773
3000,0.31713,1.2614
3011.7,-0.0082304,3.0835
3023.4,-0.81087,4.3114
3035.2,1.2466,2.5788
3046.9,2.6695,-1.2327
3058.6,-1.1902,-1.237
3070.3,-1.0413,0.90593
3082,-2.1992,-0.074457
3093.8,-0.41709,-1.8047
3105.5,-0.43917,-0.633
3117.2,-0.81381,-2.7262
3128.9,-0.78459,-0.088126
3140.6,0.871,-0.16482
3152.3,0.7025,2.4281
3164.1,-3.0236,0.37051
3175.8,-1.887,-3.1399
3187.5,-0.14547,-1.7283
3199.2,-1.2575,-2.0228
3210.9,3.694,-1.1444
3222.7,4.3826,-0.8262
3234.4,-0.97383,-0.4337
3246.1,0.98523,-1.4998
3257.8,1.3601,-1.5227
3269.5,-1.5368,-1.0967
3281.3,-3.4755,-2.6331
3293,-2.3418,-1.6515
3304.7,-3.6761,-0.7562
3316.4,-1.6674,-0.43729
3328.1,0.3293,1.6034
3339.8,-2.2516,1.0905
3351.6,0.39358,-0.21177
3363.3,-2.3806,0.58415
3375,-3.6752,-1.3574
3386.7,-4.0972,-1.5427
3398.4,-2.55,-0.24638
3410.2,-2.4813,-0.31382
3421.9,-2.2719,-1.3316
3433.6,-1.3792,-3.4363
3445.3,-3.9973,-2.0839
3457,-4.7338,-2.2568
3468.8,-1.3781,-3.9795
3480.5,0.26877,-2.7811
3492.2,-2.5286,-2.1716
3503.9,-4.269,0.017278
3515.6,-2.0815,-0.0028802
3527.3,0.028787,-0.62924
3539.1,-0.32962,0.06907
3550.8,-1.9692,-2.1781
3562.5,-4.3831,-0.14067
3574.2,-4.036,2.6029
3585.9,-0.76083,0.86284
3597.7,-0.29711,-6.8331
3609.4,1.4996,-2.3929
3621.1,1.4172,-0.88707
3632.8,1.061,-2.8651
3644.5,1.142,-3.6998
3656.3,-0.95945,-1.0654
3668,-1.1393,1.4601
3679.7,-1.8289,2.7543
3691.4,-1.6045,1.6925
3703.1,-0.70195,0.22943
3714.8,-0.58078,-0.32024
3726.6,-0.76441,-1.6319
3738.3,-0.34746,-0.37376
3750,-1.0352,-2.9762
3761.7,-2.505,-3.747
3773.4,-4.7606,-3.5788
3785.2,-3.293,-2.7863
3796.9,-1.072,-2.4329
3808.6,-1.0873,-1.6302
3820.3,-1.6347,-1.1669
3832,-0.23984,-1.9464
3843.8,-1.9195,-0.35725
3855.5,-3.5363,-2.743
3867.2,-3.5531,-0.41166
3878.9,-6.0063,0.78073
3890.6,-4.8802,-3.2721
3902.3,-1.6211,-2.7543
3914.1,-0.87009,-1.9112
3925.8,-3.5008,-3.7961
3937.5,-2.1327,-3.1526
3949.2,-0.27717,-0.35719
3960.9,-0.63021,-2.7935
3972.7,-1.8607,-0.95997
3984.4,-3.8977,1.1212
3996.1,-2.3541,-2.5633
4007.8,-1.3853,-3.5646
4019.5,-1.3976,-3.3319
4031.3,-3.8601,-2.1009
4043,-1.4695,0.72376
4054.7,-3.5129,-0.24435
4066.4,-3.2178,-2.2368
4078.1,0.28704,0.77794
4089.8,0.77122,-1.7898
4101.6,0.22396,-3.0282
4113.3,-1.8463,-1.1152
4125,-2.5713,-2.5073
4136.7,-0.20897,-5.1009
4148.4,-0.049758,-5.9671
4160.2,-0.074005,0.022141
4171.9,-1.2554,0.15073
4183.6,-0.95421,-1.6922
4195.3,-1.2002,-1.9837
4207,-2.0529,-3.514
4218.8,-3.3713,-2.1771
4230.5,1.1884,-2.9811
4242.2,2.6229,-1.398
4253.9,-0.47455,-1.8756
4265.6,-1.7527,1.0107
4277.3,-5.1968,-1.5857
4289.1,-5.0832,-6.4416
4300.8,-4.6831,-3.8304
4312.5,-4.8322,-3.3509
4324.2,-3.152,-1.3752
4335.9,-6.2324,-3.3665
4347.7,-3.4622,-3.1579
4359.4,-1.0566,-2.5495
4371.1,0.62671,-2.4607
4382.8,-1.4191,-3.7846
4394.5,-1.6675,-5.3809
4406.3,0.88247,-5.8104
4418,-1.1844,-3.5947
4429.7,-3.1437,-1.8376
4441.4,-2.2922,-2.1359
4453.1,-0.53052,-1.8396
4464.8,-0.27273,-2.3794
4476.6,-2.4257,-2.3422
4488.3,-2.0643,-3.4738
4500,-1.1804,-3.0656
4511.7,-2.7443,-2.1289
4523.4,-0.45416,-3.947
4535.2,-0.53664,-2.6126
4546.9,-4.4172,-2.2927
4558.6,-3.1982,-1.7938
4570.3,-4.0324,0.86901
4582,-7.5794,-0.027245
4593.8,-4.2337,-5.0426
4605.5,-3.8829,-6.4632
4617.2,-2.6364,-2.4221
4628.9,-1.5898,0.97025
4640.6,-5.6274,1.395
4652.3,-0.87721,-2.7508
4664.1,-1.3549,-3.0032
4675.8,-3.5119,-5.0829
4687.5,-3.0093,-3.6885
4699.2,-1.1774,-3.6346
4710.9,-4.0449,-4.4057
4722.7,-3.8539,-2.4199
4734.4,-2.4691,-2.4698
4746.1,-1.6917,-4.3943
4757.8,-4.3738,-3.3652
4769.5,-6.6868,-5.0309
4781.3,-5.6907,-4.9262
4793,-3.424,-1.1089
4804.7,-3.7695,-1.0249
4816.4,-2.4231,-1.4972
4828.1,-1.6548,0.33487
4839.8,-1.3301,-1.9898
4851.6,-4.1081,-4.3387
4863.3,-5.1806,-2.2248
4875,-3.3621,-4.0986
4886.7,-2.4872,-6.0692
4898.4,-4.1518,-1.2039
4910.2,-3.9783,-0.19491
4921.9,-5.824,-0.90087
4933.6,-2.1468,-7.666
4945.3,-0.77223,-6.574
4957,-1.3651,-7.07
4968.8,-3.1158,-6.3495
4980.5,-5.4608,-4.2211
4992.2,-4.8466,-5.3226
5003.9,-4.8763,-3.7785
5015.6,-3.263,-2.9724
5027.3,-4.5863,-3.4062
5039.1,-4.236,-4.7159
5050.8,0.7092,-6.4549
5062.5,2.3207,-4.3192
5074.2,-2.6752,-5.0817
5085.9,-3.6765,-4.8769
5097.7,-4.0733,-4.4752
5109.4,-2.9253,-6.1019
5121.1,-3.1836,-6.6741
5132.8,-2.6197,-2.6467
5144.5,-0.48607,-2.0708
5156.3,-3.6096,-2.4641
5168,-8.3229,-2.5916
5179.7,-3.2405,-3.5437
5191.4,-4.2552,-4.6854
5203.1,-5.8554,-4.201
5214.8,-3.6681,-4.2512
5226.6,-1.5317,-4.8857
5238.3,-1.7242,-4.1786
5250,-3.6944,-4.3539
5261.7,-4.8855,-3.5704
5273.4,-4.0213,-3.1409
5285.2,-5.483,-2.3612
5296.9,-6.385,-2.3819
5308.6,-6.5541,-4.6143
5320.3,-5.4048,-3.5981
5332,-6.3441,-2.5899
5343.8,-4.3566,-2.5011
5355.5,-2.9563,-4.8816
5367.2,-4.2292,-6.1781
5378.9,-2.9628,-7.2264
5390.6,-5.4964,-3.5445
5402.3,-3.66,-2.4217
5414.1,-2.7908,-5.0894
5425.8,-2.9426,-4.782
5437.5,-2.2878,-6.0166
5449.2,-1.1657,-7.3373
5460.9,-2.2943,-4.0183
5472.7,-5.2292,-3.4932
5484.4,-6.0944,-6.7258
5496.1,-5.2641,-2.3792
5507.8,-4.4917,-0.0026289
5519.5,-3.7555,0.41741
5531.3,-2.1186,-4.2666
5543,-1.7349,-3.2154
5554.7,-3.3782,-4.7946
5566.4,-4.7904,-2.7301
5578.1,-2.886,-1.2113
5589.8,-1.2967,-3.4442
5601.6,-0.14211,-4.0751
5613.3,-1.6859,-1.7931
5625,-3.7259,-1.8341
5636.7,-0.95463,-1.3595
5648.4,-2.9836,-5.2094
5660.2,-4.2056,-3.954
5671.9,-7.2608,-3.2506
5683.6,-6.1903,-3.4378
5695.3,-2.4779,-2.7047
5707,0.11366,-3.5829
5718.8,-0.38486,-4.6042
5730.5,-5.4004,-2.1015
5742.2,-5.2843,-4.382
5753.9,-0.8626,-2.4213
5765.6,-2.9363,-1.9553
5777.3,-4.8884,-4.1232
5789.1,-3.4568,-2.4634
5800.8,-2.8129,1.1208
5812.5,-3.4992,0.7753
5824.2,-2.5114,-0.2405
5835.9,-0.58499,-1.1303
5847.7,-2.4729,-2.1784
5859.4,-4.2515,-2.5917
5871.1,-3.1486,-1.7615
5882.8,-5.2704,-2.6783
5894.5,-5.9184,-8.4087
5906.3,-5.2886,-5.8273
5918,-5.0298,-3.645
5929.7,-1.4754,-6.3289
5941.4,-2.7789,-4.0277
5953.1,-4.7417,-3.4575
5964.8,-0.38626,-3.3532
5976.6,2.7436,-0.050247
5988.3,-2.3905,-1.124
6000,-2.6481,-3.3977
6011.7,-3.0093,-3.7474
6023.4,-8.0793,-3.7408
6035.2,-6.6827,-3.3042
6046.9,-4.7863,-4.2051
6058.6,-4.8389,-3.5576
6070.3,-2.6352,-3.2815
6082,-2.2106,-3.3585
6093.8,-4.0809,-3.8414
6105.5,-3.6429,-3.1187
6117.2,-3.3056,-5.4821
6128.9,-2.9275,-5.3056
6140.6,-2.7136,-4.4804
6152.3,-2.0273,-5.3338
6164.1,-2.003,-2.6126
6175.8,-1.7426,-1.3746
6187.5,-4.7936,-3.2893
6199.2,-4.4053,-4.3912
6210.9,-5.5735,-3.7115
6222.7,-6.0432,-3.3372
6234.4,-5.2404,-5.2743
6246.1,-2.7953,-6.411
6257.8,-2.6037,-5.0636
6269.5,-3.3682,-2.7965
6281.3,-3.5858,-2.6119
6293,-5.1506,-3.663
6304.7,-4.1612,-3.9891
6316.4,-2.3291,-4.4349
6328.1,-5.1569,-3.7491
6339.8,-5.9645,-4.333
6351.6,-5.1583,-5.3243
6363.3,-7.3301,-6.3212
6375,-7.997,-8.5285
6386.7,-6.2609,-6.0278
6398.4,-4.5,-4.7319
6410.2,-4.5097,-3.3935
6421.9,-4.9306,-2.8507
6433.6,-2.9422,-4.3255
6445.3,-4.2024,-1.4129
6457,-8.451,-1.3944
6468.8,-4.1465,-5.8315
6480.5,-3.9899,-6.3436
6492.2,-4.1278,-3.3233
6503.9,-8.3231,-2.1958
6515.6,-5.5632,-3.8381
6527.3,-4.7906,-9.1013
6539.1,-4.4737,-3.3685
6550.8,-4.6494,-3.5237
6562.5,-4.9628,-6.3
6574.2,-5.8436,-7.1149
6585.9,-7.4863,-6.969
6597.7,-6.6354,-6.2548
6609.4,-8.0803,-3.5318
6621.1,-8.0966,-3.6471
6632.8,-4.5293,-4.6913
6644.5,-3.9284,-4.3457
6656.3,-7.6567,-6.8617
6668,-7.9357,-3.7491
6679.7,-5.6451,-0.83082
6691.4,-7.8137,-2.6814
6703.1,-5.4413,-4.6285
6714.8,-7.0314,-3.68
6726.6,-4.5329,-4.759
6738.3,-4.144,-4.8821
6750,-5.7032,-8.466
6761.7,-7.5651,-3.5023
6773.4,-8.206,-2.9948
6785.2,-6.1503,-7.2948
6796.9,-6.1893,-9.1717
6808.6,-6.6393,-7.611
6820.3,-6.9296,-4.3047
6832,-4.363,-5.5279
6843.8,-4.6262,-7.4919
6855.5,-6.2219,-5.7095
6867.2,-5.5834,-4.7754
6878.9,-6.8523,-3.842
6890.6,-2.7044,-5.805
6902.3,-4.8289,-8.7945
6914.1,-6.4469,-7.2138
6925.8,-6.1865,-5.7837
6937.5,-8.3798,-4.5351
6949.2,-8.3307,-7.1352
6960.9,-8.3537,-4.5805
6972.7,-6.5916,-5.3203
6984.4,-5.935,-7.4338
6996.1,-7.5511,-6.8442
7007.8,-7.4636,-7.2172
7019.5,-8.5531,-7.2824
7031.3,-8.6321,-6.6391
7043,-5.7561,-8.2971
7054.7,-9.0412,-7.183
7066.4,-7.1518,-4.8524
7078.1,-6.2692,-5.8105
7089.8,-5.2563,-6.4155
7101.6,-6.0645,-5.9658
7113.3,-9.1918,-4.9667
7125,-9.4673,-5.0925
7136.7,-8.5102,-5.0183
7148.4,-7.823,-3.987
7160.2,-9.205,-6.2076
7171.9,-9.6949,-8.315
7183.6,-8.3922,-8.3641
7195.3,-4.097,-6.9167
7207,-2.6359,-7.28
7218.8,-2.0884,-8.3255
7230.5,-3.7195,-6.595
7242.2,-5.8135,-6.2446
7253.9,-3.7378,-8.6284
7265.6,-5.3444,-9.4967
7277.3,-5.5414,-12.779
7289.1,-6.3994,-9.7193
7300.8,-5.5354,-9.6658
7312.5,-6.7262,-7.7107
7324.2,-7.7622,-4.1594
7335.9,-6.5851,-5.2451
7347.7,-8.701,-6.9218
7359.4,-9.8174,-6.6816
7371.1,-8.0758,-5.3101
7382.8,-4.5028,-3.5934
7394.5,-5.4718,-4.1194
7406.3,-7.8151,-8.7577
7418,-5.632,-8.4794
7429.7,-4.9369,-7.0859
7441.4,-7.0848,-9.1411
7453.1,-8.172,-10.968
7464.8,-7.6998,-10.947
7476.6,-6.8866,-8.3643
7488.3,-7.45,-7.8042
7500,-8.0074,-8.2521
7511.7,-8.2849,-6.3539
7523.4,-8.9859,-8.8979
7535.2,-5.3445,-6.6525
7546.9,-5.9232,-8.8137
7558.6,-5.868,-7.0913
7570.3,-7.6621,-4.7859
7582,-7.9238,-6.9493
7593.8,-7.4049,-6.073
7605.5,-8.4688,-6.9642
7617.2,-8.4432,-7.3708
7628.9,-9.0501,-5.3195
7640.6,-7.283,-4.5008
7652.3,-7.8752,-6.3407
7664.1,-9.8492,-7.031
7675.8,-9.7591,-5.8214
7687.5,-6.9735,-4.3876
7699.2,-7.9417,-7.1038
7710.9,-8.2815,-9.0435
7722.7,-6.5457,-7.7616
7734.4,-9.0786,-11.123
7746.1,-10.528,-7.5576
7757.8,-8.2466,-4.7533
7769.5,-7.4839,-5.4196
7781.3,-7.8096,-7.9469
7793,-8.1381,-6.6465
7804.7,-7.7199,-5.5935
7816.4,-5.9968,-8.7007
7828.1,-7.4042,-6.5524
7839.8,-7.5865,-5.0108
7851.6,-8.3081,-6.6067
7863.3,-9.6514,-12.075
7875,-8.8539,-13.122
7886.7,-8.7584,-12.928
7898.4,-6.6209,-12.978
7910.2,-8.4194,-12.001
7921.9,-5.857,-11.857
7933.6,-7.0176,-8.6485
7945.3,-9.7312,-5.5588
7957,-11.076,-6.774
7968.8,-11.452,-7.8721
7980.5,-10.21,-12.775
7992.2,-8.5959,-11.238
8003.9,-10.57,-9.2619
8015.6,-11.609,-10.578
8027.3,-11.047,-11.411
8039.1,-8.0482,-6.5286
8050.8,-7.3752,-7.1843
8062.5,-8.1815,-7.9613
8074.2,-4.1195,-7.0576
8085.9,-5.5817,-9.256
8097.7,-7.296,-9.213
8109.4,-8.1222,-7.0964
8121.1,-9.6226,-7.7318
8132.8,-9.4756,-6.611
8144.5,-9.2473,-8.3725
8156.3,-9.595,-9.382
8168,-9.6681,-8.6525
8179.7,-9.8721,-7.4149
8191.4,-10.095,-9.2833
8203.1,-8.5015,-9.2495
8214.8,-10.049,-7.3446
8226.6,-10.21,-5.6778
8238.3,-7.9885,-7.9066
8250,-3.8367,-10.768
8261.7,-7.0545,-11.126
8273.4,-10.475,-9.8926
8285.2,-7.4217,-9.6937
8296.9,-5.5874,-9.8134
8308.6,-8.5789,-8.6141
8320.3,-9.9829,-7.5491
8332,-9.9382,-6.6552
8343.8,-9.2708,-9.0496
8355.5,-8.9317,-11.344
8367.2,-8.8325,-9.1083
8378.9,-9.8968,-8.1356
8390.6,-10.64,-8.5644
8402.3,-10.348,-10.409
8414.1,-8.3039,-8.7408
8425.8,-7.4248,-9.8041
8437.5,-7.5896,-10.816
8449.2,-8.2118,-10.217
8460.9,-10.479,-5.7222
8472.7,-11.979,-4.2546
8484.4,-10.872,-7.6171
8496.1,-9.1038,-8.7486
8507.8,-8.0874,-7.8535
8519.5,-7.4384,-8.8463
8531.3,-7.7744,-9.4034
8543,-6.8572,-8.9985
8554.7,-9.8142,-9.4529
8566.4,-7.7808,-9.0286
8578.1,-10.053,-11.486
8589.8,-10.104,-11.593
8601.6,-6.8594,-11.763
8613.3,-9.7444,-13.062
8625,-8.7144,-8.7131
8636.7,-8.2801,-11.192
8648.4,-9.6194,-10.192
8660.2,-8.4583,-9.6196
8671.9,-7.8862,-13.694
8683.6,-10.669,-9.3059
8695.3,-9.5045,-6.9876
8707,-7.7485,-8.3402
8718.8,-7.3654,-8.8343
8730.5,-4.3455,-8.6384
8742.2,-4.7011,-7.6812
8753.9,-11.323,-8.8576
8765.6,-14.184,-11.152
8777.3,-9.6516,-9.3071
8789.1,-10.27,-8.4602
8800.8,-10.619,-10.141
8812.5,-9.9859,-13.608
8824.2,-9.9058,-12.859
8835.9,-9.1127,-11.327
8847.7,-8.5592,-11.469
8859.4,-10.677,-13.638
8871.1,-11.239,-12.128
8882.8,-13.316,-11.155
8894.5,-8.1127,-8.451
8906.3,-8.8812,-8.8777
8918,-9.8181,-9.3867
8929.7,-12.064,-8.0036
8941.4,-10.127,-9.7892
8953.1,-6.0086,-16.076
8964.8,-5.1257,-10.463
8976.6,-6.4413,-11.683
8988.3,-8.6203,-6.6001
9000,-9.7914,-7.1694
9011.7,-9.3058,-11.964
9023.4,-8.7647,-10.583
9035.2,-7.4186,-9.7726
9046.9,-7.9407,-9.4411
9058.6,-7.1388,-8.1106
9070.3,-6.9661,-9.0804
9082,-7.7281,-11.507
9093.8,-9.2187,-10.553
9105.5,-9.3718,-11.275
9117.2,-9.0413,-11.668
9128.9,-9.5769,-9.1077
9140.6,-10.497,-9.0057
9152.3,-12.346,-11.699
9164.1,-9.782,-12.907
9175.8,-7.7146,-9.4877
9187.5,-7.6828,-9.111
9199.2,-9.7127,-11.273
9210.9,-9.9558,-13.724
9222.7,-9.3415,-13.215
9234.4,-11.464,-7.6074
9246.1,-11.764,-5.3283
9257.8,-12.697,-9.5613
9269.5,-11.874,-11.023
9281.3,-10.757,-11.679
9293,-10.477,-10.182
9304.7,-8.7769,-7.8224
9316.4,-9.3529,-8.6617
9328.1,-13.089,-10.003
9339.8,-9.9132,-10.695
9351.6,-10.993,-11.441
9363.3,-10.479,-10.511
9375,-10.139,-9.7154
9386.7,-8.6286,-6.5112
9398.4,-10.423,-7.0358
9410.2,-10.372,-10.272
9421.9,-10.703,-11.099
9433.6,-12.494,-9.6568
9445.3,-9.198,-9.3308
9457,-9.1238,-8.5296
9468.8,-10.107,-12.571
9480.5,-9.8084,-15.572
9492.2,-10.977,-10.505
9503.9,-9.5555,-10.268
9515.6,-10.429,-11.083
9527.3,-10.575,-13.452
9539.1,-11.889,-13.355
9550.8,-11.156,-10.231
9562.5,-10.024,-8.5676
9574.2,-7.9263,-9.6713
9585.9,-7.786,-10.402
9597.7,-8.1392,-13.201
9609.4,-8.6249,-13.935
9621.1,-7.7658,-11.356
9632.8,-8.9391,-8.3442
9644.5,-10.302,-8.3538
9656.3,-8.9869,-13.862
9668,-6.9616,-12.944
9679.7,-9.2654,-12.778
9691.4,-9.9543,-9.9788
9703.1,-8.9147,-10.009
9714.8,-8.5955,-12.839
9726.6,-10.864,-10.223
9738.3,-14.118,-9.9353
9750,-10.996,-7.677
9761.7,-6.9586,-9.1783
9773.4,-8.8961,-8.4897
9785.2,-11.438,-9.9168
9796.9,-11.938,-8.4705
9808.6,-11.915,-10.36
9820.3,-13.292,-10.908
9832,-11.153,-9.2733
9843.8,-9.1717,-9.3833
9855.5,-8.317,-9.5839
9867.2,-7.5485,-14.5
9878.9,-11.599,-14.281
9890.6,-9.1918,-14.197
9902.3,-7.0561,-12.852
9914.1,-8.3357,-12.382
9925.8,-8.5946,-10.443
9937.5,-11.994,-7.6005
9949.2,-11.666,-11.776
9960.9,-11.434,-12.796
9972.7,-13.791,-10.27
9984.4,-12.903,-9.7986
9996.1,-10.358,-9.3909
10008,-11.228,-10.822
10020,-10.579,-12.949
10031,-12.904,-11.838
10043,-11.806,-9.916
10055,-9.1138,-10.81
10066,-7.622,-10.366
10078,-8.118,-10.314
10090,-11.31,-11.856
10102,-11.483,-11.546
10113,-9.6776,-9.8363
10125,-8.6927,-10.552
10137,-7.8013,-10.064
10148,-9.2184,-13.142
10160,-13.891,-12.38
10172,-12.25,-11.684
10184,-12.535,-7.927
10195,-10.84,-10.18
10207,-9.9089,-13.427
10219,-11.932,-15.737
10230,-10.152,-12.668
10242,-10.872,-9.7695
10254,-14.369,-13.555
10266,-12.334,-15.402
10277,-9.2276,-13.12
10289,-8.0758,-12.568
10301,-9.6991,-11.992
10313,-13.937,-9.7402
10324,-10.052,-10.817
10336,-11.069,-11.611
10348,-11.268,-10.429
10359,-9.4717,-12.611
10371,-9.367,-12.832
10383,-10.228,-11.167
10395,-8.9699,-9.9616
10406,-10.256,-11.64
10418,-11.731,-11.533
10430,-13.438,-12.554
10441,-11.712,-11.089
10453,-9.6974,-10.809
10465,-11.652,-9.2678
10477,-11.771,-8.5377
10488,-11.851,-8.5797
10500,-14.226,-10.529
10512,-11.105,-12.277
10523,-9.9741,-12.261
10535,-10.626,-15.141
10547,-11.121,-12.09
10559,-8.6778,-12.645
10570,-6.2138,-12.768
10582,-7.8401,-12.688
10594,-12.782,-11.888
10605,-14.636,-10.272
10617,-14.053,-11.38
10629,-12.175,-14.046
10641,-10.996,-12.57
10652,-11.135,-14.011
10664,-14.859,-14.649
10676,-16.43,-15.548
10688,-14.991,-13.484
10699,-13.028,-11.233
10711,-12.521,-11.082
10723,-10.146,-11.493
10734,-8.8839,-13.953
10746,-9.8193,-15.984
10758,-11.838,-13.573
10770,-11.303,-13.905
10781,-12.614,-14.768
10793,-11.892,-13.689
10805,-9.0575,-13.238
10816,-9.0185,-13.915
10828,-11.862,-13.165
10840,-12.082,-14.051
10852,-11.144,-14.173
10863,-10.922,-13.725
10875,-13.242,-12.419
10887,-10.153,-13.396
10898,-10.758,-12.825
10910,-10.842,-11.698
10922,-9.0284,-13.108
10934,-8.424,-11.96
10945,-9.969,-10.704
10957,-13.822,-12.479
10969,-12.398,-13.49
10980,-12.108,-12.433
10992,-13.139,-11.632
11004,-14.065,-10.486
11016,-13.695,-11.387
11027,-8.8851,-11.155
11039,-9.2141,-10.103
11051,-11.028,-10.916
11063,-11.26,-16.503
11074,-8.5937,-12.629
11086,-10.064,-14.038
11098,-13.45,-12.51
11109,-9.4359,-11.816
11121,-8.0639,-8.6138
11133,-9.5549,-11.619
11145,-9.6058,-11.625
11156,-11.843,-10.366
11168,-11.79,-12.937
11180,-10.813,-15.232
11191,-9.6513,-12.55
11203,-10.217,-11.485
11215,-10.516,-11.962
11227,-11.1,-9.669
11238,-11.632,-13.004
11250,-10.515,-11.717
11262,-11.048,-10.143
11273,-12.397,-8.4678
11285,-9.7743,-8.9816
11297,-10.366,-12.093
11309,-8.7069,-16.809
11320,-10.883,-16.959
11332,-11.907,-12.899
11344,-12.38,-11.07
11355,-13.197,-11.561
11367,-9.2661,-14.264
11379,-9.2569,-13.454
11391,-8.7126,-9.5384
11402,-10.238,-9.9523
11414,-9.3451,-11.272
11426,-10.18,-11.445
11438,-10.804,-13.996
11449,-8.4274,-12.591
11461,-10.048,-11.305
11473,-9.6145,-11.571
11484,-10.076,-12.918
11496,-11.785,-12.636
11508,-9.8555,-13.301
11520,-9.8012,-15.349
11531,-11.673,-14.268
11543,-10.259,-13.659
11555,-9.7453,-12.881
11566,-8.8029,-13.412
11578,-8.7557,-14.259
11590,-10.161,-13.967
11602,-8.9644,-14.403
11613,-10.622,-12.121
11625,-9.3162,-13.355
11637,-10.532,-13.247
11648,-9.213,-11.955
11660,-10.528,-12.414
11672,-7.9993,-14.91
11684,-7.4586,-16.821
11695,-10.139,-14.687
11707,-12.565,-13.424
11719,-11.027,-14.333
11730,-8.2147,-13.617
11742,-6.0316,-13.514
11754,-6.3547,-13.106
11766,-9.2079,-11.771
11777,-15.003,-11.111
11789,-9.9308,-10.853
11801,-7.8861,-12.534
11813,-7.7977,-13.994
11824,-10.329,-13.867
11836,-8.3044,-12.943
11848,-7.284,-13.622
11859,-10.09,-13.38
11871,-11.234,-13.307
11883,-11.632,-15.553
11895,-10.333,-16
11906,-11.396,-15.306
11918,-13.618,-14.471
11930,-11.806,-13.557
11941,-6.835,-12.529
11953,-2.8343,-14.227
11965,-5.3273,-14.22
11977,-9.8433,-12.744
11988,-10.061,-13.249
12000,-9.3194,-14.991
12012,-9.9297,-18.52
12023,-10.703,-15.968
12035,-9.0702,-13.392
12047,-13.162,-12.795
12059,-11.789,-10.009
12070,-8.4896,-9.1932
12082,-10.65,-11.478
12094,-13.809,-13.811
12105,-8.7833,-13.187
12117,-11.095,-13.224
12129,-9.6965,-15.536
12141,-8.039,-13.273
12152,-10.332,-14.359
12164,-13.232,-15.027
12176,-11.15,-13.762
12188,-8.4641,-12.64
12199,-7.7118,-12.962
12211,-7.2447,-15.549
12223,-9.4999,-13.406
12234,-9.1735,-13.012
12246,-8.8671,-10.517
12258,-10.833,-10.922
12270,-9.1267,-12.615
12281,-9.0406,-11.649
12293,-8.8105,-12.639
12305,-8.5986,-14.085
12316,-9.6587,-17.101
12328,-9.7685,-14.881
12340,-11.895,-14.744
12352,-13.817,-15.332
12363,-14.077,-11.863
12375,-13.644,-13.178
12387,-9.6586,-15.487
12398,-5.5667,-14.627
12410,-4.845,-15.517
12422,-5.7175,-13.373
12434,-11.447,-14.431
12445,-12.156,-16.308
12457,-12.257,-16.745
12469,-10.038,-16.956
12480,-11.207,-16.438
12492,-10.55,-12.785
12504,-9.2255,-14.265
12516,-11.805,-13.763
12527,-11.786,-12.816
12539,-8.6549,-12.148
12551,-8.6086,-11.955
12563,-8.1668,-12.141
12574,-7.5863,-15.659
12586,-8.1591,-13.525
12598,-8.9544,-16.14
12609,-7.555,-16.801
12621,-10.177,-13.621
12633,-8.4166,-13.892
12645,-9.3937,-12.88
12656,-9.1371,-13.909
12668,-6.8037,-14.053
12680,-7.3807,-17.002
12691,-9.0844,-12.743
12703,-10.195,-11.056
12715,-9.977,-14.005
12727,-11.729,-14.475
12738,-12.515,-15.42
12750,-9.7352,-16.439
12762,-7.4283,-12.84
12773,-9.1208,-14.198
12785,-9.8509,-16.973
12797,-9.24,-16.369
12809,-9.1284,-17.317
12820,-10.565,-18.591
12832,-10.895,-13.958
12844,-9.36,-11.559
12855,-9.1265,-13.406
12867,-7.1702,-16.807
12879,-6.5421,-12.463
12891,-11.696,-12.279
12902,-10.413,-15.224
12914,-10.301,-15.052
12926,-12.661,-12.198
12938,-9.9571,-11.387
12949,-7.7366,-13.036
12961,-9.8289,-11.989
12973,-15.094,-14.497
12984,-13.72,-14.562
12996,-10.261,-13.712
13008,-9.074,-13.866
13020,-11.518,-13.409
13031,-11.61,-11.46
13043,-11.171,-9.7571
13055,-12.423,-12.296
13066,-14.461,-12.484
13078,-15.598,-13.247
13090,-11.823,-11.973
13102,-10.739,-11.011
13113,-10.449,-12.398
13125,-8.2152,-13.852
13137,-9.8824,-15.23
13148,-13.207,-16.195
13160,-12.743,-14.554
13172,-11.387,-16.137
13184,-13.676,-16.643
13195,-15.23,-16.271
13207,-14.658,-14.708
13219,-12.291,-13.528
13230,-10.008,-17.937
13242,-9.1421,-16.456
13254,-9.8817,-18.693
13266,-9.0975,-18.476
13277,-10.038,-17.212
13289,-12.319,-13.864
13301,-13.846,-12.415
13313,-11.607,-12.034
13324,-13.787,-11.364
13336,-11.725,-13.241
13348,-12.069,-16.586
13359,-14.073,-17.919
13371,-11.662,-16.765
13383,-11.318,-15.918
13395,-11.717,-18.467
13406,-11.591,-17.662
13418,-13.977,-15.475
13430,-14.773,-13.834
13441,-13.927,-15.56
13453,-11.725,-14.925
13465,-12.909,-14.299
13477,-14.37,-14.246
13488,-12.489,-14.965
13500,-11.275,-14.025
13512,-13.879,-12.932
13523,-14.086,-16.246
13535,-12.418,-15.781
13547,-12.783,-12.117
13559,-11.297,-10.73
13570,-11.012,-14.914
13582,-11.855,-15.662
13594,-13.214,-15.268
13605,-13.196,-16.872
13617,-12.076,-14.139
13629,-11.563,-15.992
13641,-12.656,-15.631
13652,-12.069,-15.173
13664,-10.901,-13.566
13676,-11.857,-14.906
13688,-13.303,-16.124
13699,-13.617,-16.691
13711,-12.856,-16.569
13723,-12.085,-15.636
13734,-10.3,-12.907
13746,-11.418,-11.831
13758,-12.298,-13.466
13770,-12.73,-14.272
13781,-15.41,-17.244
13793,-15.03,-16.979
13805,-13.449,-14.427
13816,-13.322,-12.514
13828,-13.493,-14.147
13840,-15.282,-13.859
13852,-14.465,-15.156
13863,-14.815,-16.388
13875,-13.065,-13.776
13887,-13.383,-16.078
13898,-12.712,-16.585
13910,-12.744,-14.285
13922,-12.035,-13.449
13934,-10.353,-14.042
13945,-14.76,-13.368
13957,-12.044,-12.998
13969,-12.31,-14.093
13980,-12.169,-14.7
13992,-16.04,-14.962
14004,-15.424,-14.586
14016,-11.33,-14.758
14027,-11.924,-14.248
14039,-13.132,-16.212
14051,-14.646,-17.004
14063,-14.095,-15.172
14074,-11.861,-14.714
14086,-12.019,-14.738
14098,-11.965,-16.506
14109,-12.558,-17.79
14121,-12.696,-15.694
14133,-11.981,-15.613
14145,-13.283,-15.113
14156,-13.742,-14.828
14168,-16.097,-13.488
14180,-14.459,-13.926
14191,-12.752,-15.081
14203,-12.415,-14.836
14215,-12.285,-18.195
14227,-11.293,-18.815
14238,-14.363,-15.685
14250,-14.434,-14.772
14262,-12.982,-14.781
14273,-10.545,-18.353
14285,-12.945,-17.58
14297,-13.823,-15.296
14309,-13.494,-15.554
14320,-16.766,-16.068
14332,-16.587,-13.192
14344,-15.431,-11.615
14355,-16.264,-14.739
14367,-17.317,-18.339
14379,-17.558,-13.898
14391,-14.69,-15.356
14402,-14.76,-17.946
14414,-15.8,-16.422
14426,-18.413,-17.742
14438,-16.83,-16.917
14449,-14.447,-16.771
14461,-14.037,-16.765
14473,-13.193,-15.828
14484,-18.87,-15.327
14496,-13.087,-18.632
14508,-12.567,-14.474
14520,-13.537,-14.24
14531,-16.983,-16.714
14543,-18.002,-19.297
14555,-16.891,-18.702
14566,-15.417,-18.195
14578,-16.817,-18.819
14590,-16.192,-18.677
14602,-14.861,-16.687
14613,-15.868,-14.52
14625,-16.016,-15.514
14637,-14.238,-17.288
14648,-13.545,-19.622
14660,-16.107,-18.136
14672,-17.71,-18.671
14684,-17.564,-16.441
14695,-15.347,-16.462
14707,-14.356,-16.803
14719,-12.568,-16.859
14730,-15.016,-16.709
14742,-15.757,-15.23
14754,-17.161,-14.862
14766,-17.071,-19.53
14777,-16.937,-20.486
14789,-14.798,-18.331
14801,-14.341,-15.817
14813,-13.74,-13.418
14824,-13.124,-15.014
14836,-13.728,-14.982
14848,-13.444,-18.105
14859,-12.89,-20.882
14871,-16.422,-18.433
14883,-18.381,-17.804
14895,-15.738,-15.621
14906,-14.545,-15.086
14918,-15.765,-12.228
14930,-17.833,-12.921
14941,-14.158,-16.524
14953,-15.665,-17.74
14965,-15.334,-16.809
14977,-15.014,-17.581
14988,-17.421,-17.792
15000,-15.497,-15.84
15012,-13.08,-16.827
15023,-14.712,-20.02
15035,-15.812,-19.04
15047,-16.147,-17.76
15059,-18.169,-17.034
15070,-17.694,-17.481
15082,-17.455,-16.345
15094,-14.973,-16.187
15105,-15.524,-17.754
15117,-14.205,-16.267
15129,-15.803,-15.981
15141,-17.852,-16.703
15152,-17.097,-15.868
15164,-15.094,-17.492
15176,-14.357,-18.096
15188,-12.639,-15.722
15199,-16.266,-16.442
15211,-14.684,-17.596
15223,-14.357,-16.28
15234,-17.691,-15.76
15246,-16.565,-16.512
15258,-19.071,-17.811
15270,-16.73,-20.6
15281,-16.249,-20.403
15293,-17.633,-20.865
15305,-16.4,-15.357
15316,-15.759,-14.815
15328,-17.834,-18.424
15340,-17.689,-18.565
15352,-14.897,-17.59
15363,-13.483,-19.309
15375,-14.368,-18.369
15387,-16.118,-17.475
15398,-14.785,-15.139
15410,-17.468,-16.153
15422,-15.621,-18.806
15434,-16.215,-20.475
15445,-17.99,-16.324
15457,-17.393,-16.798
15469,-14.319,-18.367
15480,-14.874,-20.41
15492,-16.677,-20.388
15504,-18.482,-22.482
15516,-17.825,-20.909
15527,-16.591,-20.172
15539,-15.414,-20.71
15551,-18.466,-19.881
15563,-17.377,-16.458
15574,-16.012,-16.136
15586,-17.281,-17.523
15598,-22.282,-19.914
15609,-15.794,-19.776
15621,-15.303,-19.703
15633,-16.347,-21.578
15645,-14.757,-18.794
15656,-14.045,-18.942
15668,-14.633,-21.708
15680,-14.296,-20.613
15691,-14.183,-15.934
15703,-15.069,-17.281
15715,-14.589,-20.388
15727,-16.841,-22.389
15738,-16.019,-20.429
15750,-16.335,-20.362
15762,-16.186,-18.515
15773,-16.278,-21.23
15785,-16.273,-21.032
15797,-19.496,-20.539
15809,-18.51,-17.278
15820,-15.82,-16.03
15832,-16.275,-19.566
15844,-15.501,-20.504
15855,-15.934,-18.848
15867,-15.474,-17.674
15879,-15.859,-15.139
15891,-17.75,-14.015
15902,-21.111,-14.062
15914,-18.885,-20.207
15926,-16.668,-18.71
15938,-18.184,-19.087
15949,-17.167,-20.647
15961,-16.343,-20.627
15973,-17.978,-21.638
15984,-18.955,-19.154
15996,-20.289,-17.818
16008,-18.683,-21.19
16020,-16.186,-18.706
16031,-17.078,-17.055
16043,-16.055,-18.841
16055,-15.523,-19.011
16066,-16.028,-17.332
16078,-13.326,-19.178
16090,-11.438,-19.056
16102,-16.222,-19.562
16113,-18.219,-19.022
16125,-17.921,-17.406
16137,-19.756,-17.288
16148,-18.204,-19.121
16160,-15.86,-21.25
16172,-15.975,-19.753
16184,-19.943,-20.538
16195,-17.265,-16.634
16207,-15.93,-18.49
16219,-17.533,-18.74
16230,-17.935,-17.803
16242,-20.083,-18.322
16254,-21.714,-18.033
16266,-18.173,-18.51
16277,-18.437,-21.804
16289,-17.836,-20.371
16301,-16.098,-21.118
16313,-15.634,-20.346
16324,-15.594,-20.551
16336,-16.487,-21.518
16348,-18.328,-20.591
16359,-17.984,-19.72
16371,-13.699,-19.643
16383,-13.703,-21.229
16395,-17.137,-20.07
16406,-18.603,-19.664
16418,-17.737,-19.053
16430,-15.931,-19.876
16441,-16.355,-21.587
16453,-14.829,-18.875
16465,-14.643,-20.103
16477,-14.826,-20.725
16488,-15.787,-18.974
16500,-17.769,-21.916
16512,-18.204,-22.188
16523,-17.142,-20.562
16535,-18.032,-21.181
16547,-14.845,-19.868
16559,-16.067,-20.058
16570,-16.031,-17.305
16582,-19.278,-19.505
16594,-21.796,-21.182
16605,-21.198,-17.252
16617,-17.795,-19.301
16629,-17.614,-21.321
16641,-17.386,-18.626
16652,-16.657,-19.077
16664,-16.77,-20.55
16676,-17.112,-19.766
16688,-17.222,-21.147
16699,-16.652,-20.432
16711,-15.401,-22.626
16723,-15.839,-21.816
16734,-17.347,-21.3
16746,-21.403,-16.985
16758,-20.04,-18.517
16770,-20.582,-21.864
16781,-19.629,-20.309
16793,-19.894,-20.996
16805,-17.721,-18.631
16816,-17.683,-19.869
16828,-19.903,-20.238
16840,-19.358,-18.466
16852,-21.444,-17.205
16863,-18.178,-18.313
16875,-20.08,-18.988
16887,-21.448,-18.534
16898,-18.375,-17.274
16910,-19.27,-16.576
16922,-20.355,-18.229
16934,-19.449,-20.637
16945,-18.999,-20.631
16957,-19.88,-20.009
16969,-21.459,-20.776
16980,-22.172,-21.377
16992,-19.478,-20.662
17004,-18.793,-20.799
17016,-18.85,-19.886
17027,-17.914,-19.087
17039,-16.358,-20.19
17051,-18.567,-21.513
17063,-19.138,-22.304
17074,-18.704,-22.275
17086,-20.058,-22.007
17098,-22.726,-22.457
17109,-24,-21.192
17121,-22.9,-20.549
17133,-18.772,-20.34
17145,-17.894,-17.858
17156,-19.406,-18.992
17168,-23.122,-20.206
17180,-23.315,-20.869
17191,-19.481,-23.23
17203,-21.766,-24.142
17215,-18.842,-22.29
17227,-18.861,-24.14
17238,-19.724,-21.462
17250,-20.022,-22.371
17262,-17.966,-22.686
17273,-19.918,-20.67
17285,-21.083,-23.144
17297,-19.364,-24.221
17309,-19.121,-20.041
17320,-20.18,-20.596
17332,-17.425,-20.86
17344,-19.286,-19.178
17355,-19.509,-23.226
17367,-19.324,-22.976
17379,-18.302,-21.458
17391,-17.162,-20.045
17402,-19.296,-18.293
17414,-21.159,-16.96
17426,-20.487,-21.32
17438,-20.303,-23.889
17449,-21.127,-20.243
17461,-18.722,-22.303
17473,-18.797,-22.565
17484,-18.984,-21.424
17496,-16.015,-20.023
17508,-17.596,-24.718
17520,-20.597,-24.31
17531,-19.885,-23.159
17543,-20.16,-23.598
17555,-19.441,-20.205
17566,-21.07,-22.192
17578,-24.243,-22.975
17590,-22.511,-21.625
17602,-20.439,-21.162
17613,-18.395,-20.578
17625,-18.762,-22.505
17637,-23.888,-22.385
17648,-26.772,-22.389
17660,-20.792,-22.042
17672,-18.906,-21.861
17684,-20.568,-20.516
17695,-23.086,-22.515
17707,-24.427,-24.714
17719,-23.766,-23.405
17730,-21.824,-23.281
17742,-20.363,-21.367
17754,-20.951,-22.554
17766,-22.509,-26.074
17777,-23.383,-24.249
17789,-21.561,-23.877
17801,-22.109,-21.363
17813,-20.834,-20.89
17824,-23.561,-21.648
17836,-23.753,-21.202
17848,-25.329,-24.762
17859,-25.06,-23.627
17871,-23.533,-18.853
17883,-22.511,-18.097
17895,-22.429,-19.005
17906,-23.192,-17.016
17918,-23.104,-17.092
17930,-20.106,-22.003
17941,-22.951,-24.292
17953,-20.84,-20.608
17965,-18.888,-22.826
17977,-21.968,-21.851
17988,-23.154,-21.566
18000,-17.841,-24.656
18012,-18.082,-23.625
18023,-24.191,-22.872
18035,-23.948,-24.607
18047,-22.05,-25.038
18059,-20.581,-26.578
18070,-21.757,-27.403
18082,-25.625,-25.095
18094,-21.852,-21.658
18105,-22.778,-20.974
18117,-22.481,-23.866
18129,-19.96,-21.849
18141,-21.005,-23.465
18152,-22.739,-26.464
18164,-21.87,-23.493
18176,-23.113,-22.46
18188,-23.404,-20.907
18199,-24.744,-19.23
18211,-21.892,-22.121
18223,-21.381,-24.746
18234,-21.478,-23.302
18246,-19.653,-25.868
18258,-20.126,-24.026
18270,-23.328,-21.747
18281,-19.749,-20.698
18293,-21.66,-19.717
18305,-23.014,-20.345
18316,-24.034,-21.021
18328,-24.481,-21.091
18340,-24.299,-25.575
18352,-22.703,-23.123
18363,-21.274,-19.699
18375,-21.412,-20.381
18387,-22.028,-21.702
18398,-23.59,-21.331
18410,-24.024,-21.038
18422,-23.406,-21.982
18434,-22.735,-22.062
18445,-21.894,-21.246
18457,-24.346,-22.223
18469,-24.344,-22.07
18480,-25.023,-23.05
18492,-23.87,-22.916
18504,-24.504,-22.178
18516,-23.942,-24.612
18527,-21.297,-23.494
18539,-23.242,-21.819
18551,-21.73,-20.226
18563,-21.523,-21.283
18574,-20.585,-21.219
18586,-18.661,-23.945
18598,-18.238,-23.741
18609,-20.584,-26.424
18621,-21.769,-26.163
18633,-20.203,-23.02
18645,-19.399,-20.277
18656,-22.209,-21.101
18668,-22.159,-26.338
18680,-20.701,-25.25
18691,-22.681,-21.28
18703,-22.748,-22.407
18715,-24.335,-22.891
18727,-24.666,-23.948
18738,-24.583,-22.647
18750,-25.446,-20.724
18762,-23.113,-21.714
18773,-20.906,-20.46
18785,-22.114,-21.246
18797,-22.96,-23.629
18809,-23.749,-21.544
18820,-22.165,-23.447
18832,-20.579,-23.178
18844,-19.89,-21.261
18855,-20.802,-22.001
18867,-19.638,-23.469
18879,-22.691,-22.315
18891,-24.551,-24.153
18902,-22.012,-25.004
18914,-22.143,-23.858
18926,-25.936,-24.093
18938,-22.927,-23.012
18949,-21.636,-23.113
18961,-21.601,-22.589
18973,-21.71,-22.145
18984,-23.818,-21.966
18996,-22.05,-22.479
19008,-21.764,-24.739
19020,-19.398,-23.614
19031,-19.708,-22.546
19043,-20.792,-21.613
19055,-22.88,-22.709
19066,-22.991,-24.674
19078,-21.231,-26.062
19090,-22.216,-25.154
19102,-22.624,-23.821
19113,-22.192,-21.486
19125,-20.633,-22.703
19137,-21.597,-22.572
19148,-23.957,-21.939
19160,-23.493,-23.382
19172,-23.342,-23.419
19184,-24.432,-23.403
19195,-23.327,-26.512
19207,-22.286,-23.463
19219,-22.108,-22.538
19230,-22.91,-24.765
19242,-24.303,-19.911
19254,-23.455,-20.238
19266,-22.541,-23.199
19277,-21.361,-25.739
19289,-19.077,-26.869
19301,-20.421,-29.369
19313,-19.615,-23.61
19324,-22.772,-25.615
19336,-22.409,-20.943
19348,-22.896,-23.26
19359,-22.172,-25.916
19371,-20.726,-25.878
19383,-24.136,-27.498
19395,-22.04,-22.601
19406,-22.022,-22.299
19418,-17.785,-28.128
19430,-19.961,-23.372
19441,-23.987,-25.325
19453,-24.474,-28.058
19465,-22.892,-25.008
19477,-25.841,-23.83
19488,-26.977,-23.232
19500,-24.567,-23.463
19512,-24.577,-23.458
19523,-23.467,-23.23
19535,-22.167,-24.268
19547,-21.804,-22.136
19559,-19.63,-23.181
19570,-21.149,-24.21
19582,-21.227,-20.558
19594,-21.544,-23.199
19605,-24.952,-23.699
19617,-24.174,-24.397
19629,-24.036,-22.537
19641,-23.332,-22.019
19652,-21.417,-24.173
19664,-22.038,-25.27
19676,-22.686,-22.503
19688,-25.012,-22.06
19699,-22.81,-23.525
19711,-20.572,-22.814
19723,-20.941,-23.431
19734,-21.122,-24.626
19746,-22.528,-24.961
19758,-24.242,-25.06
19770,-24.349,-22.999
19781,-23.602,-23.353
19793,-23.774,-26.327
19805,-20.881,-25.595
19816,-18.582,-24.256
19828,-20.96,-23.729
19840,-19.334,-23.023
19852,-19.466,-23.639
19863,-21.852,-25.735
19875,-23.311,-26.769
19887,-23.022,-25.131
19898,-20.27,-27.221
19910,-20.153,-22.384
19922,-23.679,-24.484
19934,-20.302,-26.252
19945,-18.854,-26.208
19957,-17.605,-24.329
19969,-18.605,-25.961
19980,-22.792,-26.33
19992,-20.656,-24.565
20004,-19.861,-23.326
20016,-20.528,-24.581
20027,-19.863,-22.997
20039,-19.448,-23.216
20051,-18.97,-24.505
20063,-22.348,-25.188
20074,-26.462,-25.491
20086,-24.101,-24.656
20098,-19.996,-23.168
20109,-17.972,-26.282
20121,-20.439,-25.696
20133,-21.108,-24.607
20145,-20.476,-23.028
20156,-18.286,-22.356
20168,-21.351,-24.415
20180,-24.411,-24.133
20191,-21.639,-23.313
20203,-17.947,-23.743
20215,-16.754,-21.699
20227,-22.157,-25.96
20238,-23.139,-27.531
20250,-21.869,-25.542
20262,-22.982,-26.119
20273,-21.322,-23.616
20285,-20.387,-25.04
20297,-20.292,-27.711
20309,-21.877,-27.02
20320,-20.658,-28.583
20332,-20.452,-26.195
20344,-22.098,-25.31
20355,-21.348,-25.188
20367,-23.58,-24.111
20379,-21.684,-26.352
20391,-21.296,-23.847
20402,-23.425,-21.897
20414,-23.816,-23.645
20426,-25.801,-25.11
20438,-27.213,-26.846
20449,-25.34,-26.149
20461,-22.258,-25.269
20473,-20.963,-23.883
20484,-20.164,-24.238
20496,-21.778,-24.675
20508,-22.881,-28.059
20520,-24.382,-26.571
20531,-25.531,-22.525
20543,-24.799,-23.143
20555,-24.823,-23.487
20566,-20.787,-24.621
20578,-21.273,-27.364
20590,-20.479,-26.339
20602,-21.898,-25.916
20613,-23.736,-25.046
20625,-21.61,-24.579
20637,-22.3,-24.538
20648,-20.109,-25.067
20660,-21.351,-25.73
20672,-24.073,-24.51
20684,-21.948,-22.603
20695,-20.852,-22.651
20707,-24.084,-23.255
20719,-22.139,-25.586
20730,-20.719,-24.114
20742,-21.532,-25.138
20754,-22.732,-24.736
20766,-23.184,-25.889
20777,-26.157,-26.729
20789,-22.77,-27.491
20801,-23.839,-25.8
20813,-23.331,-27.141
20824,-20.582,-24.437
20836,-20.807,-23.505
20848,-21.267,-25.47
20859,-24.393,-24.995
20871,-25.348,-24.053
20883,-25.325,-25.31
20895,-23.588,-26.146
20906,-23.012,-27.712
20918,-24.126,-27.065
20930,-24.519,-27.95
20941,-23.686,-27.855
20953,-24.025,-26.185
20965,-23.643,-26.838
20977,-24.366,-25.135
20988,-21.833,-27.673
21000,-21.903,-25.557
21012,-24.89,-24.681
21023,-23.611,-25.832
21035,-21.774,-26.743
21047,-22.522,-23.342
21059,-23.407,-26.145
21070,-23.519,-27.992
21082,-22.846,-29.988
21094,-22.18,-26.882
21105,-23.99,-23.507
21117,-24.246,-24.7
21129,-23.368,-27.554
21141,-23.728,-29.047
21152,-26.451,-28.19
21164,-25.682,-24.319
21176,-24.433,-24.789
21188,-23.347,-27.497
21199,-24.064,-26.81
21211,-22.511,-27.596
21223,-22.65,-24.776
21234,-22.526,-25.357
21246,-24.402,-28.981
21258,-24.56,-29.98
21270,-24.3,-29.699
21281,-22.005,-24.975
21293,-24.6,-23.857
21305,-26.51,-24.478
21316,-24.229,-26
21328,-22.42,-27.392
21340,-23.349,-28.519
21352,-22.507,-25.943
21363,-23.3,-24.986
21375,-24.451,-25.969
21387,-26.054,-25.896
21398,-23.709,-26.613
21410,-22.174,-26.575
21422,-22.972,-26.973
21434,-21.467,-25.696
21445,-21.985,-23.737
21457,-22.432,-23.659
21469,-21.78,-23.057
21480,-22.151,-24.204
21492,-25.702,-23.648
21504,-25.882,-22.125
21516,-26.115,-24.995
21527,-22.058,-26.252
21539,-23.66,-23.873
21551,-22.826,-24.788
21563,-22.535,-27.647
21574,-26.217,-30.231
21586,-27.133,-26.703
21598,-25.474,-25.791
21609,-26.491,-26.168
21621,-23.928,-25.921
21633,-21.529,-24.439
21645,-20.984,-24.226
21656,-22.685,-24.907
21668,-23.884,-27.358
21680,-24.755,-29.547
21691,-25.081,-28.902
21703,-24.747,-26.969
21715,-25.94,-25.736
21727,-25.347,-24.477
21738,-26.676,-24.297
21750,-22.819,-26.915
21762,-23.814,-27.622
21773,-25.346,-27.49
21785,-28.638,-27.263
21797,-25.87,-27.097
21809,-26.275,-26.31
21820,-22.95,-27.812
21832,-22.831,-28.412
21844,-23.354,-25.231
21855,-22.827,-25.201
21867,-23.502,-27.112
21879,-28.163,-30.505
21891,-25.825,-29.022
21902,-26.491,-26.9
21914,-27.876,-28.942
21926,-26.962,-31.622
21938,-27.938,-27.545
21949,-25.213,-28.906
21961,-22.945,-26.051
21973,-21.593,-26.916
21984,-21.166,-27.82
21996,-24.222,-29.876
22008,-24.654,-26.969
22020,-24.561,-28.212
22031,-24.361,-28.929
22043,-24.25,-30.998
22055,-24.432,-27.674
22066,-22.819,-25.322
22078,-23.479,-25.717
22090,-23.869,-27.822
22102,-23.982,-30.439
22113,-24.961,-28.557
22125,-22.698,-25.138
22137,-24.332,-26.652
22148,-25.732,-29.68
22160,-25.566,-26.602
22172,-26.175,-26.796
22184,-24.05,-29.16
22195,-24.629,-27.465
22207,-25.577,-26.943
22219,-24.897,-27.537
22230,-26.026,-26.571
22242,-26.912,-27.21
22254,-26.716,-27.465
22266,-26.308,-29.938
22277,-24.957,-31.762
22289,-25.472,-30.882
22301,-26.633,-28.682
22313,-27.373,-26.651
22324,-28.609,-28.752
22336,-26.264,-29.675
22348,-23.806,-30.246
22359,-23.642,-27.472
22371,-25.575,-26.012
22383,-27.233,-26.273
22395,-25.662,-26.554
22406,-24.518,-27.621
22418,-24.342,-30.188
22430,-26.105,-29.626
22441,-27.077,-26.993
22453,-28.205,-26.866
22465,-22.89,-28.873
22477,-23.995,-28.443
22488,-27.743,-29.001
22500,-27.886,-26.537
22512,-27.537,-25.053
22523,-27.799,-25.472
22535,-24.804,-27.875
22547,-28.074,-28.842
22559,-28.639,-25.954
22570,-27.317,-27.272
22582,-25.16,-28.638
22594,-24.102,-25.799
22605,-26.781,-29.252
22617,-27.555,-28.559
22629,-25.697,-25.668
22641,-24.618,-23.891
22652,-23.499,-24.312
22664,-24.684,-26.492
22676,-26.297,-28.666
22688,-25.981,-30.436
22699,-25.524,-28.984
22711,-27.295,-25.418
22723,-27.236,-25.68
22734,-26.493,-27.657
22746,-27.797,-28.592
22758,-28.842,-29.885
22770,-30.09,-29.901
22781,-25.732,-28.047
22793,-23.372,-25.206
22805,-26.697,-27.209
22816,-29.493,-28.136
22828,-27.075,-27.666
22840,-25.838,-27.537
22852,-29.249,-26.721
22863,-26.528,-27.177
22875,-28.588,-28.264
22887,-28.837,-30.445
22898,-28.308,-27.139
22910,-30.019,-27.244
22922,-27.893,-28.934
22934,-26.555,-28.573
22945,-26.525,-28.914
22957,-27.69,-28.392
22969,-27.604,-27.73
22980,-26.918,-28.537
22992,-27.207,-26.778
23004,-29.863,-26.484
23016,-27.72,-27.065
23027,-26.858,-27.597
23039,-25.281,-26.915
23051,-28.178,-27.044
23063,-28.378,-29.865
23074,-27.772,-25.414
23086,-27.384,-27.217
23098,-31.402,-28.126
23109,-27.627,-26.203
23121,-28.176,-26.352
23133,-28.281,-29.732
23145,-25.209,-25.505
23156,-26.805,-27.071
23168,-27.839,-28.436
23180,-31.349,-28.235
23191,-28.987,-32.17
23203,-26.154,-30.895
23215,-27.083,-29.349
23227,-26.495,-30.362
23238,-28.707,-28.339
23250,-26.548,-24.958
23262,-28.424,-24.357
23273,-25.18,-26.76
23285,-25.944,-29.825
23297,-26.854,-28.955
23309,-25.615,-31.462
23320,-26.085,-28.162
23332,-25.477,-26.808
23344,-25.521,-27.739
23355,-27.632,-28.122
23367,-27.854,-28.089
23379,-28.584,-29.477
23391,-28.142,-31.67
23402,-31.082,-28.489
23414,-29.359,-29.008
23426,-28.154,-25.412
23438,-27.525,-27.447
23449,-25.171,-28.718
23461,-25.809,-27.362
23473,-28.79,-28.901
23484,-28.833,-26.112
23496,-29.307,-26.473
23508,-32.58,-28.738
23520,-28.221,-29.325
23531,-25.339,-27.612
23543,-27.413,-30.543
23555,-29.212,-32.191
23566,-27.994,-30.492
23578,-27.24,-28.853
23590,-25.889,-28.667
23602,-26.459,-27.367
23613,-27.92,-26.204
23625,-26.356,-27.432
23637,-28.381,-30.749
23648,-28.981,-28.518
23660,-28.477,-27.211
23672,-24.385,-27.172
23684,-23.891,-26.967
23695,-25.05,-27.998
23707,-26.799,-29.583
23719,-26.832,-27.258
23730,-27.512,-26.401
23742,-29.35,-27.429
23754,-31.575,-30.41
23766,-29.101,-31.022
23777,-28.701,-28.23
23789,-28.314,-28.193
23801,-27.086,-28.786
23813,-29.962,-29.624
23824,-30.334,-31.578
23836,-29.861,-30.99
23848,-26.883,-27.671
23859,-25.646,-27.252
23871,-26.64,-29.866
23883,-25.911,-28.506
23895,-25.401,-27.207
23906,-25.371,-29.853
23918,-26.643,-29.512
23930,-26.315,-28.02
23941,-27.935,-28.178
23953,-30.361,-28.49
23965,-27.613,-26.299
23977,-24.041,-25.743
23988,-24.388,-26.42
