FFT,Power Spectrum
Frequency[Hz],Level-L[dB],Level-R[dB]
11.719,-2.7404,-61.799
23.438,17.075,-51.57
35.156,13.931,-40.416
46.875,15.094,-28.326
58.594,23.329,-27.112
70.313,23.876,-31.307
82.031,18.974,-28.432
93.75,26.63,-25.257
105.47,23.73,-19.054
117.19,16.374,-18.327
128.91,16.009,-19.107
140.63,20.771,-15.277
152.34,21.072,-13.132
164.06,19.654,-12.218
175.78,22.141,-17.506
187.5,25.677,-16.893
199.22,25.492,-17.174
210.94,20.257,-20.125
222.66,17.679,-19.927
234.38,19.388,-19.211
246.09,25.412,-16.943
257.81,24.88,-14.414
269.53,20.851,-16.206
281.25,20.777,-17.289
292.97,20.495,-13.31
304.69,19.993,-12.612
316.41,19.679,-15.901
328.13,19.967,-15.13
339.84,16.883,-12.747
351.56,16.851,-8.1133
363.28,17.057,-10.895
375,14.737,-13.957
386.72,15.384,-11.867
398.44,15.072,-13.5
410.16,17.802,-15.855
421.88,16.484,-16.58
433.59,17.302,-13.383
445.31,16.59,-10.688
457.03,17.73,-9.6754
468.75,15.275,-9.9762
480.47,15.011,-12.756
492.19,15.728,-13.646
503.91,17.401,-11.698
515.63,17.235,-12.056
527.34,15.564,-11.668
539.06,17.112,-12.236
550.78,20.759,-10.875
562.5,18.112,-8.7252
574.22,19.601,-8.1296
585.94,23.057,-7.5953
597.66,22.775,-7.9517
609.38,21.234,-10.15
621.09,20.084,-8.7073
632.81,20.485,-7.7289
644.53,19.496,-8.2484
656.25,19.283,-7.9797
667.97,16.805,-9.0616
679.69,19.56,-10.605
691.41,19.199,-11.219
703.13,20.017,-11.38
714.84,19.292,-10.036
726.56,18.158,-12.115
738.28,19.01,-11.341
750,17.09,-10.401
761.72,17.45,-12.285
773.44,15.548,-11.556
785.16,14.378,-10.118
796.88,14.944,-9.9593
808.59,15.385,-9.1916
820.31,21.195,-8.8108
832.03,21.419,-6.5111
843.75,19.633,-6.5486
855.47,16.359,-7.5397
867.19,15.18,-8.4778
878.91,15.085,-7.2012
890.63,18.605,-9.6378
902.34,19.192,-10.115
914.06,19.532,-8.6394
925.78,18.05,-7.8574
937.5,16.544,-9.2711
949.22,15.573,-8.9742
960.94,16.744,-8.7442
972.66,16.405,-11.497
984.38,14.444,-10.21
996.09,12.98,-8.689
1007.8,15.436,-8.2605
1019.5,16.119,-9.6781
1031.3,16.821,-8.7223
1043,15.941,-8.8509
1054.7,14.692,-10.162
1066.4,14.389,-9.3891
1078.1,14.282,-8.7835
1089.8,15.92,-6.8214
1101.6,15.965,-8.9047
1113.3,16.796,-10.177
1125,17.662,-9.9184
1136.7,19.876,-11.168
1148.4,18.394,-7.0769
1160.2,17.366,-7.7098
1171.9,19.031,-10.124
1183.6,22.593,-9.4326
1195.3,21.452,-9.578
1207,18.248,-12.018
1218.8,16.563,-8.9805
1230.5,16.183,-10.424
1242.2,17.022,-7.1404
1253.9,15.02,-4.9872
1265.6,13.126,-6.431
1277.3,15.013,-7.9798
1289.1,17.786,-6.5813
1300.8,17.872,-7.944
1312.5,11.979,-9.3205
1324.2,16.156,-9.4766
1335.9,14.01,-7.58
1347.7,13.889,-7.4226
1359.4,13.284,-9.085
1371.1,14.349,-9.2348
1382.8,15.299,-8.8182
1394.5,19.368,-11.421
1406.3,21.492,-8.1707
1418,21.099,-9.2404
1429.7,20.102,-12.067
1441.4,16.891,-8.0846
1453.1,21.671,-8.446
1464.8,22.543,-9.0924
1476.6,21.375,-6.9487
1488.3,20.296,-5.5562
1500,19.308,-5.8397
1511.7,20.26,-6.0423
1523.4,16.696,-9.8403
1535.2,17.749,-7.3049
1546.9,22.013,-4.1856
1558.6,21.173,-7.5899
1570.3,19.849,-8.2857
1582,20.844,-5.3792
1593.8,21.528,-6.7925
1605.5,20.167,-5.6043
1617.2,18.379,-6.2316
1628.9,16.955,-2.276
1640.6,14.676,-4.1527
1652.3,14.361,-7.6083
1664.1,16.148,-8.3816
1675.8,19.939,-7.0524
1687.5,20.588,-5.9495
1699.2,18.835,-6.3379
1710.9,18.906,-7.7415
1722.7,16.832,-6.0989
1734.4,15.122,-7.8845
1746.1,15.175,-7.4897
1757.8,18.64,-10.943
1769.5,21.237,-10.43
1781.3,19.747,-6.546
1793,19.311,-4.246
1804.7,16.812,-6.2339
1816.4,20.373,-7.0487
1828.1,20.184,-8.9874
1839.8,16.288,-7.2454
1851.6,12.786,-6.5849
1863.3,17.701,-5.2508
1875,19.285,-5.0949
1886.7,18.566,-6.7097
1898.4,16.715,-8.6388
1910.2,15.589,-5.9897
1921.9,15.532,-7.3977
1933.6,15.016,-5.2559
1945.3,11.733,-4.1515
1957,14.157,-3.9211
1968.8,13.695,-3.9695
1980.5,12.155,-6.6502
1992.2,14.78,-6.5922
2003.9,15.154,-5.933
2015.6,15.549,-5.4346
2027.3,14.785,-6.4643
2039.1,16.346,-7.1367
2050.8,18.248,-6.1343
2062.5,15.852,-7.5424
2074.2,14.728,-7.6401
2085.9,14.066,-8.1408
2097.7,13.71,-8.3908
2109.4,14.986,-8.6027
2121.1,16.285,-6.5244
2132.8,17.013,-7.3907
2144.5,16.123,-6.751
2156.3,15.538,-8.258
2168,18.134,-10.39
2179.7,17.774,-7.1674
2191.4,12.382,-6.0558
2203.1,10.27,-7.2972
2214.8,8.7611,-8.3218
2226.6,10.619,-11.748
2238.3,11.507,-11.451
2250,13.258,-8.4619
2261.7,13.999,-8.1908
2273.4,13.02,-9.3941
2285.2,13.731,-10
2296.9,15.317,-8.866
2308.6,15.442,-9.4069
2320.3,13.684,-4.5325
2332,17.076,-5.9467
2343.8,15.42,-8.9074
2355.5,13.373,-8.6142
2367.2,10.932,-11.097
2378.9,13.2,-9.5991
2390.6,17.631,-3.276
2402.3,15.522,-3.5602
2414.1,12.847,-8.2202
2425.8,16.96,-8.621
2437.5,16.389,-4.3884
2449.2,13.491,-6.7649
2460.9,14.076,-8.552
2472.7,12.088,-8.8806
2484.4,10.475,-9.16
2496.1,10.537,-11.03
2507.8,12.799,-8.6447
2519.5,11.731,-6.1929
2531.3,13.454,-9.1393
2543,13.521,-9.3239
2554.7,11.139,-8.8808
2566.4,12.778,-8.475
2578.1,13.598,-5.0772
2589.8,12.129,-5.5139
2601.6,11.084,-6.8631
2613.3,14.03,-9.4962
2625,13.51,-7.3939
2636.7,12.267,-7.6074
2648.4,12.122,-6.3304
2660.2,11.791,-5.738
2671.9,13.071,-5.4355
2683.6,15.667,-7.1785
2695.3,13.917,-7.729
2707,9.5921,-4.9234
2718.8,13.441,-6.6522
2730.5,10.976,-7.7094
2742.2,11.356,-9.3616
2753.9,12.367,-7.6421
2765.6,13.996,-5.6944
2777.3,12.739,-7.2515
2789.1,9.8039,-7.4782
2800.8,7.7027,-8.0414
2812.5,10.023,-7.7791
2824.2,11.52,-5.5485
2835.9,13.824,-4.3929
2847.7,13.952,-6.1256
2859.4,9.553,-7.9057
2871.1,11.68,-7.0536
2882.8,12.917,-5.9475
2894.5,11.601,-5.9687
2906.3,10.495,-7.6251
2918,13.52,-9.5274
2929.7,15.167,-10.409
2941.4,12.649,-7.4854
2953.1,8.06,-7.8685
2964.8,10.034,-9.6178
2976.6,12.148,-11.068
2988.3,14.365,-7.6413
3000,14.92,-8.2676
3011.7,13.944,-8.3551
3023.4,13.691,-3.1803
3035.2,12.477,-3.912
3046.9,11.916,-8.4903
3058.6,10.558,-4.923
3070.3,9.2735,-4.9576
3082,8.63,-8.2455
3093.8,8.1306,-5.567
3105.5,9.9904,-5.4717
3117.2,11.489,-8.4359
3128.9,9.5018,-5.6162
3140.6,9.2237,-6.4909
3152.3,9.6125,-9.0447
3164.1,9.3098,-6.9499
3175.8,8.3914,-4.7785
3187.5,11.465,-6.7993
3199.2,12.156,-7.7
3210.9,13.056,-5.67
3222.7,12.576,-3.4738
3234.4,11.599,-6.2188
3246.1,12.413,-9.8622
3257.8,14.011,-8.8036
3269.5,9.4662,-6.4324
3281.3,9.8031,-5.1462
3293,10.215,-4.5966
3304.7,7.8232,-10.241
3316.4,9.7632,-7.5629
3328.1,8.7288,-7.739
3339.8,7.5654,-8.2886
3351.6,10.659,-8.3924
3363.3,9.0807,-7.8119
3375,6.8488,-9.0417
3386.7,8.6157,-8.766
3398.4,8.21,-7.3408
3410.2,9.4215,-5.826
3421.9,9.7924,-4.2293
3433.6,7.4904,-6.7146
3445.3,7.1038,-9.0225
3457,8.2496,-7.6155
3468.8,8.4375,-7.0405
3480.5,9.8073,-6.0464
3492.2,11.651,-8.5789
3503.9,11.055,-10.432
3515.6,10.742,-12.9
3527.3,12.578,-9.4245
3539.1,11.459,-8.4255
3550.8,6.9382,-7.4045
3562.5,10.037,-8.057
3574.2,7.4716,-8.2392
3585.9,11.083,-7.1671
3597.7,10.056,-8.4382
3609.4,9.5258,-7.4052
3621.1,10.526,-6.5503
3632.8,10.74,-12.644
3644.5,7.7064,-9.3538
3656.3,6.1974,-9.3523
3668,7.2659,-9.0875
3679.7,8.0061,-6.6859
3691.4,10.915,-4.4991
3703.1,10.584,-5.2788
3714.8,10.143,-9.9507
3726.6,10.146,-7.3895
3738.3,11.629,-7.5481
3750,12.42,-7.0051
3761.7,8.6443,-8.1387
3773.4,7.5538,-7.4904
3785.2,12.036,-7.6705
3796.9,12.417,-5.794
3808.6,9.7178,-6.8513
3820.3,9.3935,-8.3728
3832,10.428,-10.118
3843.8,11.29,-7.8868
3855.5,13.015,-10.003
3867.2,11.277,-8.6635
3878.9,8.328,-7.5625
3890.6,8.0246,-8.2645
3902.3,12.065,-9.7539
3914.1,5.959,-8.2719
3925.8,8.0535,-7.3865
3937.5,8.6556,-11.222
3949.2,7.848,-11.554
3960.9,8.3636,-7.8418
3972.7,11.79,-7.3993
3984.4,10.362,-7.6978
3996.1,9.2759,-2.9621
4007.8,7.7868,-7.0076
4019.5,6.9373,-7.0202
4031.3,8.9013,-6.2748
4043,11.678,-6.2448
4054.7,11.011,-6.4173
4066.4,9.4267,-8.3323
4078.1,8.6004,-6.9494
4089.8,10.449,-8.7606
4101.6,9.4543,-8.2462
4113.3,10.174,-7.4594
4125,8.8596,-6.5134
4136.7,7.9352,-6.8124
4148.4,7.3693,-10.222
4160.2,7.9624,-7.5564
4171.9,7.1064,-3.4064
4183.6,6.6786,-5.2039
4195.3,8.6617,-8.4989
4207,7.6033,-9.2054
4218.8,9.6233,-8.1118
4230.5,8.1038,-6.2944
4242.2,8.7448,-5.094
4253.9,10.759,-6.8036
4265.6,6.0433,-9.3862
4277.3,3.0796,-10.515
4289.1,5.2745,-10.39
4300.8,11.468,-7.0411
4312.5,9.6909,-5.5028
4324.2,6.872,-4.6558
4335.9,6.5875,-7.204
4347.7,4.2519,-9.901
4359.4,4.7026,-8.4305
4371.1,5.9935,-7.7305
4382.8,6.4965,-6.3446
4394.5,6.0891,-4.6242
4406.3,7.1207,-5.6693
4418,7.9904,-8.513
4429.7,6.5717,-7.0253
4441.4,7.9572,-5.7849
4453.1,8.7851,-9.2228
4464.8,8.1319,-7.2323
4476.6,9.1042,-7.083
4488.3,11.031,-8.3711
4500,7.4879,-8.613
4511.7,5.2349,-8.1297
4523.4,6.1368,-6.5649
4535.2,5.6667,-4.8719
4546.9,3.8025,-3.4792
4558.6,3.5321,-5.6086
4570.3,5.0054,-7.1491
4582,6.9627,-8.063
4593.8,12.282,-8.4016
4605.5,12.919,-9.5185
4617.2,11.137,-9.6196
4628.9,10.247,-8.7812
4640.6,9.3924,-7.9699
4652.3,6.8165,-7.8289
4664.1,5.8164,-8.7809
4675.8,4.377,-11.572
4687.5,5.2491,-11.303
4699.2,7.9088,-8.5092
4710.9,9.1222,-8.4381
4722.7,8.348,-10.181
4734.4,7.6812,-10.21
4746.1,8.8236,-7.822
4757.8,8.7525,-7.3742
4769.5,7.1657,-8.3159
4781.3,6.3094,-8.7187
4793,7.2904,-9.6772
4804.7,6.3218,-9.8913
4816.4,4.1824,-10.774
4828.1,7.7781,-7.9427
4839.8,9.8079,-7.3372
4851.6,9.4759,-6.3605
4863.3,8.8301,-6.7089
4875,9.7084,-7.0145
4886.7,9.6918,-6.714
4898.4,9.1416,-6.1392
4910.2,7.8351,-6.7034
4921.9,5.586,-6.8731
4933.6,5.7508,-7.4561
4945.3,6.4034,-8.2953
4957,6.5394,-10.629
4968.8,7.1872,-9.8726
4980.5,8.1315,-9.3764
4992.2,8.0823,-5.6324
5003.9,10.953,-6.9157
5015.6,10.035,-7.1695
5027.3,6.3981,-9.7382
5039.1,7.2956,-10.147
5050.8,7.4238,-8.8198
5062.5,4.7245,-9.3252
5074.2,5.9249,-8.674
5085.9,5.8546,-8.6641
5097.7,4.4309,-8.8407
5109.4,7.2543,-11.562
5121.1,3.8719,-10.343
5132.8,9.6628,-12.107
5144.5,10.823,-9.7356
5156.3,5.807,-8.3952
5168,6.4502,-6.1615
5179.7,7.9356,-5.0723
5191.4,8.1259,-5.2438
5203.1,6.2824,-6.4731
5214.8,9.083,-5.7783
5226.6,8.9523,-7.3184
5238.3,7.1015,-7.1958
5250,7.5517,-7.3311
5261.7,6.7125,-7.2343
5273.4,6.0585,-7.0241
5285.2,7.6403,-7.9046
5296.9,5.2987,-8.4514
5308.6,5.8692,-8.2786
5320.3,6.639,-9.2554
5332,4.7506,-8.0335
5343.8,6.0835,-8.0688
5355.5,5.4036,-9.8848
5367.2,5.2925,-9.8101
5378.9,10.346,-7.3915
5390.6,8.881,-7.6697
5402.3,6.2338,-8.7837
5414.1,3.4809,-7.6902
5425.8,4.9945,-8.0804
5437.5,7.0149,-7.9256
5449.2,6,-9.2642
5460.9,4.9435,-9.4838
5472.7,5.3322,-9.0683
5484.4,7.0559,-7.509
5496.1,7.7553,-7.4521
5507.8,7.6731,-10.308
5519.5,6.2801,-9.9105
5531.3,5.6041,-6.7909
5543,8.4324,-6.2089
5554.7,5.8819,-9.3481
5566.4,4.7137,-8.5271
5578.1,4.7917,-8.0054
5589.8,3.6904,-8.9671
5601.6,4.4986,-6.4084
5613.3,7.4422,-5.4792
5625,4.8768,-6.4112
5636.7,6.5509,-8.2505
5648.4,6.5423,-6.5677
5660.2,4.6039,-5.977
5671.9,4.6305,-6.7541
5683.6,7.9259,-6.8007
5695.3,7.8864,-7.1921
5707,5.7505,-6.495
5718.8,4.4708,-8.779
5730.5,7.7248,-9.6348
5742.2,6.2647,-9.6692
5753.9,1.2677,-7.7815
5765.6,2.0631,-6.7067
5777.3,6.0196,-10.141
5789.1,5.4277,-5.5397
5800.8,4.6584,-6.255
5812.5,6.206,-8.4787
5824.2,3.4311,-10.009
5835.9,4.8393,-12.162
5847.7,7.5043,-10.785
5859.4,7.3088,-11.271
5871.1,5.6649,-10.238
5882.8,5.105,-9.7217
5894.5,4.0412,-10.544
5906.3,3.2387,-8.9034
5918,4.236,-10.166
5929.7,6.7017,-6.074
5941.4,6.4674,-6.5778
5953.1,4.1704,-8.5445
5964.8,3.5453,-7.1689
5976.6,7.0229,-7.7714
5988.3,9.2173,-7.665
6000,7.1333,-5.914
6011.7,8.4558,-8.5214
6023.4,8.4923,-4.8066
6035.2,7.7046,-6.0632
6046.9,7.8111,-8.7218
6058.6,5.6634,-9.7791
6070.3,6.9168,-8.0577
6082,7.1096,-6.8003
6093.8,3.7171,-7.8063
6105.5,5.136,-9.7184
6117.2,6.5121,-11.113
6128.9,8.1936,-11.232
6140.6,7.4787,-10.8
6152.3,3.0857,-11.071
6164.1,3.3552,-12.261
6175.8,4.1455,-10.456
6187.5,5.2976,-12.113
6199.2,3.0398,-10.175
6210.9,4.964,-9.8072
6222.7,5.3437,-7.935
6234.4,5.2049,-7.6116
6246.1,6.7032,-8.2309
6257.8,5.3942,-6.6796
6269.5,5.0162,-7.4722
6281.3,5.146,-10.69
6293,5.8376,-12.36
6304.7,6.8988,-10.928
6316.4,7.3593,-10.277
6328.1,8.1924,-9.7119
6339.8,7.5332,-10.866
6351.6,3.2398,-8.5099
6363.3,3.3565,-8.1648
6375,4.0055,-7.2043
6386.7,7.4605,-7.2996
6398.4,6.0638,-6.2204
6410.2,4.9226,-9.3818
6421.9,7.5566,-7.4782
6433.6,8.2029,-7.25
6445.3,6.4008,-12.201
6457,4.4807,-13.318
6468.8,5.2168,-12.546
6480.5,1.7487,-10.883
6492.2,3.5156,-11.054
6503.9,5.9571,-9.6838
6515.6,2.2251,-7.9753
6527.3,1.7889,-9.4658
6539.1,6.2755,-9.706
6550.8,6.4062,-9.0851
6562.5,5.3716,-10.32
6574.2,5.3251,-8.7701
6585.9,4.0573,-7.8493
6597.7,5.4292,-5.7403
6609.4,6.3198,-6.9316
6621.1,2.9197,-9.3704
6632.8,2.6277,-10.435
6644.5,3.4215,-10.001
6656.3,1.7599,-7.9003
6668,2.4795,-8.4701
6679.7,2.632,-9.3848
6691.4,3.2448,-9.883
6703.1,4.6987,-10.774
6714.8,5.8772,-8.068
6726.6,3.892,-9.7674
6738.3,5.7248,-10.692
6750,7.651,-10.539
6761.7,7.5095,-7.8412
6773.4,9.0705,-8.2568
6785.2,6.4345,-9.1681
6796.9,2.4471,-8.7162
6808.6,0.98849,-9.9978
6820.3,5.0845,-10.427
6832,5.0224,-11.439
6843.8,2.8436,-8.0653
6855.5,5.2067,-9.9433
6867.2,6.8844,-9.034
6878.9,4.0024,-8.984
6890.6,5.4276,-10.775
6902.3,4.0439,-9.9801
6914.1,3.1067,-8.6257
6925.8,1.612,-8.869
6937.5,3.4863,-9.9604
6949.2,4.1065,-6.4146
6960.9,5.0764,-5.3743
6972.7,3.8659,-7.5424
6984.4,4.5426,-10.637
6996.1,3.0036,-9.9472
7007.8,2.5391,-9.1856
7019.5,6.1552,-10.051
7031.3,7.7749,-9.9766
7043,4.8632,-10.563
7054.7,3.9095,-9.712
7066.4,4.0556,-9.2655
7078.1,0.77861,-9.102
7089.8,2.969,-9.6359
7101.6,4.3653,-7.9735
7113.3,4.1106,-7.6179
7125,4.7315,-10.996
7136.7,3.3453,-12.504
7148.4,4.2792,-8.533
7160.2,5.645,-7.3485
7171.9,0.75758,-9.4272
7183.6,-0.33749,-10.868
7195.3,5.5791,-10.445
7207,6.5023,-10.304
7218.8,2.6784,-8.6544
7230.5,3.6759,-10.663
7242.2,5.2367,-13.635
7253.9,7.7262,-12.106
7265.6,6.5982,-10.237
7277.3,2.7157,-8.4511
7289.1,2.4441,-9.9978
7300.8,3.3344,-7.378
7312.5,3.7492,-10.042
7324.2,5.2588,-10.571
7335.9,3.8521,-11.345
7347.7,2.4538,-10.373
7359.4,1.7602,-9.637
7371.1,0.7221,-9.976
7382.8,3.8162,-8.4183
7394.5,5.3667,-8.4182
7406.3,6.4033,-9.025
7418,5.5671,-8.8125
7429.7,3.1675,-10.948
7441.4,5.4563,-7.1987
7453.1,5.5933,-6.6929
7464.8,3.5784,-8.498
7476.6,3.1843,-10.253
7488.3,5.3008,-9.4766
7500,1.9043,-7.2792
7511.7,1.1514,-8.3933
7523.4,1.1143,-9.258
7535.2,2.2766,-10.756
7546.9,1.7884,-11.571
7558.6,1.8665,-10.525
7570.3,3.9889,-11.486
7582,2.0114,-12.342
7593.8,2.6693,-9.1881
7605.5,3.4926,-8.7798
7617.2,2.001,-8.8688
7628.9,3.6245,-8.8786
7640.6,2.127,-11.485
7652.3,2.2482,-13.135
7664.1,0.58432,-8.7118
7675.8,0.63125,-7.492
7687.5,1.6997,-7.2034
7699.2,2.8624,-8.5495
7710.9,0.62912,-11.128
7722.7,0.53464,-10.675
7734.4,3.429,-8.8724
7746.1,0.0097768,-10.608
7757.8,0.1239,-10.612
7769.5,1.2083,-8.3975
7781.3,4.2825,-9.291
7793,1.7292,-11.513
7804.7,2.7682,-11.493
7816.4,4.2333,-8.7781
7828.1,4.8294,-6.6248
7839.8,6.181,-7.1654
7851.6,6.2336,-10.065
7863.3,5.0998,-8.8477
7875,3.9371,-8.9338
7886.7,1.5851,-9.5624
7898.4,2.1326,-9.7326
7910.2,1.9226,-12.96
7921.9,3.1154,-9.243
7933.6,4.5482,-8.7001
7945.3,2.2395,-10.65
7957,-2.8219,-10.731
7968.8,1.3422,-15.319
7980.5,1.8274,-11.874
7992.2,2.7527,-9.9811
8003.9,5.6277,-9.1611
8015.6,3.8299,-9.5949
8027.3,-1.2064,-10.469
8039.1,1.2005,-7.8492
8050.8,3.1616,-7.7921
8062.5,2.9627,-10.48
8074.2,3.6003,-11.043
8085.9,5.4344,-10.906
8097.7,6.9154,-9.253
8109.4,4.6538,-8.6063
8121.1,2.1907,-9.9122
8132.8,1.9145,-11.061
8144.5,2.3509,-11.041
8156.3,1.3882,-9.716
8168,2.1335,-8.2664
8179.7,2.6085,-8.6259
8191.4,-0.45306,-9.0837
8203.1,1.2053,-9.0318
8214.8,3.8211,-6.4071
8226.6,3.7179,-8.4929
8238.3,-0.90702,-13.322
8250,1.8768,-12.903
8261.7,3.8629,-10.92
8273.4,4.2358,-8.7839
8285.2,4.1045,-12.275
8296.9,3.8155,-13.475
8308.6,3.4489,-12.415
8320.3,2.0404,-11.055
8332,-1.0301,-10.228
8343.8,2.7586,-14.721
8355.5,5.1403,-10.954
8367.2,7.7436,-11.603
8378.9,6.4379,-9.12
8390.6,3.2524,-8.9888
8402.3,2.0405,-8.3891
8414.1,4.1319,-10.273
8425.8,3.9727,-12.78
8437.5,3.9501,-11.608
8449.2,2.6711,-11.917
8460.9,5.3956,-13.054
8472.7,4.9727,-10.095
8484.4,1.3717,-10.035
8496.1,-0.10938,-10.597
8507.8,0.67349,-11.797
8519.5,0.221,-12.243
8531.3,-0.59365,-9.0482
8543,0.15219,-7.4753
8554.7,1.774,-6.2045
8566.4,3.0418,-8.0786
8578.1,3.1157,-8.0612
8589.8,2.9224,-9.7947
8601.6,2.8653,-7.2681
8613.3,3.5024,-7.4892
8625,3.3134,-6.7911
8636.7,0.80901,-5.1733
8648.4,-2.4152,-8.3766
8660.2,-1.344,-9.8398
8671.9,1.1283,-8.6178
8683.6,0.74871,-11.72
8695.3,2.3928,-9.7892
8707,4.2559,-10.869
8718.8,4.7852,-14.286
8730.5,1.6067,-14.801
8742.2,1.8069,-11.286
8753.9,1.3715,-10.586
8765.6,0.63227,-9.8172
8777.3,1.3232,-10.364
8789.1,0.63276,-9.4897
8800.8,1.4603,-9.4872
8812.5,0.93405,-10.472
8824.2,-0.086683,-12.506
8835.9,1.1693,-10.742
8847.7,2.3238,-11.448
8859.4,0.92656,-11.395
8871.1,1.619,-10.391
8882.8,-0.80806,-11.633
8894.5,0.8786,-12.884
8906.3,3.1529,-9.114
8918,-0.47579,-8.7247
8929.7,0.96463,-8.9882
8941.4,1.5658,-8.8024
8953.1,-0.83723,-10.411
8964.8,2.2929,-9.4966
8976.6,2.7033,-6.9979
8988.3,-0.70445,-8.8339
9000,1.637,-10.425
9011.7,2.0999,-8.4286
9023.4,1.2623,-9.7548
9035.2,3.4781,-9.6087
9046.9,0.23199,-9.2233
9058.6,1.9985,-9.0646
9070.3,-1.441,-10.625
9082,-3.6488,-10.444
9093.8,-1.7147,-9.9774
9105.5,1.1775,-8.7171
9117.2,-0.80491,-10.237
9128.9,-0.023228,-11.968
9140.6,-1.2276,-13.353
9152.3,-0.0095107,-10.603
9164.1,3.3619,-10.494
9175.8,2.197,-10.751
9187.5,2.948,-12.682
9199.2,1.4669,-10.877
9210.9,-1.8583,-10.576
9222.7,-4.1723,-11.028
9234.4,-0.69784,-11.53
9246.1,1.0466,-11.909
9257.8,-0.20969,-11.316
9269.5,-2.5821,-13.375
9281.3,0.81809,-14.02
9293,2.5617,-9.2497
9304.7,3.0493,-9.2086
9316.4,-1.4206,-7.9598
9328.1,-0.65079,-10.487
9339.8,0.5202,-12.042
9351.6,-2.876,-12.6
9363.3,-2.8885,-12.294
9375,-3.9706,-8.9688
9386.7,-4.0292,-8.2161
9398.4,-1.6374,-11.564
9410.2,0.47561,-10.705
9421.9,-3.1573,-8.7549
9433.6,-0.44545,-9.0969
9445.3,-0.74615,-12.294
9457,1.2137,-11.699
9468.8,2.1682,-9.246
9480.5,0.64424,-11.051
9492.2,0.45301,-11.862
9503.9,1.152,-11.002
9515.6,-1.8983,-8.3894
9527.3,1.7425,-12.414
9539.1,-0.25019,-9.3802
9550.8,0.19398,-9.4255
9562.5,4.2845,-13.159
9574.2,5.3393,-11.116
9585.9,3.3747,-12.352
9597.7,1.8597,-9.7404
9609.4,-1.7956,-9.5452
9621.1,1.9328,-13.13
9632.8,1.7788,-11.155
9644.5,1.4607,-13.279
9656.3,2.1543,-11.046
9668,-0.28033,-11.216
9679.7,-0.33948,-12.365
9691.4,-0.34691,-12.009
9703.1,-0.41601,-13.316
9714.8,-3.3549,-15.047
9726.6,-4.9289,-11.232
9738.3,-2.8281,-9.1161
9750,-0.53994,-9.5155
9761.7,-0.91662,-11.017
9773.4,-0.56197,-11.226
9785.2,1.5194,-11.834
9796.9,0.1358,-12.581
9808.6,-0.53261,-13.078
9820.3,-0.6228,-12.174
9832,-1.613,-9.97
9843.8,-0.19008,-10.71
9855.5,2.0045,-12.737
9867.2,2.0716,-11.531
9878.9,2.0898,-12.786
9890.6,0.17033,-10.684
9902.3,1.4242,-9.1675
9914.1,1.7912,-10.178
9925.8,2.4738,-12.064
9937.5,2.9671,-11.913
9949.2,1.4155,-12.746
9960.9,-1.1024,-11.236
9972.7,0.62271,-10.732
9984.4,-0.040202,-11.491
9996.1,-0.37557,-12.127
10008,1.9048,-9.8458
10020,3.7673,-9.081
10031,3.1792,-9.7431
10043,-1.4137,-11.04
10055,2.1043,-11.695
10066,2.9885,-9.6295
10078,-2.0897,-9.1513
10090,2.4073,-11.206
10102,0.010804,-10.295
10113,-3.1116,-12.521
10125,-0.36797,-13.984
10137,-2.7874,-10.735
10148,-1.8353,-11.375
10160,-2.1153,-13.398
10172,-0.3596,-11.588
10184,-1.2272,-11.432
10195,-1.4868,-11.493
10207,-0.34458,-9.4438
10219,-0.70203,-9.6835
10230,-2.4311,-10.909
10242,-3.6102,-10.223
10254,-0.78962,-10.978
10266,2.5646,-10.178
10277,0.2811,-11.453
10289,-0.8923,-10.967
10301,0.20643,-13.122
10313,0.41873,-13.763
10324,-0.8559,-14.919
10336,-1.7204,-12.935
10348,-1.17,-12.05
10359,-1.876,-12.99
10371,-1.0011,-13.198
10383,0.12951,-12.041
10395,-0.32298,-10.999
10406,0.42889,-11.677
10418,2.1699,-11.742
10430,1.3799,-12.72
10441,-1.3821,-14.098
10453,-2.6359,-14.769
10465,-2.7436,-14.159
10477,0.15813,-11.947
10488,-6.1526,-11.628
10500,-3.8715,-11.416
10512,2.0906,-12.178
10523,1.6301,-11.707
10535,-1.3548,-11.786
10547,-0.90075,-10.93
10559,1.9713,-11.735
10570,4.5901,-12.176
10582,3.628,-10.127
10594,0.76394,-9.4369
10605,-2.5955,-9.0817
10617,-5.2653,-7.9527
10629,0.08154,-8.9292
10641,0.86892,-13.432
10652,0.73645,-14.241
10664,1.2366,-13.663
10676,-1.0441,-13.744
10688,-1.5464,-13.703
10699,-1.464,-11.396
10711,-1.1121,-9.1911
10723,1.388,-11.072
10734,1.3726,-12.543
10746,-0.42508,-13.154
10758,2.2905,-13.568
10770,0.77359,-11.434
10781,-2.6392,-12.53
10793,1.4731,-11.849
10805,2.9121,-11.753
10816,0.9591,-14.203
10828,1.0784,-12.914
10840,-0.63602,-9.4586
10852,0.62488,-11.146
10863,-0.29117,-10.713
10875,-1.4482,-12.658
10887,0.78851,-14.033
10898,1.2108,-15.396
10910,-0.46719,-15.416
10922,-0.085839,-11.187
10934,-1.0299,-9.8778
10945,-0.66293,-11.298
10957,-4.7062,-12.096
10969,-3.954,-12.906
10980,-2.2195,-13.322
10992,-0.869,-12.984
11004,-1.3426,-10.944
11016,-1.0453,-11.398
11027,0.47126,-17.797
11039,-2.1125,-14.501
11051,-4.2793,-13.848
11063,-0.92162,-12.168
11074,0.2241,-11.927
11086,-1.1505,-12.901
11098,-1.5456,-11.505
11109,-2.2167,-11.66
11121,0.21308,-12.414
11133,2.7145,-11.446
11145,2.0729,-11.669
11156,-0.8566,-10.607
11168,-4.7528,-11.201
11180,-4.3478,-12.121
11191,-4.5055,-12.383
11203,-2.3869,-11.126
11215,-2.184,-11.449
11227,-1.6541,-11.793
11238,-2.939,-12.19
11250,-1.1643,-14.122
11262,-0.15584,-14.363
11273,-0.63917,-10.467
11285,-3.5918,-10.951
11297,1.3139,-11.328
11309,3.6831,-13.215
11320,0.90816,-13.578
11332,1.5525,-13.399
11344,-0.10484,-13.227
11355,-1.6791,-12.882
11367,-0.9796,-11.986
11379,-1.4428,-8.7433
11391,-1.3181,-9.0555
11402,-0.42363,-12.857
11414,-3.9253,-13.419
11426,-1.3509,-12.764
11438,0.30816,-13.314
11449,-0.82736,-13.793
11461,-1.6398,-12.985
11473,0.25176,-13.176
11484,0.50367,-12.781
11496,-3.5724,-15.493
11508,-1.3016,-12.109
11520,-2.2982,-10.522
11531,-3.1681,-11.758
11543,-0.7914,-12.021
11555,-0.89856,-13.03
11566,-0.46385,-12.464
11578,0.84277,-12.485
11590,-1.6434,-13.564
11602,-2.9769,-13.436
11613,-1.7687,-12.546
11625,-2.9342,-11.712
11637,-2.3622,-13.765
11648,-4.3942,-11.963
11660,-3.3546,-14.706
11672,-2.0832,-15.921
11684,-3.8848,-11.614
11695,-2.005,-11.408
11707,1.4881,-12.682
11719,1.0594,-14.468
11730,0.1663,-13.487
11742,-2.4652,-11.755
11754,1.1288,-11.813
11766,-2.3154,-14.333
11777,-4.6804,-12.54
11789,-3.7769,-12.977
11801,-1.0721,-11.903
11813,-0.68493,-11.721
11824,-3.1881,-10.679
11836,-2.9915,-10.683
11848,0.097593,-9.6779
11859,-0.78673,-11.26
11871,-2.1788,-12.322
11883,-3.5207,-11.018
11895,-3.9577,-9.8901
11906,-4.136,-11.641
11918,-3.9181,-16.795
11930,-3.8587,-11.803
11941,-1.9805,-12.32
11953,-2.8397,-17.231
11965,-2.9076,-12.364
11977,-2.4467,-11.245
11988,-2.4215,-11.516
12000,-0.33864,-8.9186
12012,-1.0284,-10.691
12023,-0.519,-12.288
12035,-1.0714,-14.346
12047,-1.9651,-14.415
12059,-3.781,-9.8267
12070,-6.8664,-12.707
12082,-5.3389,-16.786
12094,-2.5133,-15.098
12105,-0.25864,-13.265
12117,0.59314,-15.016
12129,0.13406,-14.109
12141,0.69579,-11.309
12152,1.5193,-13.459
12164,-1.7136,-14.019
12176,-0.46815,-12.526
12188,-2.5393,-10.884
12199,-3.8512,-13.785
12211,-2.7275,-12.294
12223,-1.543,-13.62
12234,-4.2195,-14.693
12246,-1.3979,-13.26
12258,-3.6042,-12.999
12270,-2.9657,-15.79
12281,-3.9738,-16.184
12293,-1.5231,-12.891
12305,-3.1655,-13.571
12316,-4.8486,-11.965
12328,-2.9815,-10.583
12340,0.24013,-13.063
12352,-1.3297,-15.99
12363,-1.9897,-13.779
12375,-2.9811,-13.577
12387,-3.1619,-14.448
12398,-4.9762,-14.792
12410,-4.1113,-12.399
12422,-2.513,-13.223
12434,0.0064411,-14.412
12445,-2.6561,-16.125
12457,-3.9369,-13.685
12469,-3.2954,-11.745
12480,-1.5721,-10.068
12492,-1.685,-15.521
12504,-1.6081,-11.74
12516,-5.2523,-12.552
12527,-5.7492,-12.671
12539,-3.533,-13.18
12551,-1.7954,-16.347
12563,-2.7778,-15.175
12574,-3.2888,-15.834
12586,-0.26936,-13.189
12598,-0.64,-12.789
12609,-5.6029,-14.424
12621,-4.3095,-12.96
12633,-3.928,-11.513
12645,-3.9814,-16.026
12656,-4.1117,-15.783
12668,-2.2702,-14.289
12680,-2.522,-11.445
12691,-2.8141,-13.178
12703,-3.0135,-14.812
12715,-3.905,-12.364
12727,-5.3684,-11.323
12738,-2.5871,-12.319
12750,0.16661,-12.925
12762,-1.3065,-16.674
12773,-4.015,-13.405
12785,-2.6007,-12.903
12797,-2.3023,-12.626
12809,-4.0788,-13.384
12820,-3.0459,-13.051
12832,-4.4435,-12.377
12844,-2.156,-11.134
12855,-0.6564,-12.301
12867,-0.46518,-13.939
12879,-2.7431,-11.154
12891,-5.2964,-10.717
12902,-0.82575,-13.235
12914,-2.1268,-15.522
12926,-1.5586,-14.806
12938,-1.6749,-15.535
12949,-4.1186,-15.801
12961,-2.8345,-12.896
12973,-1.5333,-14.142
12984,-1.5803,-13.95
12996,-3.3236,-10.749
13008,-4.8059,-11.455
13020,-3.714,-14.025
13031,1.273,-14.453
13043,-2.9497,-16.462
13055,-4.9245,-14.203
13066,-5.1402,-12.38
13078,-2.1026,-12.556
13090,-3.5436,-10.767
13102,-5.6169,-10.886
13113,-2.7952,-11.567
13125,-1.5177,-11.75
13137,-2.3711,-11.702
13148,-1.3963,-12.856
13160,-1.1209,-12.649
13172,-2.8069,-14.283
13184,-2.2489,-13.188
13195,-1.1707,-12.352
13207,-3.1068,-12.962
13219,-3.1418,-13.687
13230,-6.5784,-13.703
13242,-2.2288,-14.646
13254,0.60602,-15.157
13266,-0.0035773,-15.203
13277,-0.5926,-15.52
13289,-3.5952,-10.942
13301,-5.7843,-12.302
13313,-7.0113,-11.296
13324,-6.9101,-12.947
13336,-5.7811,-13.083
13348,-2.9569,-15.487
13359,-2.2665,-18.467
13371,-2.4547,-16.683
13383,-2.7482,-16.246
13395,0.32841,-15.502
13406,-2.0162,-13.658
13418,-6.609,-10.505
13430,-3.2478,-11.859
13441,-1.2772,-13.188
13453,-3.2707,-12.161
13465,-4.2772,-12.617
13477,-5.8253,-13.489
13488,-3.0984,-14.61
13500,-2.7294,-13.692
13512,-1.1512,-15.319
13523,-1.8708,-18.786
13535,-3.4604,-16.321
13547,-0.30955,-14.174
13559,-1.1519,-11.426
13570,-2.2234,-14.463
13582,-1.4327,-12.819
13594,-1.1798,-15.206
13605,-6.8492,-18.296
13617,-6.4508,-16.231
13629,-1.7715,-14.051
13641,-0.23182,-15.616
13652,-3.9147,-13.194
13664,-5.2196,-11.821
13676,-5.8096,-13.293
13688,-5.0826,-12.007
13699,-4.8482,-12.936
13711,-4.2264,-17.104
13723,-3.0636,-11.366
13734,-1.7053,-11.822
13746,-2.5223,-12.84
13758,-2.6388,-11.946
13770,-0.9907,-13.127
13781,-0.68354,-15.515
13793,-2.0559,-16.391
13805,-4.5866,-13.908
13816,-2.7126,-11.721
13828,-4.8551,-13.607
13840,-8.6159,-13.258
13852,-7.0789,-13.686
13863,-2.3443,-13.395
13875,-2.0487,-11.34
13887,-4.6691,-9.8719
13898,-2.2056,-12.589
13910,-4.2889,-14.516
13922,-4.0217,-13.079
13934,-6.5862,-11.519
13945,-6.4662,-13.605
13957,-5.6575,-15.27
13969,-4.8104,-14.749
13980,-5.9492,-16.352
13992,-5.3487,-11.356
14004,-4.6103,-11.042
14016,-4.1011,-14.271
14027,-3.7672,-15.845
14039,-0.81429,-14.966
14051,-1.4455,-13.587
14063,-2.9116,-12.565
14074,-5.0555,-11.895
14086,-3.2821,-11.3
14098,-3.7022,-13.942
14109,-3.0195,-14.416
14121,-3.9045,-14.183
14133,-6.3895,-16.209
14145,-6.0022,-15.423
14156,-4.2705,-12.835
14168,-4.2142,-13.746
14180,-3.0183,-13.696
14191,-1.9758,-15.036
14203,-3.0797,-12.85
14215,-2.9982,-12.955
14227,-4.577,-14.882
14238,-5.657,-13.319
14250,-5.452,-13.299
14262,-5.5516,-13.825
14273,-4.0469,-15.349
14285,-1.1535,-16.666
14297,-2.8634,-15.263
14309,-3.8707,-13.578
14320,-2.358,-14.763
14332,-4.7817,-15.046
14344,-4.5575,-15.1
14355,-4.7509,-13.674
14367,-3.9518,-13.12
14379,-3.8188,-15.456
14391,-4.9693,-14.905
14402,-4.0145,-12.734
14414,-3.9314,-13.491
14426,-3.5012,-16.391
14438,-2.895,-17.299
14449,-5.425,-14.437
14461,-2.7954,-14.679
14473,0.19453,-14.571
14484,-2.849,-15.307
14496,-5.9266,-14.324
14508,-6.0405,-12.386
14520,-3.5659,-13.409
14531,-4.1278,-13.151
14543,-5.2437,-13.113
14555,-4.6091,-12.919
14566,-1.2317,-12.946
14578,-2.5865,-11.548
14590,-5.0391,-10.591
14602,-4.7252,-12.428
14613,-4.5412,-15.093
14625,-4.5012,-16.483
14637,-3.5637,-17.162
14648,-4.9278,-17.027
14660,-1.4986,-15.775
14672,-2.103,-14.381
14684,-3.2416,-18.118
14695,-5.6907,-13.969
14707,-5.6414,-15.44
14719,-8.4542,-16.117
14730,-6.7656,-14.37
14742,-4.6466,-13.408
14754,-6.6417,-11.662
14766,-8.1535,-15.434
14777,-8.2723,-14.754
14789,-7.8553,-13.48
14801,-7.2139,-15.585
14813,-4.8318,-15.646
14824,-4.3482,-14.992
14836,-6.7336,-16.525
14848,-8.0765,-13.947
14859,-8.041,-13.521
14871,-4.438,-17.012
14883,-4.5083,-14.651
14895,-4.2981,-14.709
14906,-6.4883,-14.955
14918,-5.8777,-14.856
14930,-4.8598,-15.552
14941,-4.3916,-15.598
14953,-5.0905,-15.637
14965,-4.1911,-13.419
14977,-4.162,-14.072
14988,-8.2883,-14.982
15000,-6.4122,-15.812
15012,-7.8892,-14.566
15023,-7.1976,-14.163
15035,-4.9304,-17.069
15047,-5.2923,-18.866
15059,-2.4291,-18.356
15070,-4.2185,-16.622
15082,-7.8334,-15.325
15094,-3.1251,-15.134
15105,-3.8811,-15.675
15117,-5.3372,-16.23
15129,-5.0886,-16.531
15141,-5.8864,-15.998
15152,-6.0054,-16.421
15164,-3.451,-17.429
15176,-5.9248,-15.379
15188,-6.0587,-17.605
15199,-5.4066,-16.643
15211,-6.8751,-14.452
15223,-6.2497,-14.18
15234,-4.6316,-12.7
15246,-4.7463,-11.221
15258,-4.4006,-11.681
15270,-7.6834,-13.223
15281,-7.7441,-14.958
15293,-7.6232,-17.322
15305,-5.4841,-15.327
15316,-4.8621,-16.011
15328,-3.6377,-16.848
15340,-7.0653,-15.976
15352,-7.0697,-14.688
15363,-4.7316,-14.352
15375,-5.9305,-13.829
15387,-5.8444,-14.149
15398,-7.6396,-14.269
15410,-5.3655,-12.474
15422,-5.3619,-13.791
15434,-6.8831,-14.369
15445,-7.3027,-13.366
15457,-7.3088,-12.873
15469,-8.5456,-13.481
15480,-7.5927,-19.855
15492,-7.4572,-16.326
15504,-4.0719,-14.795
15516,-5.3039,-17.537
15527,-8.4295,-17.491
15539,-7.6893,-19.76
15551,-7.9268,-18.28
15563,-8.0522,-15.546
15574,-7.7877,-15.825
15586,-5.6818,-14.992
15598,-4.086,-14.823
15609,-5.6892,-14.693
15621,-8.5721,-14.116
15633,-8.5341,-14.032
15645,-7.9737,-14.134
15656,-9.5314,-14.177
15668,-11.181,-16.497
15680,-9.5691,-18.416
15691,-6.3636,-19.952
15703,-5.7293,-16.126
15715,-7.9945,-15.858
15727,-10.994,-14.809
15738,-8.9498,-13.328
15750,-7.6909,-17.085
15762,-5.2627,-15.819
15773,-4.7563,-13.049
15785,-7.3433,-17.035
15797,-7.6555,-17.683
15809,-7.4331,-16.331
15820,-4.9934,-16.626
15832,-6.4816,-15.372
15844,-6.006,-18.28
15855,-7.6786,-12.363
15867,-4.8592,-12.526
15879,-7.3504,-14.599
15891,-7.6504,-14.403
15902,-9.1699,-15.613
15914,-10.797,-14.096
15926,-8.2256,-13.562
15938,-8.5503,-14.875
15949,-9.9262,-16.265
15961,-11.557,-13.782
15973,-12.242,-13.529
15984,-8.8872,-14.395
15996,-4.1731,-15.828
16008,-5.2226,-16.059
16020,-9.6104,-14.394
16031,-9.9035,-17.575
16043,-7.7498,-17.055
16055,-8.2495,-14.467
16066,-9.5044,-14.824
16078,-8.1653,-13.09
16090,-6.2438,-12.758
16102,-8.9257,-13.363
16113,-10.04,-13.14
16125,-7.3444,-15.654
16137,-7.1859,-15.843
16148,-8.473,-15.311
16160,-6.3435,-16.854
16172,-4.1138,-17.125
16184,-3.5689,-16.819
16195,-6.2163,-15.664
16207,-8.1512,-17.864
16219,-6.9883,-19.936
16230,-7.455,-17.73
16242,-6.7087,-16.003
16254,-8.1602,-16.351
16266,-10.175,-18.657
16277,-7.0426,-15.712
16289,-7.7484,-15.293
16301,-10.021,-16.387
16313,-11,-15.615
16324,-9.9541,-16.489
16336,-6.0085,-15.896
16348,-6.2604,-17.255
16359,-11.335,-15.695
16371,-12.475,-13.138
16383,-11.265,-15.167
16395,-6.9334,-18.293
16406,-7.561,-16.902
16418,-9.4606,-15.266
16430,-5.5196,-15.752
16441,-5.1061,-15.492
16453,-8.5025,-14.139
16465,-10.043,-12.492
16477,-8.5074,-14.616
16488,-4.909,-16.784
16500,-6.0094,-16.638
16512,-10.676,-17.361
16523,-11.071,-16.818
16535,-10.55,-14.79
16547,-7.7675,-15.441
16559,-8.2258,-15.69
16570,-9.1139,-13.725
16582,-9.1438,-14.416
16594,-9.1452,-14.393
16605,-7.648,-15.315
16617,-10.18,-18.629
16629,-8.9019,-15.916
16641,-8.9756,-16.865
16652,-10.452,-16.118
16664,-9.6596,-18.391
16676,-9.6072,-16.326
16688,-7.7795,-13.738
16699,-8.589,-17.002
16711,-11.829,-15.963
16723,-9.8286,-18.678
16734,-11.028,-16.554
16746,-7.3876,-17.286
16758,-6.9387,-14.974
16770,-8.4865,-14.798
16781,-8.4901,-13.832
16793,-10.528,-15.309
16805,-10.625,-16.095
16816,-8.313,-15.725
16828,-7.7463,-14.321
16840,-10.287,-14.68
16852,-10.611,-15.86
16863,-10.23,-18.474
16875,-8.9004,-20.132
16887,-9.3893,-18.595
16898,-8.6501,-15.642
16910,-7.741,-13.888
16922,-12.201,-16.403
16934,-12.671,-16.164
16945,-11.932,-17.955
16957,-10.116,-18.194
16969,-8.8643,-18.49
16980,-8.572,-17.592
16992,-9.0291,-16.596
17004,-8.2679,-16.639
17016,-6.839,-18.786
17027,-7.2122,-18.323
17039,-8.7621,-16.44
17051,-10.202,-15.364
17063,-9.7828,-18.154
17074,-8.2627,-14.641
17086,-9.3497,-17.084
17098,-8.7909,-17.253
17109,-13.503,-17.205
17121,-13.83,-17.42
17133,-11.93,-16.695
17145,-12.024,-15.55
17156,-11.201,-17.436
17168,-8.1603,-19.143
17180,-10.105,-20.543
17191,-11.678,-17.457
17203,-10.126,-15.964
17215,-9.4329,-17.653
17227,-9.486,-17.701
17238,-13.175,-17.683
17250,-11.269,-18.649
17262,-11.66,-18.384
17273,-10.659,-16.439
17285,-10.043,-17.622
17297,-9.1673,-17.755
17309,-7.9189,-18.051
17320,-8.4697,-17.788
17332,-6.5974,-18.622
17344,-6.9471,-17.407
17355,-10.446,-17.345
17367,-12.997,-17.055
17379,-13.981,-17.463
17391,-10.279,-16.515
17402,-9.746,-14.835
17414,-8.5809,-15.814
17426,-13.046,-21.961
17438,-12.797,-16.264
17449,-10.215,-16.633
17461,-8.3224,-17.716
17473,-8.6434,-16.924
17484,-10.412,-17.965
17496,-9.6083,-17.09
17508,-5.8922,-16.712
17520,-8.4871,-16.799
17531,-9.5294,-15.279
17543,-10.408,-15.668
17555,-7.1904,-16.421
17566,-6.6411,-14.612
17578,-12.232,-16.424
17590,-13.277,-17.006
17602,-13.945,-15.165
17613,-8.8919,-19.163
17625,-8.3878,-18.467
17637,-10.694,-15.975
17648,-11.088,-15.605
17660,-11.685,-16.33
17672,-11.703,-17.988
17684,-11.085,-16.573
17695,-11.217,-18.256
17707,-9.6015,-17.137
17719,-9.6052,-18.149
17730,-8.8926,-18.677
17742,-10.645,-18.59
17754,-12.81,-17.701
17766,-8.9547,-15.742
17777,-8.0856,-16.534
17789,-10.974,-16.859
17801,-11.937,-17.573
17813,-13.656,-17.223
17824,-14.494,-19.306
17836,-11.87,-15.806
17848,-11.444,-16.191
17859,-13.435,-16.966
17871,-12.867,-15.883
17883,-12.967,-16.67
17895,-14.058,-17.593
17906,-13.311,-18.624
17918,-10.245,-18.538
17930,-11.839,-16.689
17941,-9.2326,-16.291
17953,-10.613,-14.534
17965,-9.7237,-14.926
17977,-9.9629,-17.971
17988,-14.364,-19.08
18000,-8.8636,-15.401
18012,-8.882,-17.87
18023,-9.8722,-16.241
18035,-7.7303,-14.728
18047,-8.2938,-18.26
18059,-10.676,-17.116
18070,-11.904,-16.043
18082,-12.246,-16.522
18094,-11.864,-18.866
18105,-14.978,-18.24
18117,-10.8,-19.353
18129,-9.0848,-19.519
18141,-9.4671,-16.252
18152,-9.164,-15.212
18164,-10.322,-19.389
18176,-10.864,-18.088
18188,-8.3537,-18.873
18199,-10.305,-18.199
18211,-9.7634,-16.28
18223,-8.4429,-16.089
18234,-11.459,-17.007
18246,-14.233,-19.475
18258,-12.257,-19.411
18270,-11.975,-20.793
18281,-13.298,-18.748
18293,-13.4,-18.167
18305,-12.246,-15.023
18316,-14.841,-16.392
18328,-14.268,-18.09
18340,-13.415,-17.882
18352,-13.341,-17.714
18363,-12.723,-18.897
18375,-13.201,-19.32
18387,-13.884,-18.641
18398,-12.552,-19.536
18410,-11.504,-17.268
18422,-11.207,-17.291
18434,-11.514,-14.338
18445,-10.921,-14.944
18457,-11.439,-17.411
18469,-13.577,-18.79
18480,-11.369,-17.205
18492,-10.679,-18.369
18504,-10.627,-16.46
18516,-11.067,-18.387
18527,-11.667,-16.748
18539,-15.638,-13.688
18551,-12.7,-14.939
18563,-10.732,-15.855
18574,-12.001,-14.116
18586,-12.396,-15.746
18598,-12.731,-14.946
18609,-9.7088,-12.578
18621,-9.9964,-13.45
18633,-12.249,-17.057
18645,-13.44,-18.305
18656,-13.105,-19.202
18668,-12.363,-17.96
18680,-12.821,-18.076
18691,-15.132,-18.29
18703,-14.094,-15.958
18715,-11.735,-17.694
18727,-15.194,-19.533
18738,-14.612,-18.131
18750,-12.659,-17.129
18762,-13.322,-16.154
18773,-13.575,-15.482
18785,-12.722,-15.336
18797,-11.714,-16.892
18809,-14.243,-19.049
18820,-11.715,-18.735
18832,-11.911,-14.64
18844,-11.907,-13.975
18855,-13.239,-18.572
18867,-13.315,-17.557
18879,-14.904,-18.157
18891,-11.512,-18.953
18902,-11.263,-19.402
18914,-15.219,-20.163
18926,-11.664,-18.559
18938,-11.951,-16.709
18949,-14.996,-18.293
18961,-12.432,-21.481
18973,-12.74,-20.704
18984,-12.777,-21.418
18996,-9.9423,-13.587
19008,-9.3381,-15.407
19020,-9.4693,-18.337
19031,-13.802,-18.61
19043,-13.714,-16.624
19055,-13.871,-14.81
19066,-14.997,-17.405
19078,-11.831,-19.422
19090,-9.9631,-19.27
19102,-9.1903,-17.491
19113,-10.55,-20.629
19125,-10.723,-21.361
19137,-10.332,-18.413
19148,-13.54,-17.359
19160,-13.439,-17.626
19172,-11.779,-17.302
19184,-13.728,-16.998
19195,-12.536,-20.018
19207,-9.2429,-19.019
19219,-8.5483,-20.627
19230,-11.002,-18.087
19242,-12.686,-15.96
19254,-14.573,-15.437
19266,-12.203,-17.572
19277,-12.499,-18.271
19289,-15.05,-18.018
19301,-14.833,-21.136
19313,-11.121,-18.132
19324,-10.598,-17.247
19336,-12.197,-17.815
19348,-12.281,-17.114
19359,-12.328,-16.547
19371,-14.23,-17.142
19383,-11.489,-18.148
19395,-11.814,-17.757
19406,-11.836,-18.991
19418,-12.665,-20.187
19430,-11.794,-19.847
19441,-11.289,-19.893
19453,-10.719,-17.699
19465,-11.864,-15.604
19477,-14.944,-15.412
19488,-15.466,-17.244
19500,-12.501,-20.055
19512,-11.156,-17.592
19523,-12.916,-17.458
19535,-11.038,-18.027
19547,-13.608,-19.584
19559,-14.483,-16.981
19570,-14.66,-15.814
19582,-13.348,-15.792
19594,-12.386,-18.015
19605,-11.811,-19.073
19617,-14.812,-17.502
19629,-16.054,-18.901
19641,-15.108,-18.864
19652,-14.226,-22.752
19664,-14.215,-18.069
19676,-12.619,-16.53
19688,-12.965,-15.742
19699,-14.5,-18.734
19711,-16.107,-16.756
19723,-14.254,-17.784
19734,-14.728,-15.868
19746,-15.909,-18.195
19758,-16.671,-17.192
19770,-12.886,-16.487
19781,-14.365,-18.325
19793,-14.032,-20.692
19805,-13.477,-18.683
19816,-16.762,-17.858
19828,-14.842,-17.588
19840,-11.79,-18.058
19852,-11.819,-16.003
19863,-12.882,-17.955
19875,-14.324,-18.675
19887,-15.268,-18.587
19898,-14.447,-19.395
19910,-11.405,-17.361
19922,-12.007,-18.381
19934,-13.733,-18.254
19945,-13.463,-13.213
19957,-14.207,-13.835
19969,-13.727,-16.778
19980,-13.832,-16.01
19992,-13.091,-14.999
20004,-11.404,-14.922
20016,-13.013,-15.523
20027,-13.406,-17.384
20039,-12.532,-18.258
20051,-13.988,-18.629
20063,-13.619,-18.148
20074,-13.312,-16.926
20086,-13.786,-17.174
20098,-14.11,-17.878
20109,-11.062,-17.129
20121,-12.323,-17.345
20133,-12.457,-20.701
20145,-11.585,-23.433
20156,-10.463,-19.564
20168,-13.824,-22.229
20180,-13.65,-22.493
20191,-13.543,-21.314
20203,-11.381,-21.986
20215,-14.34,-21.211
20227,-18.326,-19.77
20238,-16.366,-16.783
20250,-15.482,-16.866
20262,-14.931,-22.557
20273,-14.322,-21.137
20285,-14.157,-17.493
20297,-12.783,-16.289
20309,-11.076,-16.821
20320,-13.216,-18.368
20332,-17.274,-15.806
20344,-17.151,-16.487
20355,-17.306,-18.366
20367,-16.115,-20.715
20379,-17.814,-18.945
20391,-11.823,-17.71
20402,-12.313,-20.003
20414,-14.303,-16.537
20426,-11.21,-19.908
20438,-13.172,-17.79
20449,-14.687,-14.883
20461,-13.132,-16.293
20473,-13.55,-19.357
20484,-14.463,-20.939
20496,-12.007,-20.938
20508,-12.127,-19.227
20520,-12.788,-15.542
20531,-14.398,-14.556
20543,-13.639,-20.478
20555,-15.934,-20.121
20566,-16.837,-19.216
20578,-12.65,-19.017
20590,-12.4,-20.474
20602,-14.907,-23.361
20613,-13.996,-22.118
20625,-13.711,-18.56
20637,-14.786,-17.643
20648,-16.903,-18.984
20660,-15.087,-18.473
20672,-15.879,-18.675
20684,-17.322,-18.061
20695,-16.141,-17.855
20707,-14.733,-18.848
20719,-14.235,-18.641
20730,-13.38,-15.384
20742,-11.268,-14.392
20754,-11.132,-20.376
20766,-14.317,-20.082
20777,-13.469,-16.976
20789,-13.612,-17.733
20801,-13.324,-14.752
20813,-13.255,-15.155
20824,-15.667,-18.252
20836,-16.291,-19.262
20848,-15.634,-18.007
20859,-14.915,-17.506
20871,-15.314,-17.148
20883,-12.287,-15.793
20895,-12.326,-17.994
20906,-14.788,-19.239
20918,-13.562,-20.16
20930,-11.756,-18.834
20941,-16.903,-19.433
20953,-17.426,-20.015
20965,-15.193,-19.749
20977,-11.94,-19.793
20988,-12.694,-15.911
21000,-18.233,-14.246
21012,-19.257,-21.577
21023,-16.053,-16.891
21035,-15.31,-19.76
21047,-13.726,-20.251
21059,-12.523,-18.085
21070,-14.992,-20.835
21082,-14.469,-21.867
21094,-13.463,-20.701
21105,-16.686,-16.84
21117,-16.586,-17.488
21129,-15.909,-20.075
21141,-18.133,-22.265
21152,-14.985,-23.636
21164,-13.989,-20.395
21176,-18.107,-21.784
21188,-17.681,-24.786
21199,-15.192,-19.604
21211,-14.09,-19.428
21223,-12.696,-18.923
21234,-13.99,-17.622
21246,-14.192,-18.116
21258,-14.311,-17.13
21270,-17.71,-20.67
21281,-15.361,-20.66
21293,-19.478,-19.617
21305,-17.273,-20.977
21316,-15.935,-22.568
21328,-13.7,-20.685
21340,-15.543,-20.974
21352,-12.462,-19.711
21363,-11.87,-21.026
21375,-11.251,-21.724
21387,-12.746,-21.265
21398,-17.242,-16.883
21410,-15.465,-17.67
21422,-16.956,-21.749
21434,-16.954,-21.141
21445,-14.285,-19.998
21457,-18.279,-18.357
21469,-18.556,-17.163
21480,-17.366,-18.687
21492,-15.452,-18.513
21504,-14.599,-22.949
21516,-15.845,-22.321
21527,-14.266,-21.279
21539,-12.915,-21.833
21551,-17.55,-19.523
21563,-18.478,-19.97
21574,-14.557,-21.195
21586,-14.981,-21.697
21598,-17.999,-17.934
21609,-17.632,-19.806
21621,-16.235,-19.449
21633,-13.053,-17.852
21645,-13.705,-19.107
21656,-16.668,-19.742
21668,-14.02,-19.155
21680,-12.716,-18.189
21691,-15.553,-19.792
21703,-18.986,-22.518
21715,-16.323,-21.836
21727,-19.03,-22.619
21738,-18.26,-20.416
21750,-19.208,-20.561
21762,-18.101,-17.518
21773,-18.17,-18.932
21785,-18.475,-19.436
21797,-14.665,-17.518
21809,-12.296,-16.745
21820,-11.463,-20.586
21832,-11.913,-18.011
21844,-15.008,-20.432
21855,-18.843,-19.154
21867,-16.247,-18.811
21879,-12.796,-19.704
21891,-14.734,-20.193
21902,-15.152,-22.195
21914,-15.988,-21.812
21926,-15.314,-21.424
21938,-17.193,-19.263
21949,-17.122,-20.4
21961,-18.984,-22.061
21973,-19.757,-21.203
21984,-16.305,-18.667
21996,-14.971,-17.656
22008,-18.007,-19.227
22020,-18.838,-17.923
22031,-17.307,-20.224
22043,-14.508,-23.378
22055,-16.6,-22.632
22066,-17.602,-21.866
22078,-16.753,-20.299
22090,-16.191,-19.417
22102,-14.502,-18.11
22113,-13.394,-17.67
22125,-15.77,-16.68
22137,-19.005,-19.219
22148,-17.135,-21.927
22160,-17.251,-22.09
22172,-18.032,-23.559
22184,-21.082,-19.611
22195,-19.365,-24.062
22207,-16.11,-21.188
22219,-14.898,-23.819
22230,-17.109,-22.62
22242,-18.717,-18.433
22254,-17.019,-16.335
22266,-17.509,-18.176
22277,-17.786,-20.167
22289,-15.068,-18.301
22301,-16.005,-16.893
22313,-20.253,-16.477
22324,-17.733,-16.75
22336,-17.627,-19.509
22348,-15.627,-21.159
22359,-15.257,-19.444
22371,-14.497,-17.892
22383,-16.251,-19.744
22395,-14.905,-18.722
22406,-14.825,-16.443
22418,-15.382,-18.528
22430,-14.925,-20.776
22441,-15.493,-21.376
22453,-13.857,-20.541
22465,-15.557,-18.927
22477,-18.109,-17.648
22488,-16.149,-18.58
22500,-15.394,-19.492
22512,-16.011,-16.877
22523,-17.508,-16.834
22535,-17.024,-18.683
22547,-15.015,-16.971
22559,-15.655,-18.241
22570,-15.516,-21.417
22582,-17.268,-18.649
22594,-15.595,-19.092
22605,-15.52,-20.981
22617,-17.206,-21.872
22629,-18.215,-18.074
22641,-15.575,-19.399
22652,-17.595,-19.521
22664,-19.357,-18.978
22676,-14.583,-19.364
22688,-15.028,-18.495
22699,-16.741,-20.13
22711,-17.468,-17.254
22723,-16.487,-21.965
22734,-14.075,-22.599
22746,-15.42,-18.891
22758,-15.343,-19.621
22770,-14.251,-21.207
22781,-16.722,-22.4
22793,-20.086,-21.498
22805,-17.34,-21.608
22816,-19.059,-21.827
22828,-18.04,-21.243
22840,-18.923,-21.279
22852,-17.035,-22.407
22863,-14.249,-22.597
22875,-16.688,-19.938
22887,-16.424,-21.115
22898,-16.869,-21.616
22910,-16.614,-20.647
22922,-16.579,-21.402
22934,-16.517,-20.06
22945,-15.183,-19.685
22957,-17.188,-20.247
22969,-19.588,-21.092
22980,-19.856,-19.947
22992,-17.799,-21.506
23004,-16.481,-20.852
23016,-16.552,-20.693
23027,-21.497,-19.531
23039,-17.566,-19.278
23051,-15.067,-18.589
23063,-13.531,-16.616
23074,-15.58,-16.702
23086,-16.112,-19.329
23098,-18.182,-18.968
23109,-18.091,-18.313
23121,-15.441,-19.636
23133,-16.832,-21.991
23145,-19.819,-22.203
23156,-20.637,-20.476
23168,-17.111,-20.825
23180,-16.733,-18.064
23191,-20.638,-17.81
23203,-21.333,-20.487
23215,-18.766,-20.892
23227,-15.591,-19.55
23238,-14.936,-22.374
23250,-17.133,-18.496
23262,-15.699,-19.172
23273,-19.309,-18.451
23285,-17.679,-20.516
23297,-16.12,-21.336
23309,-17.816,-20.749
23320,-19.914,-20.821
23332,-16.683,-21.138
23344,-14.76,-22.09
23355,-18.999,-23.157
23367,-18.677,-21.802
23379,-20.221,-22.944
23391,-17.628,-21.693
23402,-16.902,-21.764
23414,-17.32,-22.63
23426,-19.26,-24.246
23438,-17.191,-21.905
23449,-20.152,-24.714
23461,-19.26,-24.011
23473,-16.981,-22.324
23484,-15.253,-18.052
23496,-17.202,-19.014
23508,-20.365,-17.635
23520,-17.443,-23.076
23531,-14.029,-21.127
23543,-14.911,-23.404
23555,-21.278,-20.93
23566,-17.192,-18.637
23578,-14.704,-16.491
23590,-14.125,-18.942
23602,-15.765,-22.229
23613,-18.076,-21.696
23625,-17.085,-19.24
23637,-16.222,-19.238
23648,-18.725,-20.683
23660,-19.716,-21.282
23672,-17.841,-18.992
23684,-16.824,-20.159
23695,-18.743,-19.238
23707,-15.999,-18.75
23719,-14.753,-20.405
23730,-16.244,-20.521
23742,-20.176,-18.657
23754,-16.988,-22.666
23766,-17.447,-20.551
23777,-17.937,-21.706
23789,-16.07,-22.687
23801,-17.873,-20.651
23813,-16.522,-22.274
23824,-16.49,-20.859
23836,-18.905,-21.833
23848,-19.461,-22.76
23859,-16.638,-21.867
23871,-16.921,-20.368
23883,-17.744,-22.71
23895,-17.151,-20.061
23906,-17.531,-21.355
23918,-14.588,-20.825
23930,-13.694,-20.375
23941,-18.553,-22.484
23953,-17.765,-23.886
23965,-18.407,-21.166
23977,-19.751,-22.401
23988,-18.39,-22.349
