FFT,Power Spectrum
Frequency[Hz],Level-L[dB],Level-R[dB]
11.719,-5.4102,-62.128
23.438,14.419,-52.766
35.156,11.493,-41.483
46.875,11.96,-27.755
58.594,20.599,-25.655
70.313,21.799,-28.03
82.031,22.167,-27.373
93.75,24.378,-24.586
105.47,21.704,-21.913
117.19,17.714,-20.72
128.91,18.995,-21.679
140.63,23.096,-19.958
152.34,20.21,-16.899
164.06,19.841,-13.582
175.78,22.394,-14.121
187.5,20.25,-16.852
199.22,21.287,-17.181
210.94,16.814,-18.913
222.66,16.172,-18.069
234.38,35.061,-18.406
246.09,45.8,-15.685
257.81,44.275,-14.815
269.53,26.57,-14.675
281.25,17.368,-13.016
292.97,16.144,-14.424
304.69,15.919,-15.945
316.41,14.623,-19.241
328.13,14.602,-16.373
339.84,16.131,-13.926
351.56,17.508,-10.864
363.28,16.126,-12.058
375,17.007,-12.184
386.72,17.605,-11.391
398.44,20.829,-15.221
410.16,17.923,-14.822
421.88,19.301,-12.075
433.59,19.358,-9.5113
445.31,17.69,-8.2954
457.03,15.706,-10.889
468.75,12.554,-8.1111
480.47,16.439,-6.1764
492.19,15.769,-10.697
503.91,16.52,-14.764
515.63,17.603,-14.296
527.34,17.09,-10.654
539.06,18.611,-8.8956
550.78,17.497,-10.132
562.5,19.288,-11.217
574.22,20.955,-11.636
585.94,18.785,-11.325
597.66,18.122,-10.402
609.38,19.731,-10.51
621.09,22.093,-12.038
632.81,19.313,-9.7124
644.53,16.955,-9.5857
656.25,14.901,-10.237
667.97,17.665,-10.903
679.69,17.498,-11.587
691.41,17.626,-7.5668
703.13,18.13,-6.5533
714.84,17.115,-7.149
726.56,15.788,-7.891
738.28,15.231,-10.98
750,16.248,-10.378
761.72,16.437,-10.502
773.44,13.999,-10.076
785.16,13.46,-10.353
796.88,16.314,-8.8884
808.59,16.196,-6.9289
820.31,14.844,-9.2096
832.03,18.401,-10.131
843.75,19.824,-7.4064
855.47,17.186,-6.9415
867.19,14.314,-7.7563
878.91,17.813,-6.6626
890.63,17.034,-7.542
902.34,19.828,-7.8267
914.06,20.827,-6.9376
925.78,19.116,-6.5934
937.5,17.2,-10.278
949.22,14.428,-8.7807
960.94,17.001,-7.9646
972.66,17.211,-10.35
984.38,17.538,-9.4134
996.09,14.978,-8.751
1007.8,12.334,-9.4944
1019.5,13.633,-8.1248
1031.3,14.536,-8.9752
1043,14.14,-6.9644
1054.7,11.386,-8.8824
1066.4,12.896,-7.7437
1078.1,15.15,-6.5907
1089.8,17.745,-9.568
1101.6,13.957,-10.623
1113.3,14.898,-9.4094
1125,16.664,-7.4932
1136.7,15.301,-10.819
1148.4,14.041,-7.3309
1160.2,12.918,-8.2728
1171.9,16.678,-6.9532
1183.6,16.892,-8.7572
1195.3,18.535,-11.081
1207,18.073,-7.6425
1218.8,18.623,-7.8451
1230.5,18.111,-9.1343
1242.2,18.014,-10.177
1253.9,18.488,-9.7137
1265.6,17.043,-9.0783
1277.3,14.525,-10.293
1289.1,18.491,-6.9598
1300.8,19.388,-7.2588
1312.5,13.85,-7.0477
1324.2,14.015,-6.2236
1335.9,15.333,-6.5174
1347.7,14.904,-5.114
1359.4,14.01,-7.6259
1371.1,14.039,-8.5066
1382.8,16.887,-9.3604
1394.5,17.483,-9.3443
1406.3,18.105,-7.4681
1418,17.992,-7.3851
1429.7,16.889,-7.8978
1441.4,14.975,-7.0169
1453.1,15.841,-8.635
1464.8,15.934,-8.5665
1476.6,14.169,-8.0081
1488.3,13.776,-8.5527
1500,17.505,-10.738
1511.7,18.194,-9.3806
1523.4,16.799,-10.459
1535.2,17.187,-9.8379
1546.9,19.85,-7.5578
1558.6,19.202,-6.3214
1570.3,18.097,-4.892
1582,16.595,-8.3371
1593.8,17.55,-8.1311
1605.5,15.468,-8.4833
1617.2,15.55,-4.3871
1628.9,14.361,-6.4814
1640.6,13.822,-8.3467
1652.3,11.975,-8.5174
1664.1,10.74,-8.079
1675.8,16.194,-11.047
1687.5,18.806,-7.6576
1699.2,20.033,-5.6627
1710.9,18.085,-7.9745
1722.7,13.32,-10.215
1734.4,14.069,-7.2914
1746.1,12.975,-6.6007
1757.8,14.8,-8.1764
1769.5,18.361,-9.0486
1781.3,19.029,-10.15
1793,16.133,-9.2763
1804.7,15.061,-7.2907
1816.4,14.865,-6.1608
1828.1,16.271,-7.0863
1839.8,14.947,-7.0814
1851.6,14.842,-7.196
1863.3,17.17,-6.3716
1875,17.478,-4.3057
1886.7,16.492,-3.9101
1898.4,11.705,-3.9735
1910.2,12.816,-3.4953
1921.9,10.829,-4.2327
1933.6,12.22,-5.4506
1945.3,11.961,-7.3324
1957,9.6228,-8.5156
1968.8,12.676,-10.18
1980.5,13.246,-10.629
1992.2,11.945,-9.2353
2003.9,11.566,-7.16
2015.6,13,-7.303
2027.3,13.058,-8.9831
2039.1,11.632,-5.5527
2050.8,13.001,-3.6832
2062.5,10.192,-5.4512
2074.2,12.713,-4.8853
2085.9,14.845,-6.1337
2097.7,12.812,-11.367
2109.4,13.627,-9.0295
2121.1,14.399,-10.09
2132.8,12.956,-11.396
2144.5,11.296,-11.339
2156.3,12.003,-6.2058
2168,10.475,-6.8015
2179.7,7.7527,-7.9136
2191.4,12.261,-8.2116
2203.1,10.919,-6.0866
2214.8,9.4908,-5.509
2226.6,13.762,-5.2104
2238.3,14.711,-7.2104
2250,13.221,-9.5348
2261.7,10.849,-9.7384
2273.4,12.274,-7.2959
2285.2,11.696,-8.6417
2296.9,10.281,-9.2415
2308.6,8.0519,-8.1595
2320.3,9.4381,-7.2883
2332,13.762,-8.9921
2343.8,14.863,-6.0515
2355.5,13.406,-3.5344
2367.2,11.528,-7.5647
2378.9,14.666,-6.058
2390.6,15.589,-5.3686
2402.3,14.451,-6.0789
2414.1,12.961,-7.8793
2425.8,11.6,-6.8443
2437.5,11.076,-6.7523
2449.2,12.491,-8.4098
2460.9,13.025,-6.2718
2472.7,15.858,-6.7027
2484.4,13.58,-6.3324
2496.1,8.5706,-8.3444
2507.8,9.8963,-7.3453
2519.5,10.079,-6.4361
2531.3,9.9718,-9.3398
2543,10.516,-11.033
2554.7,11.082,-8.5148
2566.4,12.895,-6.6892
2578.1,14.654,-5.0098
2589.8,15.107,-7.5558
2601.6,13.536,-7.8594
2613.3,12.239,-6.8228
2625,11.127,-8.9285
2636.7,9.8599,-9.8823
2648.4,12.307,-7.975
2660.2,13.721,-8.5527
2671.9,9.6649,-9.0728
2683.6,9.9488,-7.5645
2695.3,12.409,-7.3272
2707,13.535,-9.1264
2718.8,10.029,-6.1226
2730.5,12.8,-4.9141
2742.2,15.709,-6.8241
2753.9,12.661,-6.8783
2765.6,12.151,-10.556
2777.3,11.87,-6.9231
2789.1,13.205,-6.038
2800.8,13.143,-6.0601
2812.5,11.214,-6.5511
2824.2,8.7727,-5.4994
2835.9,11.258,-8.7195
2847.7,10.524,-9.2896
2859.4,13.644,-9.416
2871.1,10.256,-5.9108
2882.8,6.7435,-4.9512
2894.5,7.7376,-6.836
2906.3,10.091,-7.7601
2918,12.467,-9.2837
2929.7,11.746,-7.5735
2941.4,9.962,-8.4516
2953.1,11.462,-7.4698
2964.8,10.557,-7.0873
2976.6,9.7574,-10.857
2988.3,10.435,-5.8227
3000,9.7018,-4.5801
3011.7,9.7424,-6.5345
3023.4,11.285,-8.0203
3035.2,12.851,-7.8487
3046.9,12.183,-7.7329
3058.6,8.9082,-4.9248
3070.3,11.296,-4.7884
3082,12.756,-4.5072
3093.8,11.17,-6.0586
3105.5,8.1308,-7.9511
3117.2,7.7211,-7.7767
3128.9,10.347,-9.5951
3140.6,9.7237,-8.6498
3152.3,8.3016,-8.3376
3164.1,7.6665,-8.6533
3175.8,10.247,-9.0141
3187.5,11.113,-6.6792
3199.2,11.973,-6.2587
3210.9,12.291,-7.7931
3222.7,10.773,-11.262
3234.4,11.268,-9.5633
3246.1,7.8124,-3.7305
3257.8,9.2536,-3.5732
3269.5,13.055,-4.7786
3281.3,14.738,-8.2099
3293,13.847,-8.333
3304.7,11.598,-8.87
3316.4,11.578,-10.422
3328.1,12.848,-10.192
3339.8,10.864,-6.9516
3351.6,12.021,-5.6569
3363.3,10.001,-6.2115
3375,10.277,-7.4605
3386.7,10.744,-8.1394
3398.4,10.381,-5.3576
3410.2,8.0558,-5.4575
3421.9,8.3989,-7.0047
3433.6,10.942,-8.6264
3445.3,7.5227,-6.9203
3457,8.7297,-6.4421
3468.8,7.7834,-6.3728
3480.5,8.3991,-5.6783
3492.2,8.3359,-5.3108
3503.9,9.4397,-5.5895
3515.6,10.373,-6.9318
3527.3,10.044,-5.4589
3539.1,11.329,-7.4745
3550.8,10.278,-8.6216
3562.5,8.9426,-7.7899
3574.2,8.6599,-10.447
3585.9,8.6084,-10.078
3597.7,11.228,-8.5654
3609.4,9.1067,-7.003
3621.1,6.006,-7.5701
3632.8,9.1761,-7.9562
3644.5,12.169,-4.8813
3656.3,14.695,-5.1553
3668,13.57,-9.0091
3679.7,10.441,-10.657
3691.4,7.7934,-10.03
3703.1,6.7364,-7.7637
3714.8,11.056,-8.9029
3726.6,9.8522,-7.6741
3738.3,8.1441,-7.3847
3750,10.683,-7.5919
3761.7,9.3512,-9.7748
3773.4,8.8498,-9.9271
3785.2,6.454,-6.6258
3796.9,6.1551,-7.2766
3808.6,5.1637,-8.2928
3820.3,5.0022,-9.5591
3832,9.0286,-6.6377
3843.8,8.0249,-7.5781
3855.5,11.652,-7.1334
3867.2,12.455,-7.6793
3878.9,8.1702,-3.7522
3890.6,9.2793,-5.5449
3902.3,9.969,-6.0356
3914.1,6.4747,-7.7625
3925.8,8.2329,-10.672
3937.5,6.3188,-6.9911
3949.2,4.9967,-8.2053
3960.9,4.5071,-9.4721
3972.7,4.7874,-5.2014
3984.4,5.5537,-7.693
3996.1,8.6402,-10.088
4007.8,7.2112,-6.4382
4019.5,8.0473,-8.1385
4031.3,7.6496,-6.8938
4043,8.5415,-5.4449
4054.7,10.941,-9.3402
4066.4,8.6935,-13.534
4078.1,8.2747,-12.309
4089.8,7.9286,-11.455
4101.6,7.3616,-7.3942
4113.3,9.2469,-9.899
4125,9.9397,-12.094
4136.7,8.8228,-10.482
4148.4,9.0827,-8.1588
4160.2,8.1017,-5.9736
4171.9,7.3077,-8.0274
4183.6,6.2144,-8.9945
4195.3,8.763,-6.4779
4207,10.406,-6.2172
4218.8,9.7888,-6.131
4230.5,5.0835,-7.598
4242.2,7.4606,-7.1643
4253.9,8.3056,-8.1886
4265.6,7.5745,-9.7235
4277.3,5.4911,-7.1437
4289.1,5.4418,-8.8284
4300.8,3.3353,-8.6809
4312.5,4.4445,-8.1381
4324.2,6.0449,-9.0835
4335.9,8.8406,-8.6688
4347.7,8.6839,-8.5219
4359.4,7.3547,-9.8157
4371.1,6.9208,-8.2219
4382.8,7.0101,-9.0573
4394.5,7.3573,-7.6401
4406.3,9.2467,-7.7831
4418,10.602,-9.3321
4429.7,7.7087,-10.222
4441.4,3.4525,-10.282
4453.1,6.2021,-8.3468
4464.8,9.2981,-6.4445
4476.6,8.7815,-4.9983
4488.3,7.198,-9.1187
4500,8.0189,-10.501
4511.7,8.7116,-8.4338
4523.4,8.6358,-8.7512
4535.2,6.9801,-9.1288
4546.9,3.4245,-8.357
4558.6,6.2567,-7.5485
4570.3,7.2325,-4.1723
4582,7.2386,-6.587
4593.8,8.5824,-7.9802
4605.5,7.6562,-9.1678
4617.2,9.6559,-11.029
4628.9,7.8284,-11.844
4640.6,7.0112,-9.5426
4652.3,6.9902,-7.0241
4664.1,5.7834,-8.4579
4675.8,4.9001,-9.7487
4687.5,7.7644,-9.6307
4699.2,8.6112,-9.5996
4710.9,6.7494,-8.4784
4722.7,6.2647,-5.4923
4734.4,6.8418,-6.9885
4746.1,3.8593,-6.6684
4757.8,8.1269,-7.9982
4769.5,7.834,-6.6605
4781.3,6.6951,-8.381
4793,5.7041,-9.2697
4804.7,4.7587,-5.7578
4816.4,4.2501,-8.0585
4828.1,7.0398,-9.5847
4839.8,7.6672,-6.9585
4851.6,7.7283,-8.1974
4863.3,9.2129,-6.5087
4875,8.5313,-4.5514
4886.7,5.9415,-7.6206
4898.4,4.652,-10.223
4910.2,7.2694,-7.9927
4921.9,8.5367,-7.0078
4933.6,7.1505,-7.9925
4945.3,7.8888,-9.488
4957,6.4508,-11.108
4968.8,7.5515,-11.503
4980.5,9.6559,-6.5335
4992.2,8.7212,-5.0207
5003.9,7.4313,-7.5274
5015.6,8.8216,-8.9236
5027.3,8.433,-7.0432
5039.1,6.5412,-10.707
5050.8,4.7761,-4.5949
5062.5,5.7029,-5.6153
5074.2,5.2876,-6.8644
5085.9,7.1683,-5.8532
5097.7,7.9834,-6.9221
5109.4,7.9263,-9.7233
5121.1,5.3486,-8.8152
5132.8,2.4482,-9.3112
5144.5,1.5175,-11.843
5156.3,4.774,-10.684
5168,7.6847,-9.5711
5179.7,8.2068,-10.004
5191.4,5.5832,-10.498
5203.1,4.5133,-8.7987
5214.8,3.7845,-7.302
5226.6,7.3095,-6.772
5238.3,7.9366,-7.772
5250,4.7502,-8.9382
5261.7,6.3574,-9.0394
5273.4,4.9648,-8.9961
5285.2,6.3988,-7.3343
5296.9,6.7779,-6.9279
5308.6,5.6504,-9.3434
5320.3,4.6456,-7.6918
5332,6.9422,-6.8448
5343.8,5.4985,-7.319
5355.5,3.5996,-7.0265
5367.2,7.062,-6.6702
5378.9,6.9298,-7.2219
5390.6,6.299,-6.4806
5402.3,7.3393,-3.0019
5414.1,7.4879,-4.2788
5425.8,6.5539,-9.3229
5437.5,3.8246,-8.2873
5449.2,2.6703,-8.1325
5460.9,4.8199,-9.4338
5472.7,7.2657,-5.7095
5484.4,8.1441,-5.0493
5496.1,7.2023,-4.0193
5507.8,6.7323,-5.3116
5519.5,6.8993,-7.0562
5531.3,9.1852,-12.718
5543,7.2859,-9.8623
5554.7,3.4861,-9.5873
5566.4,5.8111,-9.3606
5578.1,7.7257,-10.784
5589.8,4.1502,-9.3962
5601.6,4.4101,-8.4561
5613.3,3.8732,-7.0504
5625,5.1926,-7.3817
5636.7,6.4879,-9.7026
5648.4,5.2945,-11.109
5660.2,5.3596,-10.628
5671.9,9.25,-9.0719
5683.6,8.5797,-8.957
5695.3,5.3012,-8.7878
5707,8.1731,-6.9165
5718.8,3.9928,-8.1858
5730.5,-0.58924,-8.9261
5742.2,4.7651,-9.3713
5753.9,8.2667,-10.674
5765.6,6.4233,-8.785
5777.3,5.2071,-6.4329
5789.1,10.027,-7.4571
5800.8,7.1139,-9.5451
5812.5,8.1952,-13.72
5824.2,6.9496,-9.5305
5835.9,4.467,-6.9317
5847.7,7.111,-7.6877
5859.4,8.7645,-7.0623
5871.1,4.8522,-6.8901
5882.8,5.4065,-7.3721
5894.5,4.9796,-8.559
5906.3,7.4493,-9.3581
5918,6.5948,-8.4735
5929.7,7.4814,-8.4351
5941.4,7.4269,-9.7264
5953.1,7.1247,-8.2588
5964.8,8.1119,-6.6885
5976.6,7.9893,-8.62
5988.3,4.8244,-7.6029
6000,4.8261,-7.4012
6011.7,5.5746,-10.588
6023.4,6.2082,-8.4643
6035.2,8.663,-8.0344
6046.9,7.7117,-10.744
6058.6,6.1715,-9.445
6070.3,6.482,-6.2406
6082,7.0494,-4.718
6093.8,5.4674,-7.5545
6105.5,5.5103,-6.1392
6117.2,3.7917,-7.8213
6128.9,6.6013,-9.3781
6140.6,6.8884,-9.0847
6152.3,5.7125,-8.4375
6164.1,7.1565,-8.5264
6175.8,3.3802,-9.2074
6187.5,3.6999,-10.102
6199.2,6.5644,-9.7557
6210.9,6.6104,-8.8739
6222.7,4.5827,-8.5409
6234.4,4.7561,-10.558
6246.1,8.8241,-9.8273
6257.8,7.3251,-9.6084
6269.5,4.886,-9.604
6281.3,5.127,-10.049
6293,2.2992,-7.7119
6304.7,2.9757,-6.0669
6316.4,6.2776,-8.6376
6328.1,4.1489,-11.253
6339.8,0.62669,-11.586
6351.6,2.6482,-9.2232
6363.3,5.0826,-9.5942
6375,5.0993,-9.0363
6386.7,3.8086,-10.377
6398.4,2.236,-7.908
6410.2,3.8007,-9.6271
6421.9,2.602,-11.56
6433.6,4.8764,-9.1089
6445.3,6.0156,-9.0684
6457,2.0291,-7.7684
6468.8,3.0156,-6.6924
6480.5,6.0615,-7.0553
6492.2,5.964,-7.9939
6503.9,4.058,-9.0275
6515.6,1.9606,-9.8625
6527.3,2.0721,-7.9362
6539.1,3.4483,-8.9515
6550.8,4.5626,-9.4768
6562.5,3.5958,-6.6253
6574.2,4.1459,-6.7074
6585.9,5.0754,-13.706
6597.7,3.9427,-6.8281
6609.4,5.1142,-7.6577
6621.1,7.04,-9.0627
6632.8,8.169,-5.4897
6644.5,7.4629,-9.0053
6656.3,6.9582,-9.3238
6668,2.0936,-8.1856
6679.7,5.7081,-12.344
6691.4,5.7652,-9.519
6703.1,5.2582,-10.305
6714.8,5.0996,-12.3
6726.6,4.8641,-10.587
6738.3,3.2094,-9.4222
6750,3.8476,-8.1085
6761.7,4.4753,-7.0649
6773.4,3.4856,-7.5874
6785.2,4.8788,-9.9663
6796.9,6.4526,-10.171
6808.6,4.4078,-8.5487
6820.3,3.0272,-8.824
6832,2.0783,-8.8452
6843.8,2.4967,-7.9983
6855.5,3.8091,-7.7667
6867.2,3.8593,-9.5427
6878.9,5.1379,-10.234
6890.6,5.1601,-8.6771
6902.3,5.213,-8.0501
6914.1,4.6911,-10.531
6925.8,3.1626,-9.9799
6937.5,2.5661,-8.0959
6949.2,2.1791,-10.12
6960.9,3.8461,-11.143
6972.7,4.5479,-11.632
6984.4,4.7081,-8.0689
6996.1,5.0593,-9.1755
7007.8,0.32881,-6.811
7019.5,1.307,-5.8511
7031.3,3.0756,-7.8445
7043,2.5282,-5.3347
7054.7,3.1253,-9.6864
7066.4,5.1788,-9.3239
7078.1,2.3201,-8.5431
7089.8,1.1719,-7.6311
7101.6,1.3608,-8.3661
7113.3,3.6524,-9.068
7125,3.6552,-8.0845
7136.7,0.99404,-5.9143
7148.4,2.545,-7.2696
7160.2,4.7526,-7.703
7171.9,4.0483,-12.943
7183.6,1.7407,-5.6624
7195.3,1.693,-5.1665
7207,3.3016,-9.254
7218.8,3.5914,-9.1498
7230.5,3.19,-7.5835
7242.2,3.0302,-9.3237
7253.9,2.1026,-14.796
7265.6,1.7114,-13.52
7277.3,1.2083,-8.4855
7289.1,2.2971,-5.9743
7300.8,3.1016,-7.3076
7312.5,2.3804,-10.539
7324.2,2.0043,-9.5189
7335.9,4.3895,-11.237
7347.7,6.1634,-10.323
7359.4,5.4944,-10.409
7371.1,4.3877,-9.2295
7382.8,3.376,-9.6653
7394.5,1.0219,-10.246
7406.3,3.2145,-10.182
7418,4.0591,-9.5479
7429.7,3.4046,-8.3714
7441.4,2.8166,-7.4208
7453.1,4.5288,-7.6379
7464.8,4.4031,-11.012
7476.6,3.8671,-13.884
7488.3,4.1722,-14.469
7500,6.1168,-14.358
7511.7,6.2672,-14.365
7523.4,7.1988,-13.226
7535.2,4.6625,-9.4762
7546.9,1.062,-10.032
7558.6,3.2196,-9.4525
7570.3,2.5079,-11.501
7582,0.90623,-9.565
7593.8,1.8716,-7.5578
7605.5,2.1152,-10.721
7617.2,2.0713,-12.75
7628.9,4.0696,-12.828
7640.6,1.373,-12.448
7652.3,-1.3037,-7.9342
7664.1,1.8882,-7.585
7675.8,2.8234,-8.0735
7687.5,3.9573,-6.1023
7699.2,0.17708,-7.4563
7710.9,1.9709,-11.784
7722.7,2.3516,-10.869
7734.4,2.5934,-9.1534
7746.1,0.9868,-8.6954
7757.8,3.0003,-9.2171
7769.5,6.4558,-9.4875
7781.3,6.6901,-9.0653
7793,5.5478,-11.069
7804.7,2.8546,-10.48
7816.4,2.0664,-9.9737
7828.1,1.0701,-7.4039
7839.8,1.9065,-5.423
7851.6,3.356,-7.6741
7863.3,1.4564,-10.7
7875,3.4708,-12.448
7886.7,5.488,-8.642
7898.4,3.1867,-6.3909
7910.2,0.015486,-8.5454
7921.9,1.5953,-11.286
7933.6,3.5544,-9.3254
7945.3,3.9113,-7.8846
7957,3.4716,-5.9826
7968.8,1.054,-8.6978
7980.5,-0.35609,-9.6362
7992.2,3.6148,-10.061
8003.9,3.9498,-6.7938
8015.6,3.0003,-8.4648
8027.3,2.5184,-11.898
8039.1,4.6113,-11.136
8050.8,1.9128,-10.542
8062.5,2.035,-8.1961
8074.2,2.9517,-7.0887
8085.9,1.2736,-5.6042
8097.7,4.3609,-6.5381
8109.4,5.8796,-5.762
8121.1,2.4196,-7.897
8132.8,3.0538,-9.8399
8144.5,2.8768,-10.508
8156.3,4.2121,-8.912
8168,3.9442,-12.386
8179.7,1.4338,-10.308
8191.4,2.0097,-12.031
8203.1,1.5151,-11.192
8214.8,3.2872,-11.801
8226.6,1.4896,-10.083
8238.3,1.9873,-11.657
8250,4.163,-12.388
8261.7,2.0871,-11.556
8273.4,1.8671,-11.545
8285.2,4.2845,-9.8266
8296.9,2.3926,-8.9363
8308.6,2.4069,-10.106
8320.3,2.716,-7.8506
8332,1.0077,-10.474
8343.8,0.80961,-8.18
8355.5,3.3953,-7.3369
8367.2,0.44289,-11.165
8378.9,1.6049,-10.72
8390.6,-0.3938,-6.0333
8402.3,2.8003,-7.5577
8414.1,4.3802,-10.506
8425.8,3.2949,-9.7585
8437.5,0.7374,-10.176
8449.2,1.1714,-10.547
8460.9,1.5683,-8.6745
8472.7,1.4112,-7.6876
8484.4,0.50526,-8.04
8496.1,2.1324,-9.6138
8507.8,1.6873,-10.968
8519.5,-1.9525,-9.7108
8531.3,1.2982,-8.6271
8543,3.1933,-8.5608
8554.7,2.7631,-10.33
8566.4,2.0931,-12.159
8578.1,2.4595,-10.412
8589.8,2.8444,-7.3007
8601.6,0.87846,-6.9191
8613.3,1.5749,-8.0563
8625,1.4777,-9.4792
8636.7,-0.59308,-8.7775
8648.4,-1.6071,-8.4605
8660.2,-0.41906,-8.7092
8671.9,0.24905,-11.973
8683.6,0.73725,-10.756
8695.3,0.68192,-12.867
8707,2.3344,-10.409
8718.8,3.3111,-8.4366
8730.5,2.2085,-8.2932
8742.2,2.5936,-8.7409
8753.9,-0.97094,-10.989
8765.6,-0.59008,-12.224
8777.3,1.2016,-11.964
8789.1,3.8547,-10.966
8800.8,0.9538,-10.135
8812.5,-0.76064,-10.378
8824.2,1.677,-11.206
8835.9,2.0901,-9.0671
8847.7,3.9711,-9.1673
8859.4,3.972,-6.7064
8871.1,1.1399,-6.9672
8882.8,0.23033,-10.099
8894.5,-1.0445,-9.8185
8906.3,-2.3181,-11.263
8918,-2.1204,-10.676
8929.7,0.94046,-12.366
8941.4,0.45475,-8.1349
8953.1,3.1539,-7.0308
8964.8,4.8452,-11.239
8976.6,1.0244,-12.406
8988.3,0.35765,-9.9921
9000,1.4493,-9.7223
9011.7,1.0762,-10.615
9023.4,-2.405,-10.873
9035.2,-0.81634,-8.7419
9046.9,0.21548,-10.411
9058.6,1.5732,-12.786
9070.3,3.1968,-11.36
9082,2.24,-10.618
9093.8,2.3924,-12.859
9105.5,3.0584,-10.779
9117.2,2.1187,-12.991
9128.9,-0.21413,-11.246
9140.6,0.62667,-9.1726
9152.3,2.2551,-9.2225
9164.1,4.4838,-8.5778
9175.8,2.9511,-11.432
9187.5,-0.18931,-10.274
9199.2,-1.4924,-9.9101
9210.9,-1.7815,-11.09
9222.7,-0.58367,-8.818
9234.4,-1.0645,-7.8641
9246.1,-1.2393,-10.96
9257.8,-0.89446,-15.208
9269.5,-2.3336,-12.724
9281.3,-0.97679,-14.192
9293,1.8906,-10.649
9304.7,2.5191,-8.5966
9316.4,0.71186,-10.19
9328.1,-1.6624,-10.239
9339.8,-0.85022,-7.7445
9351.6,0.6407,-10.75
9363.3,0.81563,-10.921
9375,-0.074007,-7.5595
9386.7,0.62308,-10.048
9398.4,1.4383,-11.909
9410.2,-2.2088,-11.546
9421.9,0.93185,-9.6748
9433.6,-1.0033,-11.048
9445.3,0.15709,-9.7097
9457,3.2921,-10.068
9468.8,-0.59759,-9.1069
9480.5,-2.5598,-8.635
9492.2,-1.7144,-8.2119
9503.9,-1.902,-8.1044
9515.6,-0.81457,-7.2653
9527.3,-2.1097,-11.273
9539.1,-3.8756,-9.6384
9550.8,-2.2788,-11.327
9562.5,-2.2461,-11.961
9574.2,-1.9435,-11.558
9585.9,-3.4926,-10.58
9597.7,0.65544,-10.191
9609.4,1.6658,-12.165
9621.1,0.24712,-10.452
9632.8,2.7937,-9.5509
9644.5,1.8112,-9.5222
9656.3,1.2859,-10.069
9668,1.3022,-8.4811
9679.7,-2.2868,-8.0211
9691.4,-0.60591,-10.002
9703.1,-0.010129,-13.724
9714.8,2.8088,-9.9934
9726.6,1.9009,-7.9238
9738.3,-0.066853,-9.9065
9750,-0.84356,-12.499
9761.7,1.111,-13.5
9773.4,0.54725,-12.807
9785.2,3.0201,-12.757
9796.9,0.71152,-12.538
9808.6,-1.3128,-13.64
9820.3,-1.7671,-12.054
9832,-0.083244,-12.696
9843.8,-1.5362,-12.624
9855.5,-4.7812,-13.409
9867.2,-4.682,-11.304
9878.9,-1.4228,-9.9029
9890.6,-2.171,-12.466
9902.3,1.4247,-12.255
9914.1,0.7632,-11.727
9925.8,0.0844,-12.4
9937.5,0.76172,-10.52
9949.2,-2.4694,-11.785
9960.9,-2.3793,-11.465
9972.7,0.5709,-10.589
9984.4,-1.1688,-10.953
9996.1,-3.0789,-11.792
10008,0.52625,-12.208
10020,1.4936,-12.298
10031,-0.3929,-13.841
10043,-0.25762,-11.538
10055,1.2067,-12.993
10066,-1.5256,-12.382
10078,2.671,-13.678
10090,2.241,-13.759
10102,0.5953,-14.047
10113,-2.4897,-15.113
10125,-5.0303,-12.408
10137,2.0592,-12.029
10148,1.5256,-12.014
10160,-1.6585,-13.383
10172,-3.4281,-10.885
10184,-2.3431,-10.134
10195,-0.91152,-11.8
10207,-1.3199,-13.24
10219,-4.2254,-11.543
10230,-0.56464,-12.189
10242,0.49718,-14.802
10254,1.1343,-12.259
10266,-0.9466,-10.377
10277,-1.9104,-10.455
10289,-0.10861,-11.901
10301,1.1542,-12.988
10313,0.59423,-13.125
10324,3.0557,-13.878
10336,0.48621,-14.305
10348,1.8445,-13.117
10359,2.6216,-6.7272
10371,1.0106,-8.6979
10383,-0.46373,-13.144
10395,-1.2678,-10.741
10406,-2.0557,-9.303
10418,-0.47224,-10.284
10430,-1.5685,-10.882
10441,-0.63915,-11.302
10453,-0.88952,-12.122
10465,-0.22423,-12.654
10477,-0.61583,-12.342
10488,-0.25837,-8.8424
10500,0.42226,-10.374
10512,-1.2383,-10.323
10523,-1.6223,-11.488
10535,-3.2051,-11.385
10547,-4.5238,-10.882
10559,-0.47703,-10.051
10570,-2.7466,-11.11
10582,-5.9671,-11.897
10594,-1.3878,-11.015
10605,2.0215,-11.565
10617,2.0869,-12.85
10629,-0.032707,-11.644
10641,-0.75155,-9.1277
10652,1.283,-11.614
10664,1.3334,-12.989
10676,-0.71267,-11.377
10688,-0.84165,-10.783
10699,-0.99472,-12.019
10711,-1.4306,-11.378
10723,-6.4257,-11.841
10734,-2.5787,-12.112
10746,-1.7519,-12.336
10758,-2.4163,-12.1
10770,-1.2475,-10.782
10781,-1.683,-12.205
10793,-2.1741,-10.569
10805,-0.51073,-9.3639
10816,0.63022,-11.096
10828,0.9973,-10.473
10840,-0.86221,-16.363
10852,-3.6562,-10.934
10863,-2.6607,-11.558
10875,-0.44071,-11.439
10887,-0.043274,-11.139
10898,-3.1004,-13.036
10910,-1.2077,-13.744
10922,0.47945,-11.235
10934,-0.58043,-12.635
10945,-3.5695,-13.53
10957,-3.2492,-13.485
10969,-0.14857,-12.597
10980,-1.4784,-11.463
10992,-1.9767,-9.7974
11004,-0.22937,-9.3522
11016,-1.9743,-10.406
11027,-0.33286,-12.785
11039,0.93024,-15.739
11051,0.55512,-14.083
11063,-1.0206,-12.172
11074,0.84247,-11.482
11086,-0.16746,-9.4402
11098,-3.104,-12.144
11109,-3.4562,-10.162
11121,-1.7806,-12.155
11133,-3.2807,-16.054
11145,-6.8699,-14.936
11156,-6.7497,-13.818
11168,-2.5263,-13.184
11180,-0.56821,-10.603
11191,-1.3881,-10.423
11203,-2.0724,-13.141
11215,-0.90263,-12.783
11227,1.3416,-12.632
11238,1.8445,-12.189
11250,3.6137,-13.564
11262,2.6532,-12.386
11273,-1.645,-12.683
11285,-0.55242,-13.588
11297,-1.7111,-10.188
11309,-2.6299,-8.3291
11320,-5.4047,-9.2135
11332,-0.098104,-9.7862
11344,-1.1608,-10.191
11355,-1.5632,-11.967
11367,-2.9279,-11.5
11379,-4.607,-11.635
11391,-1.5657,-13.817
11402,-0.47292,-13.788
11414,-1.1553,-12.193
11426,1.9227,-11.141
11438,1.7139,-12.699
11449,-1.5011,-13.449
11461,-1.0912,-13.423
11473,-0.56072,-10.981
11484,-1.6574,-11.311
11496,-3.2416,-12.168
11508,-4.4363,-12.956
11520,-2.4255,-15.19
11531,-1.5797,-10.473
11543,0.59961,-9.958
11555,-2.1729,-12.87
11566,-1.9515,-15.708
11578,-0.31155,-13.424
11590,-0.038551,-13.233
11602,-2.1168,-11.18
11613,0.13379,-12.314
11625,2.106,-12.183
11637,-1.7487,-13.863
11648,0.9619,-14.711
11660,-0.93073,-13.5
11672,-1.8697,-13.325
11684,-0.26992,-13.115
11695,-0.67354,-12.706
11707,-1.5287,-14.075
11719,-2.0078,-14.462
11730,-2.8087,-13.135
11742,-4.448,-14.338
11754,-1.3538,-15.297
11766,-0.65735,-14.734
11777,-1.247,-12.171
11789,-1.6028,-10.881
11801,-0.16896,-11.384
11813,-0.15011,-16.607
11824,-0.31791,-15.142
11836,-4.2076,-9.9232
11848,-1.4229,-9.2194
11859,-0.40028,-11.622
11871,-3.4864,-15.106
11883,-3.9142,-13.608
11895,-0.599,-9.9711
11906,-0.84786,-11.754
11918,-0.58843,-13.994
11930,-1.8733,-12.175
11941,-6.9207,-12.384
11953,-2.2973,-12.457
11965,-0.78235,-11.881
11977,-2.4856,-13.346
11988,-1.1323,-11.037
12000,-0.12355,-8.4657
12012,-2.8352,-10.628
12023,-4.2895,-11.928
12035,-2.3499,-17.149
12047,0.030776,-10.356
12059,-2.1586,-11.084
12070,-3.1214,-11.234
12082,-1.1965,-11.328
12094,0.16883,-12.636
12105,-1.0972,-14.725
12117,0.54643,-12.036
12129,-0.21244,-10.912
12141,-3.0403,-15.174
12152,-2.1119,-14.509
12164,-0.99511,-10.661
12176,-2.3574,-10.258
12188,-1.6063,-11.122
12199,-0.40055,-12.456
12211,-1.2283,-12.778
12223,-5.5516,-10.632
12234,-4.1555,-12.95
12246,-2.1622,-14.353
12258,-0.84515,-12.775
12270,-0.81444,-14.352
12281,-0.47147,-14.536
12293,-0.23733,-14.532
12305,-0.39075,-12.25
12316,-1.9051,-12.846
12328,-3.8455,-13.255
12340,-2.3134,-14.974
12352,-4.6724,-14.207
12363,-6.0369,-14.585
12375,-3.5092,-13.34
12387,-3.0144,-9.2883
12398,-3.1616,-8.4755
12410,-2.563,-10.598
12422,-4.4106,-12.902
12434,-4.3671,-11.777
12445,-3.4821,-13.745
12457,-3.3343,-15.369
12469,-0.89847,-11.002
12480,-1.602,-11.432
12492,-2.4723,-11.368
12504,-1.6254,-10.565
12516,-3.9372,-10.954
12527,-3.7983,-12.171
12539,-2.5809,-13.734
12551,-2.7053,-11.175
12563,-5.3362,-14.613
12574,-4.049,-15.733
12586,-5.7404,-12.322
12598,-4.4005,-14.836
12609,-2.6867,-13.301
12621,-2.8374,-14.213
12633,-3.1533,-18.019
12645,-3.9294,-14.918
12656,-4.2762,-12.42
12668,-2.1389,-15.763
12680,-0.0044628,-13.432
12691,-0.51556,-12.623
12703,-4.6008,-11.249
12715,-1.965,-10.866
12727,-0.82212,-11.604
12738,-2.951,-13.745
12750,0.17725,-14.204
12762,0.56891,-13.259
12773,-0.91516,-12.879
12785,-1.8431,-11.335
12797,-1.8286,-17.965
12809,1.3788,-14.272
12820,-0.36294,-15.002
12832,-3.2611,-16.496
12844,-1.3426,-13.741
12855,-3.2972,-11.756
12867,-3.2162,-12.092
12879,-3.466,-15.024
12891,-6.8883,-12.107
12902,-4.1635,-12.862
12914,-7.7177,-13.365
12926,-2.2916,-14.62
12938,-3.378,-11.907
12949,-3.1989,-12.279
12961,-1.9304,-14.819
12973,-6.5147,-15.148
12984,-2.8373,-11.216
12996,-2.5348,-11.096
13008,0.57245,-13.352
13020,1.0979,-16.398
13031,1.0493,-14.665
13043,-2.6553,-14.67
13055,-3.6097,-13.36
13066,-1.9997,-14.371
13078,-3.0932,-14.384
13090,-2.1319,-14.277
13102,-0.093704,-14.145
13113,-2.3415,-11.095
13125,-7.7806,-13.207
13137,-5.1722,-12.065
13148,-2.3823,-9.087
13160,-2.0465,-13.406
13172,-1.9048,-14.274
13184,-3.2071,-13.722
13195,-5.6878,-13.273
13207,-1.4355,-16.47
13219,-0.66089,-17.785
13230,-2.2617,-14.789
13242,-1.4703,-15.51
13254,-1.3494,-17.699
13266,-5.8791,-15.726
13277,-3.8916,-11.386
13289,-2.0478,-10.826
13301,-2.3917,-12.797
13313,-4.4827,-14.206
13324,-4.3438,-14.4
13336,-4.3573,-12.787
13348,-1.8159,-11.554
13359,-2.1631,-11.32
13371,-5.843,-12.494
13383,-2.5149,-13.48
13395,-2.7253,-13.189
13406,-4.0302,-13.802
13418,-7.2297,-13.666
13430,-6.4721,-13.988
13441,-6.8826,-11.632
13453,-5.4232,-14.034
13465,-2.9818,-13.107
13477,-5.0134,-12.339
13488,-4.9011,-11.752
13500,-5.1409,-12.556
13512,-5.67,-11.985
13523,-2.9939,-13.868
13535,-1.3785,-14.369
13547,-1.859,-13.539
13559,-1.9161,-13.947
13570,-2.0141,-10.249
13582,-4.4511,-11.219
13594,-5.3871,-12.274
13605,-4.2204,-12.325
13617,-2.515,-12.486
13629,-1.0795,-14.974
13641,-5.0392,-15.332
13652,-5.033,-14.829
13664,-3.2869,-16.616
13676,-5.9573,-15.776
13688,-5.129,-16.696
13699,-2.3575,-14.966
13711,-2.4259,-14.45
13723,-3.9011,-10.855
13734,-3.3762,-9.8355
13746,0.90536,-11.525
13758,-0.41335,-14.523
13770,-7.1172,-16.23
13781,-6.7172,-14.55
13793,-6.0379,-14.944
13805,-2.5572,-12.22
13816,-6.2981,-11.762
13828,-5.2782,-13.842
13840,-3.6279,-17.789
13852,-3.9019,-13.865
13863,0.61208,-13.68
13875,-1.0665,-14.685
13887,-2.1165,-13.158
13898,-8.0412,-14.216
13910,-7.2256,-13.826
13922,-4.1838,-11.086
13934,-3.2042,-10.107
13945,-4.0267,-11.957
13957,-5.1842,-13.79
13969,-5.403,-15.886
13980,-1.4257,-14.382
13992,-0.39882,-14.009
14004,-1.8683,-15.233
14016,-6.8459,-14.936
14027,-5.4807,-10.807
14039,-6.5174,-11.664
14051,-9.4945,-11.553
14063,-6.6018,-13.865
14074,-3.1507,-15.042
14086,-2.1368,-15.052
14098,-1.9978,-11.277
14109,-1.3579,-9.8829
14121,0.11964,-11.845
14133,-2.6027,-14.94
14145,-4.9893,-16.016
14156,-4.3077,-17.442
14168,-4.8549,-16.418
14180,-5.3554,-14.699
14191,-2.4819,-17.454
14203,-3.9187,-14.082
14215,-7.1646,-14.174
14227,-7.4486,-14.155
14238,-5.5105,-14.47
14250,-3.7424,-15.096
14262,-5.1903,-16.185
14273,-5.2965,-15.154
14285,-4.64,-14.216
14297,-3.8627,-14.036
14309,-6.5148,-12.042
14320,-6.6351,-12.72
14332,-6.0381,-13.133
14344,-3.7519,-13.787
14355,-2.9159,-16.08
14367,-1.5757,-16.939
14379,-2.2255,-13.992
14391,-5.101,-13.586
14402,-5.7236,-13.257
14414,-4.2529,-12.245
14426,-2.7861,-11.615
14438,-3.9492,-13.462
14449,-2.3712,-20.805
14461,-4.5435,-19.326
14473,-4.2084,-16.132
14484,-6.7975,-12.582
14496,-4.7564,-13.912
14508,-2.8914,-18.946
14520,-3.7187,-17.129
14531,-8.1759,-13.242
14543,-6.0241,-13.741
14555,-8.9597,-14.173
14566,-4.2864,-16.498
14578,-5.3824,-19.04
14590,-3.8308,-14.14
14602,-3.3363,-13.8
14613,-3.5218,-14.851
14625,-3.425,-16.526
14637,-4.998,-14.942
14648,-6.5896,-11.043
14660,-4.8725,-13.422
14672,-7.542,-17.398
14684,-5.1311,-14.76
14695,-5.1521,-10.854
14707,-7.3686,-11.968
14719,-9.9162,-15.684
14730,-7.0586,-14.484
14742,-3.1023,-13.737
14754,-2.2546,-12.815
14766,-4.2,-13.888
14777,-4.9188,-15.752
14789,-5.526,-13.815
14801,-7.3774,-17.638
14813,-8.8054,-18.371
14824,-8.5293,-15.879
14836,-2.8815,-17.917
14848,-1.3214,-15.585
14859,-2.7068,-13.511
14871,-4.3298,-13.036
14883,-4.6996,-13.212
14895,-5.2642,-14.848
14906,-3.8208,-11.908
14918,-3.8405,-11.211
14930,-8.1852,-10.694
14941,-7.1867,-12.638
14953,-3.5001,-13.111
14965,-4.6533,-15.426
14977,-5.7809,-12.406
14988,-4.9488,-10.577
15000,-7.2238,-11.272
15012,-7.8264,-16.11
15023,-9.2864,-13.263
15035,-5.6764,-13.268
15047,-4.9053,-12.549
15059,-6.2033,-14.219
15070,-4.2487,-15.125
15082,-5.2089,-13.968
15094,-5.4747,-14.35
15105,-7.5843,-13.635
15117,-6.0342,-11.472
15129,-5.7793,-14.365
15141,-5.5068,-14.264
15152,-7.0501,-16.89
15164,-7.1469,-16.37
15176,-5.1525,-16.937
15188,-3.9135,-18.107
15199,-7.1017,-16.667
15211,-8.1497,-16.01
15223,-4.1814,-18.219
15234,-5.5654,-18.039
15246,-1.7703,-17.351
15258,-1.7186,-13.392
15270,-5.1275,-14.148
15281,-8.756,-12.886
15293,-8.7846,-14.3
15305,-7.8747,-16.507
15316,-8.749,-18.565
15328,-6.7389,-18.91
15340,-5.4516,-15.726
15352,-5.8681,-14.461
15363,-5.2484,-17.027
15375,-4.5832,-14.502
15387,-4.6682,-12.81
15398,-5.8469,-12.927
15410,-3.6756,-14.697
15422,-2.283,-16.431
15434,-5.1459,-14.529
15445,-4.7972,-12.214
15457,-5.2398,-11.712
15469,-4.3338,-12.494
15480,-7.3467,-13.146
15492,-3.3296,-15.386
15504,-6.1442,-16.43
15516,-4.3404,-11.574
15527,-3.4252,-14.702
15539,-8.021,-13.453
15551,-7.6591,-12.888
15563,-4.7449,-16.125
15574,-5.2242,-11.687
15586,-6.0737,-13.551
15598,-7.0153,-15.984
15609,-5.4972,-13.739
15621,-6.1668,-16.077
15633,-7.9634,-17.36
15645,-8.4015,-18.017
15656,-4.9188,-17.714
15668,-5.0219,-16.841
15680,-9.5966,-16.202
15691,-8.4295,-16.502
15703,-9.0042,-16.077
15715,-9.7995,-13.193
15727,-7.4022,-13.862
15738,-8.0493,-16.249
15750,-6.5778,-17.32
15762,-4.9808,-17.569
15773,-4.6587,-14.892
15785,-5.359,-16.278
15797,-5.1918,-15.788
15809,-8.6158,-16.179
15820,-8.84,-17.081
15832,-5.3754,-13.491
15844,-6.1216,-12.64
15855,-9.1149,-13.189
15867,-9.3108,-16.151
15879,-10,-17.775
15891,-11.009,-16.288
15902,-10.241,-16.078
15914,-7.9027,-18.499
15926,-7.6276,-17.926
15938,-11.678,-16.695
15949,-10.506,-17.929
15961,-10.666,-18.082
15973,-10.861,-17.645
15984,-11.719,-14.887
15996,-7.317,-12.646
16008,-5.2918,-13.965
16020,-7.842,-15.931
16031,-7.2848,-14.733
16043,-10.108,-15.534
16055,-5.4476,-14.584
16066,-7.4679,-18.412
16078,-9.9529,-17.137
16090,-9.1224,-19.705
16102,-7.5925,-15.968
16113,-7.2441,-15.912
16125,-7.0232,-15.881
16137,-5.0907,-15.932
16148,-5.1289,-17.331
16160,-11.233,-15.222
16172,-11.219,-13.067
16184,-11.377,-15.091
16195,-9.2695,-12.404
16207,-10.174,-14.971
16219,-9.0926,-14.413
16230,-8.3466,-14.619
16242,-7.4884,-18.233
16254,-8.0345,-18.108
16266,-8.5337,-16.82
16277,-6.5966,-18.429
16289,-6.8105,-15.854
16301,-7.1192,-17.228
16313,-7.3481,-16.462
16324,-7.3632,-16.734
16336,-6.8888,-19.925
16348,-8.4871,-20.258
16359,-9.1404,-18.873
16371,-9.1094,-15.985
16383,-8.3686,-16.609
16395,-7.2467,-15.948
16406,-6.4772,-17.304
16418,-6.9008,-14.741
16430,-6.8875,-14.235
16441,-7.8814,-14.742
16453,-8.7449,-14.966
16465,-9.7276,-17.831
16477,-7.7521,-20.275
16488,-4.4522,-15.973
16500,-5.1484,-16.846
16512,-9.4985,-18.275
16523,-9.8388,-15.177
16535,-9.6022,-18.933
16547,-8.7379,-15.873
16559,-8.4865,-15.146
16570,-8.928,-18.592
16582,-8.1823,-15.857
16594,-8.3999,-13.659
16605,-9.0684,-16.187
16617,-9.0351,-16.948
16629,-9.8059,-11.691
16641,-13.986,-12.997
16652,-10.234,-15.053
16664,-8.8282,-14.529
16676,-9.1598,-16.882
16688,-11.777,-16.311
16699,-8.7556,-15.031
16711,-9.5142,-15.455
16723,-8.8275,-15.767
16734,-6.4299,-16.972
16746,-6.3621,-16.471
16758,-6.621,-18.055
16770,-10.242,-16.72
16781,-11.381,-15.522
16793,-10.36,-14.354
16805,-9.7413,-14.828
16816,-12.399,-16.508
16828,-11.388,-16.089
16840,-10.458,-14.45
16852,-10.718,-15.579
16863,-12.538,-17.701
16875,-11.418,-15.984
16887,-10.205,-16.785
16898,-7.9804,-16.567
16910,-5.8992,-16.341
16922,-6.893,-15.813
16934,-9.9109,-12.782
16945,-12.583,-14.494
16957,-10.258,-15.637
16969,-9.3643,-14.702
16980,-8.9473,-16.84
16992,-8.8555,-14.688
17004,-12.201,-15
17016,-8.9053,-17.922
17027,-8.0236,-18.058
17039,-11.393,-17.004
17051,-10.744,-15.926
17063,-7.4267,-16.292
17074,-6.24,-17.141
17086,-8.4403,-17.79
17098,-10.383,-15.823
17109,-10.982,-13.938
17121,-10.484,-14.474
17133,-11.96,-15.352
17145,-15.398,-16.696
17156,-12.371,-16.036
17168,-10.967,-15.298
17180,-9.0942,-15.483
17191,-8.3697,-16.314
17203,-7.7178,-17.441
17215,-7.2966,-17.727
17227,-10.277,-16.534
17238,-12.95,-15.139
17250,-13.127,-16.906
17262,-9.6276,-14.337
17273,-9.3662,-16.369
17285,-10.013,-16.464
17297,-8.4624,-18.532
17309,-10.766,-18.434
17320,-10.147,-19.54
17332,-9.8482,-15.713
17344,-9.6924,-15.735
17355,-8.9846,-18.195
17367,-8.5601,-18.434
17379,-9.3604,-19.479
17391,-10.442,-15.048
17402,-9.8692,-14.768
17414,-8.6377,-15.078
17426,-13.916,-14.69
17438,-14.111,-13.719
17449,-10.783,-14.972
17461,-10.242,-17.997
17473,-8.3591,-16.397
17484,-12.61,-15.777
17496,-11.048,-19.549
17508,-10.133,-18.72
17520,-10.178,-15.043
17531,-10.245,-17.614
17543,-7.5787,-18.201
17555,-9.136,-17.941
17566,-10.416,-18.064
17578,-10.914,-17.628
17590,-10.867,-20.157
17602,-7.9036,-19.917
17613,-9.2021,-17.49
17625,-10.483,-18.104
17637,-10.482,-16.033
17648,-13.969,-14.295
17660,-13.507,-16.613
17672,-9.4782,-17.285
17684,-11.004,-22.631
17695,-7.7542,-19.711
17707,-5.7766,-17.543
17719,-7.5591,-15.392
17730,-9.1159,-16.718
17742,-11.813,-18.364
17754,-11.659,-17.339
17766,-13.67,-16.426
17777,-12.811,-15.04
17789,-11.04,-14.247
17801,-10.255,-14.985
17813,-12.452,-15.516
17824,-14.752,-18.222
17836,-12.527,-18.498
17848,-11.631,-17.096
17859,-12.436,-17.526
17871,-13.037,-18.252
17883,-12.751,-16.372
17895,-9.4134,-15.959
17906,-8.5148,-14.003
17918,-11.285,-14.627
17930,-12.753,-15.24
17941,-12.215,-13.626
17953,-11.913,-15.821
17965,-11.647,-17.123
17977,-12.448,-17.592
17988,-10.227,-17.152
18000,-9.7259,-14.74
18012,-10.926,-15.219
18023,-9.4829,-14.942
18035,-10.46,-17.934
18047,-14.129,-17.434
18059,-9.769,-18.404
18070,-12.509,-16.151
18082,-12.115,-16.143
18094,-14.811,-17.621
18105,-13.73,-17.151
18117,-14.913,-14.873
18129,-17.091,-15.871
18141,-15.663,-15.316
18152,-13.802,-15.172
18164,-11.178,-16.956
18176,-11.38,-18.86
18188,-12.798,-19.365
18199,-11.473,-18.485
18211,-10.192,-16.434
18223,-9.0788,-15.612
18234,-9.8854,-17.891
18246,-12.08,-20.566
18258,-10.793,-18.854
18270,-10.84,-18.921
18281,-12.545,-19.703
18293,-14.757,-19.051
18305,-16.072,-17.906
18316,-13.518,-17.579
18328,-13.006,-18.497
18340,-10.568,-16.496
18352,-9.7619,-17.151
18363,-10.442,-20.777
18375,-10.839,-17.393
18387,-12.507,-16.692
18398,-13.865,-17.891
18410,-12.482,-16.704
18422,-12.006,-17.638
18434,-12.671,-18.739
18445,-13.833,-16.916
18457,-13.194,-15.934
18469,-11.099,-17.202
18480,-11.567,-17.546
18492,-9.1625,-19.215
18504,-9.2206,-17.959
18516,-8.3062,-17.115
18527,-8.7658,-17.7
18539,-10.112,-17.585
18551,-11.038,-16.964
18563,-13.197,-17.206
18574,-15.356,-16.505
18586,-12.859,-16.119
18598,-10.77,-17.368
18609,-11.085,-19.562
18621,-11.82,-17.876
18633,-9.4778,-17.506
18645,-10.592,-16.231
18656,-11.866,-18.79
18668,-11.126,-15.394
18680,-10.603,-15.696
18691,-12.97,-16.451
18703,-12.879,-16.02
18715,-13.494,-17.225
18727,-10.885,-17.533
18738,-9.3921,-19.363
18750,-13.347,-18.635
18762,-13.694,-17.817
18773,-13.399,-16.661
18785,-12.104,-17.222
18797,-10.153,-18.782
18809,-9.5716,-17.867
18820,-11.588,-18.753
18832,-11.925,-17.169
18844,-10.883,-16.799
18855,-11.107,-16.045
18867,-14.301,-15.926
18879,-13.951,-18.874
18891,-14.689,-19.163
18902,-11.527,-17.254
18914,-11.892,-15.91
18926,-13.041,-17.33
18938,-13.809,-19.445
18949,-11.264,-19.256
18961,-11.909,-16.692
18973,-7.4419,-15.461
18984,-8.1666,-14.027
18996,-11.28,-16.115
19008,-14.595,-17.523
19020,-12.248,-18.335
19031,-13.734,-20.055
19043,-12.626,-15.987
19055,-13.018,-14.422
19066,-15.556,-18.056
19078,-12.905,-19.366
19090,-13.99,-19.795
19102,-11.578,-18.106
19113,-13.173,-16.529
19125,-13.256,-18.176
19137,-10.968,-19.14
19148,-10.198,-19.214
19160,-11.011,-18.123
19172,-10.993,-18.614
19184,-9.8493,-18.333
19195,-11.709,-19.107
19207,-13.929,-19.748
19219,-14.126,-17.369
19230,-9.6241,-16.214
19242,-9.3204,-15.064
19254,-10.694,-16.799
19266,-13.169,-19.975
19277,-12.432,-20.374
19289,-12.472,-13.87
19301,-12.141,-12.519
19313,-12.343,-17.069
19324,-10.711,-19.051
19336,-13.91,-18.027
19348,-15.824,-17.993
19359,-12.958,-18.067
19371,-11.742,-18.643
19383,-12.513,-21.407
19395,-15.699,-19.595
19406,-14.554,-20.411
19418,-13.541,-17.946
19430,-10.951,-17.147
19441,-11.671,-16.507
19453,-15.585,-17.19
19465,-12.72,-19.426
19477,-13.601,-18.904
19488,-13.27,-17.773
19500,-12.785,-20.204
19512,-14.482,-20.72
19523,-15.412,-20.383
19535,-13.788,-18.622
19547,-11.241,-17.261
19559,-11.138,-19.001
19570,-13.978,-16.009
19582,-15.606,-14.981
19594,-16.287,-18.87
19605,-13.826,-18.024
19617,-13.996,-18.484
19629,-13.542,-18.265
19641,-14.802,-15.08
19652,-15.6,-15.621
19664,-12.822,-19.343
19676,-10.751,-20.467
19688,-11.077,-17.562
19699,-9.5193,-18.178
19711,-11.457,-17.211
19723,-12.304,-16.29
19734,-12.083,-16.678
19746,-11.239,-19.771
19758,-12.322,-18.78
19770,-15.496,-17.884
19781,-14.145,-20.65
19793,-13.447,-20.794
19805,-11.536,-19.012
19816,-10.056,-17.545
19828,-11.941,-19.012
19840,-13.166,-18.023
19852,-13.398,-16.73
19863,-12.749,-14.194
19875,-11.704,-16.524
19887,-11.57,-18.765
19898,-10.352,-17.747
19910,-12.728,-17.857
19922,-16.913,-18.45
19934,-14.785,-18.348
19945,-12.296,-18.43
19957,-13.221,-19.441
19969,-14.569,-17.081
19980,-14.196,-16.048
19992,-15.01,-17.74
20004,-11.917,-12.283
20016,-13.563,-14.547
20027,-14.463,-17.939
20039,-13.977,-17.704
20051,-11.019,-19.815
20063,-12.312,-19.133
20074,-13.566,-16.658
20086,-10.134,-16.502
20098,-10.916,-16.125
20109,-15.053,-18.394
20121,-13.116,-18.459
20133,-12.827,-17.712
20145,-12.102,-17.137
20156,-13.315,-18.086
20168,-12.71,-18.62
20180,-12.432,-17.388
20191,-14.249,-17.874
20203,-12.821,-15.156
20215,-12.242,-14.842
20227,-10.146,-12.799
20238,-12.089,-14.079
20250,-13.659,-17.8
20262,-11.816,-18.806
20273,-12.831,-18.158
20285,-14.213,-16.504
20297,-15.166,-16.628
20309,-15.403,-19.697
20320,-16.3,-20.947
20332,-13.251,-19.409
20344,-11.804,-16.758
20355,-11.563,-15.413
20367,-11.877,-15.912
20379,-14.283,-17.34
20391,-15.003,-15.396
20402,-15.041,-16.934
20414,-12.748,-17.509
20426,-12.826,-16.178
20438,-14.002,-17.345
20449,-13.978,-18.582
20461,-13.71,-19.827
20473,-16.143,-19.706
20484,-16.964,-19.419
20496,-16.176,-20.735
20508,-13.864,-22.472
20520,-14.208,-18.648
20531,-15.43,-18.104
20543,-17.488,-20.917
20555,-16.339,-21.528
20566,-13.355,-17.814
20578,-13.575,-18.728
20590,-13.232,-18.283
20602,-14.791,-19.807
20613,-16.259,-25.443
20625,-14.582,-21.921
20637,-15.614,-22.076
20648,-17.21,-18.54
20660,-16.392,-17.591
20672,-16.767,-20.214
20684,-16.344,-18.286
20695,-13.935,-17.577
20707,-15.809,-16.693
20719,-18.412,-18.386
20730,-16.856,-18.426
20742,-13.572,-19.515
20754,-13.489,-21.93
20766,-13.565,-19.045
20777,-14.181,-18.584
20789,-17.205,-16.129
20801,-18.821,-17.501
20813,-20.904,-16.156
20824,-16.736,-14.618
20836,-14.821,-17.301
20848,-14.691,-23.52
20859,-12.519,-20.563
20871,-13.646,-18.303
20883,-15.6,-15.635
20895,-15.234,-14.272
20906,-11.618,-15.949
20918,-14.309,-19.808
20930,-17.878,-20.568
20941,-14.511,-19.697
20953,-12.505,-17.099
20965,-11.838,-17.262
20977,-12.647,-20.391
20988,-13.248,-17.227
21000,-16.202,-15.447
21012,-16.077,-17.389
21023,-14.679,-18.518
21035,-12.587,-18.126
21047,-13.388,-17.254
21059,-15.674,-16.364
21070,-14.396,-18.817
21082,-15.764,-20.962
21094,-15.879,-19.303
21105,-16.818,-17.259
21117,-16.063,-17.594
21129,-14.278,-17.532
21141,-13.928,-19.57
21152,-12.658,-17.637
21164,-10.75,-18.784
21176,-13.958,-19.111
21188,-18.074,-19.09
21199,-17.359,-19.303
21211,-19.801,-19.182
21223,-17.03,-18.806
21234,-13.609,-18.074
21246,-11.662,-19.471
21258,-14.064,-20.826
21270,-17.306,-16.641
21281,-17.801,-17.377
21293,-15.529,-23.318
21305,-14.546,-24.451
21316,-14.968,-20.493
21328,-13.26,-18.042
21340,-14.232,-17.665
21352,-13.752,-19.254
21363,-13.758,-19.019
21375,-15.51,-20.217
21387,-12.944,-19.221
21398,-12.815,-18.064
21410,-16.122,-18.083
21422,-13.899,-20.731
21434,-12.021,-22.004
21445,-13.379,-21.72
21457,-12.775,-19.45
21469,-12.114,-17.483
21480,-12.637,-17.74
21492,-13.836,-19.014
21504,-14.082,-18.371
21516,-12.453,-18.881
21527,-14.51,-18.782
21539,-16.448,-19.352
21551,-18.365,-21.556
21563,-15.436,-20.991
21574,-15.502,-19.484
21586,-14.939,-21.183
21598,-15.485,-20.911
21609,-16.019,-22.391
21621,-13.913,-21.246
21633,-14.058,-17.162
21645,-12.651,-18.466
21656,-15.219,-20.339
21668,-18.01,-20.361
21680,-16.149,-20.019
21691,-16.659,-22.145
21703,-18.054,-20.3
21715,-15.526,-19.864
21727,-18.004,-20.293
21738,-16.542,-17.214
21750,-15.351,-16.335
21762,-18.773,-18.228
21773,-17.032,-20.342
21785,-15.696,-22.796
21797,-15.667,-24.457
21809,-13.636,-20.43
21820,-13.598,-18.123
21832,-13.626,-18.795
21844,-18.034,-18.763
21855,-18.739,-19.026
21867,-16.258,-19.93
21879,-14.423,-19.756
21891,-16.137,-18.995
21902,-15.519,-19.596
21914,-15.321,-18.735
21926,-15.359,-18.103
21938,-15.749,-19.512
21949,-16.609,-17.47
21961,-15.795,-16.127
21973,-16.851,-19.176
21984,-18.103,-26.091
21996,-17.931,-20.754
22008,-18.331,-19.876
22020,-17.623,-16.598
22031,-18.347,-16.816
22043,-14.665,-18.834
22055,-13.687,-19.845
22066,-15.686,-19.992
22078,-16.099,-20.944
22090,-12.775,-18.97
22102,-12.094,-20.463
22113,-15.918,-21.283
22125,-18.572,-20.675
22137,-19.303,-20.508
22148,-16.631,-18.226
22160,-16.886,-19.923
22172,-15.139,-18.555
22184,-14.862,-17.574
22195,-13.255,-20.51
22207,-16.463,-23.65
22219,-20.511,-23.263
22230,-18.809,-24.963
22242,-17.134,-23.372
22254,-16.092,-18.359
22266,-14.662,-16.92
22277,-12.19,-17.766
22289,-15.477,-17.074
22301,-17.208,-17.049
22313,-19.412,-19.695
22324,-16.752,-19.283
22336,-13.516,-17.874
22348,-12.155,-17.78
22359,-13.487,-18.008
22371,-14.984,-17.477
22383,-14.277,-20.453
22395,-17.471,-20.892
22406,-15.534,-20.212
22418,-15.689,-22.607
22430,-17.285,-19.681
22441,-14.693,-20.025
22453,-16.879,-18.888
22465,-15.763,-16.197
22477,-15.568,-17.413
22488,-17.279,-19.883
22500,-15.62,-20.058
22512,-17.674,-20.611
22523,-18.92,-17.97
22535,-17.316,-17.365
22547,-15.613,-19.11
22559,-16.933,-19.415
22570,-16.592,-21.068
22582,-16.173,-19.417
22594,-16.778,-21.035
22605,-16.44,-23.965
22617,-16.939,-21.064
22629,-17.942,-18.378
22641,-17.971,-18.987
22652,-14.868,-18.938
22664,-12.577,-21.041
22676,-13.175,-18.985
22688,-15.118,-16.335
22699,-15.157,-18.981
22711,-16.691,-20.958
22723,-15.683,-21.887
22734,-16.048,-23.011
22746,-17.948,-18.815
22758,-17.85,-18.826
22770,-15.824,-18.767
22781,-17.192,-20.444
22793,-18.874,-20.087
22805,-18.338,-17.905
22816,-14.34,-19.669
22828,-15.772,-22.839
22840,-18.632,-22.663
22852,-20.603,-20.944
22863,-20.224,-20.609
22875,-21.737,-21.573
22887,-19.501,-24.766
22898,-17.487,-23.917
22910,-17.053,-20.778
22922,-18.844,-21.584
22934,-18.402,-20.687
22945,-17.137,-20.339
22957,-14.38,-19.829
22969,-14.178,-23.197
22980,-16.486,-20.203
22992,-17.723,-16.648
23004,-16.628,-15.879
23016,-16.002,-16.023
23027,-17.511,-18.627
23039,-19.24,-21.918
23051,-17.205,-20.353
23063,-15.638,-19.419
23074,-15.288,-21.817
23086,-14.612,-22.994
23098,-17.711,-17.759
23109,-18.233,-18.306
23121,-14.54,-20.342
23133,-15.74,-23.407
23145,-17.13,-22.158
23156,-17.59,-21.428
23168,-17.243,-21.612
23180,-17.769,-21.981
23191,-16.535,-21.158
23203,-15.136,-18.971
23215,-18.515,-19.764
23227,-16.236,-18.881
23238,-16.585,-20.584
23250,-17.254,-18.257
23262,-18.66,-17.662
23273,-16.709,-17.519
23285,-14.092,-19.772
23297,-16.094,-21.095
23309,-16.384,-21.4
23320,-15.891,-19.673
23332,-16.453,-18.835
23344,-14.264,-20.068
23355,-13.625,-19.722
23367,-16.879,-23.804
23379,-16.532,-21.102
23391,-16.744,-20.883
23402,-18.629,-19.974
23414,-21.109,-21.029
23426,-18.967,-20.423
23438,-17.475,-20.231
23449,-19.169,-22.429
23461,-17.098,-18.631
23473,-17.757,-18.802
23484,-18.13,-21.395
23496,-17.462,-22.28
23508,-16.753,-21.343
23520,-15.384,-21.483
23531,-15.233,-21.401
23543,-16.774,-20.418
23555,-19.545,-19.75
23566,-14.406,-18.62
23578,-14.781,-19.07
23590,-17.496,-20.347
23602,-15.917,-21.147
23613,-17.22,-22.711
23625,-16.265,-22.788
23637,-18.734,-23.321
23648,-17.783,-20.089
23660,-14.824,-17.879
23672,-16.062,-19.806
23684,-19.22,-21.099
23695,-21.304,-22.373
23707,-19.184,-22.885
23719,-18.407,-21.27
23730,-16.363,-23.198
23742,-14.597,-21.805
23754,-18.267,-21.499
23766,-17.486,-21.128
23777,-15.482,-21.291
23789,-14.811,-19.303
23801,-16.298,-19.763
23813,-17.016,-20.061
23824,-14.452,-17.306
23836,-13.573,-19.522
23848,-16.505,-22.842
23859,-18.175,-20.652
23871,-18.401,-20.108
23883,-16.706,-21.879
23895,-18.312,-21.216
23906,-17.378,-21.985
23918,-18.823,-22.752
23930,-17.651,-23.937
23941,-17.465,-19.574
23953,-16.894,-18.107
23965,-18.645,-17.908
23977,-17.97,-19.733
23988,-16.73,-20.458
