FFT,Power Spectrum
Frequency[Hz],Level-L[dB],Level-R[dB]
11.719,-3.4221,-62.014
23.438,16.567,-54.995
35.156,13.785,-39.359
46.875,11.635,-26.552
58.594,14.804,-25.019
70.313,16.323,-29.241
82.031,18.181,-31.508
93.75,22.193,-27.881
105.47,19.118,-23.861
117.19,16.659,-23.153
128.91,20.887,-21.694
140.63,19.81,-17.174
152.34,15.792,-15.024
164.06,16.856,-15.904
175.78,18.712,-15.944
187.5,20.284,-16.905
199.22,21.608,-17.653
210.94,18.786,-20.213
222.66,24.162,-17.997
234.38,44.499,-16.624
246.09,55.755,-13.602
257.81,54.255,-14.513
269.53,36.948,-15.313
281.25,21.256,-17.061
292.97,19.085,-17.777
304.69,15.326,-16.44
316.41,17.955,-16.141
328.13,16.732,-14.236
339.84,17.574,-12.603
351.56,14.103,-13.412
363.28,16.535,-13.817
375,16.573,-12.874
386.72,15.052,-13.54
398.44,15.333,-13.791
410.16,16.892,-12.018
421.88,18.734,-12.123
433.59,17.114,-13.311
445.31,15.465,-12.181
457.03,15.359,-12.708
468.75,14.345,-12.419
480.47,13.417,-14.627
492.19,11.98,-14.183
503.91,14.164,-13.55
515.63,17.443,-15.646
527.34,15.909,-14.795
539.06,15.637,-8.2811
550.78,18.243,-7.1593
562.5,18.582,-7.6667
574.22,21.222,-8.4549
585.94,21.998,-9.0457
597.66,17.435,-6.4607
609.38,18.933,-10.144
621.09,19.184,-10.598
632.81,16.343,-10.042
644.53,15.759,-14.182
656.25,17.217,-9.4624
667.97,17.965,-10.531
679.69,18.986,-12.527
691.41,21.433,-11.681
703.13,19.494,-10.906
714.84,15.333,-9.6638
726.56,15.367,-9.7581
738.28,16.729,-11.928
750,15.926,-10.72
761.72,16.148,-9.7364
773.44,13.881,-10.268
785.16,14.621,-10.247
796.88,18.547,-7.8601
808.59,17.43,-7.6067
820.31,14.132,-11.229
832.03,14.834,-11.171
843.75,15.837,-8.4038
855.47,16.068,-9.5525
867.19,13.482,-7.3357
878.91,17.7,-10.347
890.63,21.667,-11.66
902.34,21.563,-10.727
914.06,20.013,-7.7132
925.78,18.589,-7.9584
937.5,17.212,-5.9185
949.22,19.14,-6.0873
960.94,17.451,-9.3271
972.66,15.151,-9.2801
984.38,15.431,-8.6682
996.09,18.765,-10.376
1007.8,15.864,-7.1256
1019.5,13.823,-9.8181
1031.3,16.813,-8.3787
1043,18.089,-6.8856
1054.7,15.879,-9.2179
1066.4,14.59,-6.6283
1078.1,16.755,-7.091
1089.8,18.063,-9.9962
1101.6,18.119,-11.819
1113.3,18.019,-8.2967
1125,18.187,-6.9865
1136.7,17.573,-8.5911
1148.4,16.579,-7.5404
1160.2,16.092,-8.6365
1171.9,18.607,-10.075
1183.6,15.625,-9.6718
1195.3,16.601,-7.0178
1207,16.341,-7.4907
1218.8,13.815,-8.5352
1230.5,13.769,-9.326
1242.2,16.862,-7.6936
1253.9,17.596,-6.9333
1265.6,15.973,-9.4353
1277.3,16.56,-8.5805
1289.1,18.486,-7.4628
1300.8,18.862,-8.6477
1312.5,12.337,-6.7814
1324.2,13.67,-6.7551
1335.9,16.598,-7.9668
1347.7,16.509,-8.1936
1359.4,16.409,-6.6937
1371.1,14.022,-5.4966
1382.8,14.446,-5.3003
1394.5,17.306,-9.0838
1406.3,17.025,-7.9722
1418,15.336,-9.2974
1429.7,16.223,-10.992
1441.4,16.366,-9.4774
1453.1,17.39,-10.073
1464.8,15.739,-8.474
1476.6,15.638,-6.5866
1488.3,16.574,-7.9346
1500,19.177,-8.455
1511.7,16.974,-7.4327
1523.4,15.834,-5.2367
1535.2,16.514,-4.71
1546.9,17.136,-7.606
1558.6,16.656,-6.6632
1570.3,14.562,-7.4354
1582,14.115,-5.3001
1593.8,15.762,-6.541
1605.5,13.507,-6.9212
1617.2,11.284,-8.9415
1628.9,13.949,-8.3152
1640.6,15.417,-6.7243
1652.3,16.223,-5.0833
1664.1,14.674,-6.6403
1675.8,14.036,-6.0338
1687.5,15.564,-6.7707
1699.2,13.921,-6.0195
1710.9,14.375,-7.1688
1722.7,15.581,-10.178
1734.4,14.339,-10.202
1746.1,14.875,-8.0029
1757.8,15.956,-7.6815
1769.5,12.921,-10.332
1781.3,13.306,-7.9309
1793,14.927,-5.6974
1804.7,17.883,-6.6932
1816.4,19.096,-10.156
1828.1,16.645,-10.4
1839.8,14.217,-6.3762
1851.6,14.988,-6.2385
1863.3,15.948,-8.261
1875,14.142,-6.8536
1886.7,16.643,-4.3797
1898.4,14.482,-7.2455
1910.2,14.185,-9.6745
1921.9,15.703,-7.5026
1933.6,11.403,-7.0085
1945.3,10.273,-5.9307
1957,10.564,-7.41
1968.8,13.962,-6.4696
1980.5,13.657,-6.4588
1992.2,12.493,-6.5074
2003.9,13.89,-6.5714
2015.6,14.266,-9.4954
2027.3,12.262,-7.9207
2039.1,10.971,-6.2693
2050.8,13.918,-6.6092
2062.5,14.332,-7.1747
2074.2,12.213,-8.6657
2085.9,11.607,-10.261
2097.7,11.764,-8.6728
2109.4,12.066,-8.3733
2121.1,10.277,-8.3989
2132.8,9.8539,-9.9232
2144.5,11.62,-8.0486
2156.3,11.93,-9.4188
2168,10.622,-9.084
2179.7,12.287,-9.9008
2191.4,13.092,-6.8379
2203.1,11.552,-8.1371
2214.8,10.518,-5.717
2226.6,11.269,-3.8472
2238.3,10.937,-4.9647
2250,9.5242,-9.4761
2261.7,9.8281,-7.6106
2273.4,8.9844,-8.6275
2285.2,11.836,-8.6995
2296.9,12.219,-8.7719
2308.6,11.591,-7.0315
2320.3,10.825,-7.0853
2332,10.537,-6.8246
2343.8,9.2256,-5.2965
2355.5,9.7848,-7.3055
2367.2,13.84,-10.317
2378.9,13.756,-11.538
2390.6,12.355,-7.9113
2402.3,9.6175,-6.3451
2414.1,8.0835,-6.3278
2425.8,9.6589,-6.4634
2437.5,11.176,-5.7578
2449.2,14.253,-8.7942
2460.9,10.529,-6.0695
2472.7,11.363,-6.7279
2484.4,12.747,-3.6381
2496.1,11.791,-5.9657
2507.8,12.228,-8.9756
2519.5,10.678,-7.9105
2531.3,8.6097,-5.4794
2543,8.9151,-4.9044
2554.7,8.46,-5.2901
2566.4,12.423,-6.7774
2578.1,14.428,-7.4665
2589.8,13.143,-5.1218
2601.6,10.111,-7.426
2613.3,10.823,-7.0135
2625,9.9049,-8.0121
2636.7,7.9086,-7.9206
2648.4,11.765,-5.2872
2660.2,14.591,-3.6435
2671.9,13.287,-6.5308
2683.6,11.654,-9.7099
2695.3,12.854,-9.566
2707,11.607,-9.6548
2718.8,11.614,-8.6611
2730.5,10.575,-8.0401
2742.2,9.0428,-7.8742
2753.9,8.5587,-7.2697
2765.6,12.574,-6.9025
2777.3,12.708,-10.92
2789.1,10.623,-6.3079
2800.8,10.359,-4.6934
2812.5,7.8315,-6.1191
2824.2,9.8886,-4.5508
2835.9,13.592,-4.2826
2847.7,11.865,-8.3792
2859.4,11.444,-6.7805
2871.1,12.1,-4.9254
2882.8,12.313,-8.5716
2894.5,9.2812,-9.0229
2906.3,11.667,-7.1671
2918,14.101,-6.7934
2929.7,13.094,-8.588
2941.4,11.528,-11.72
2953.1,13.731,-10.858
2964.8,10.129,-8.0996
2976.6,11.006,-5.8482
2988.3,12.885,-4.2765
3000,12.823,-5.2872
3011.7,7.3009,-8.7024
3023.4,10.778,-9.6771
3035.2,12.037,-6.9023
3046.9,12.046,-6.7314
3058.6,14.291,-8.4534
3070.3,14.389,-6.5192
3082,9.8913,-6.1197
3093.8,7.9336,-6.9298
3105.5,8.8652,-8.7597
3117.2,9.324,-6.9079
3128.9,9.7672,-7.5964
3140.6,8.8141,-9.9897
3152.3,7.4232,-8.4112
3164.1,11.707,-6.8913
3175.8,9.5184,-7.8065
3187.5,9.617,-6.3536
3199.2,11.518,-5.4246
3210.9,13.765,-5.9142
3222.7,13.527,-9.6125
3234.4,11.422,-5.5513
3246.1,8.6728,-5.0273
3257.8,11.728,-9.0228
3269.5,12.267,-6.8063
3281.3,8.9393,-5.6779
3293,9.2363,-7.8541
3304.7,10.927,-6.7443
3316.4,12.374,-5.0861
3328.1,8.2223,-6.5366
3339.8,8.2083,-8.2876
3351.6,9.4071,-10.65
3363.3,10.117,-6.8013
3375,7.6137,-6.2302
3386.7,10.623,-6.368
3398.4,10.405,-3.6224
3410.2,8.8141,-6.0226
3421.9,9.8459,-9.7505
3433.6,11.408,-9.9045
3445.3,12.67,-9.0071
3457,12.776,-9.6135
3468.8,9.6905,-8.21
3480.5,8.9977,-9.3413
3492.2,10.996,-9.0545
3503.9,11.218,-8.0758
3515.6,10.942,-11.125
3527.3,8.5561,-10.574
3539.1,7.0628,-8.594
3550.8,9.5374,-7.8703
3562.5,10.969,-8.679
3574.2,8.7716,-9.1157
3585.9,9.9571,-7.8739
3597.7,11.601,-6.515
3609.4,7.8776,-6.501
3621.1,7.9385,-7.9798
3632.8,6.6455,-9.0009
3644.5,9.5657,-10.453
3656.3,9.0309,-9.4823
3668,9.0753,-7.8568
3679.7,6.2597,-9.3556
3691.4,12.415,-7.8495
3703.1,11.114,-7.8191
3714.8,4.8466,-8.8858
3726.6,7.1404,-4.7185
3738.3,8.3549,-7.4963
3750,8.6164,-7.5724
3761.7,6.974,-6.1383
3773.4,8.901,-6.7636
3785.2,7.8336,-10.848
3796.9,9.2346,-8.0523
3808.6,8.6892,-7.2091
3820.3,4.5642,-9.3958
3832,5.4127,-9.8816
3843.8,6.9255,-4.0469
3855.5,10.068,-4.9599
3867.2,11.463,-10.432
3878.9,11.388,-9.8737
3890.6,9.3147,-10.408
3902.3,11.045,-8.8273
3914.1,11.688,-7.6131
3925.8,10.329,-8.613
3937.5,8.944,-6.6212
3949.2,7.644,-6.8292
3960.9,7.6542,-7.4427
3972.7,10.771,-7.2984
3984.4,11.656,-6.6947
3996.1,9.3827,-5.3829
4007.8,6.7035,-8.0205
4019.5,9.3423,-8.4168
4031.3,10.047,-7.7271
4043,7.4705,-7.4117
4054.7,7.873,-8.3777
4066.4,7.2359,-7.9565
4078.1,7.0743,-4.561
4089.8,8.6972,-6.4048
4101.6,10.452,-7.7714
4113.3,7.0762,-5.2483
4125,7.589,-5.2637
4136.7,7.2551,-7.8391
4148.4,6.9929,-6.3493
4160.2,5.7986,-8.0092
4171.9,6.9675,-6.3187
4183.6,7.3845,-6.5073
4195.3,8.4288,-6.7957
4207,9.4114,-6.7607
4218.8,8.7288,-5.5894
4230.5,7.2519,-5.412
4242.2,5.7107,-5.9431
4253.9,5.2488,-6.4773
4265.6,9.1182,-9.2921
4277.3,9.7857,-10.615
4289.1,7.4843,-7.4381
4300.8,6.906,-5.6358
4312.5,7.3437,-9.102
4324.2,9.7058,-8.82
4335.9,9.3239,-7.0783
4347.7,8.5963,-9.3034
4359.4,11.992,-8.3241
4371.1,10.291,-6.0023
4382.8,9.1883,-6.2432
4394.5,10.337,-8.9571
4406.3,9.9406,-8.6715
4418,7.5988,-4.1838
4429.7,5.574,-4.3639
4441.4,7.337,-7.7533
4453.1,6.3883,-7.1155
4464.8,8.7098,-6.244
4476.6,10.107,-4.9361
4488.3,8.0264,-7.3723
4500,7.2415,-7.7859
4511.7,8.6151,-7.6807
4523.4,6.937,-8.556
4535.2,5.9905,-9.0317
4546.9,6.5228,-9.1041
4558.6,9.6799,-6.5949
4570.3,8.3696,-10.428
4582,7.1698,-10.758
4593.8,7.6801,-7.1306
4605.5,6.7915,-10.156
4617.2,6.9099,-9.3934
4628.9,5.122,-10.415
4640.6,8.0877,-10.411
4652.3,4.7741,-10.042
4664.1,7.9082,-7.8567
4675.8,7.9854,-5.0823
4687.5,9.4377,-7.0535
4699.2,9.5036,-7.939
4710.9,4.0704,-6.066
4722.7,3.4041,-5.6288
4734.4,8.7686,-6.9051
4746.1,8.1829,-9.6344
4757.8,5.9646,-10.766
4769.5,7.2908,-7.7075
4781.3,7.3652,-8.7847
4793,7.1703,-8.1763
4804.7,7.517,-7.818
4816.4,7.4783,-10.011
4828.1,6.4186,-10.744
4839.8,7.2562,-7.789
4851.6,6.0964,-7.2355
4863.3,8.4792,-10.494
4875,8.0816,-7.455
4886.7,6.5174,-5.5703
4898.4,8.4254,-7.9489
4910.2,5.0267,-8.8753
4921.9,9.8928,-8.0845
4933.6,8.993,-7.8345
4945.3,6.0591,-8.2725
4957,7.4536,-7.5164
4968.8,9.3158,-7.5868
4980.5,7.0372,-5.4004
4992.2,5.0726,-6.841
5003.9,3.7983,-9.1402
5015.6,6.7855,-7.3539
5027.3,4.022,-7.0138
5039.1,4.4588,-10.23
5050.8,5.11,-10.079
5062.5,6.6475,-7.5214
5074.2,8.5339,-5.2717
5085.9,11.187,-7.4146
5097.7,9.7168,-9.3938
5109.4,6.1736,-10.102
5121.1,7.5108,-10.989
5132.8,8.4191,-10.034
5144.5,2.957,-6.5567
5156.3,2.6406,-7.7782
5168,5.0943,-8.2702
5179.7,7.4896,-7.1868
5191.4,4.2762,-8.7719
5203.1,7.5649,-9.299
5214.8,9.1985,-9.9386
5226.6,4.6256,-5.5776
5238.3,6.0975,-6.7497
5250,6.3283,-9.1828
5261.7,5.1185,-7.0752
5273.4,5.5597,-7.2596
5285.2,5.6455,-5.4745
5296.9,4.5206,-6.3001
5308.6,4.6485,-7.6996
5320.3,6.2547,-10.571
5332,8.2446,-9.7571
5343.8,7.7671,-8.5953
5355.5,5.2811,-9.1272
5367.2,6.4429,-11.246
5378.9,8.6089,-10.407
5390.6,8.3298,-9.8303
5402.3,7.165,-9.9194
5414.1,6.3833,-9.0486
5425.8,5.3808,-10.892
5437.5,4.0513,-10.653
5449.2,3.248,-7.6748
5460.9,2.7153,-9.5135
5472.7,1.2447,-7.0758
5484.4,5.956,-6.0388
5496.1,6.0178,-7.8922
5507.8,6.535,-9.353
5519.5,5.9455,-11.251
5531.3,3.7917,-6.2617
5543,5.1123,-4.7461
5554.7,7.1656,-5.7686
5566.4,3.9706,-4.9556
5578.1,4.5889,-7.5007
5589.8,6.6336,-7.584
5601.6,5.8242,-8.8139
5613.3,6.0306,-10.391
5625,6.1103,-8.9026
5636.7,7.6768,-8.6139
5648.4,6.9467,-8.8009
5660.2,4.5579,-10.074
5671.9,5.0018,-9.9087
5683.6,3.7965,-7.2665
5695.3,6.0832,-5.9927
5707,6.6392,-6.0081
5718.8,5.5919,-7.7313
5730.5,3.178,-7.5956
5742.2,3.7578,-8.6846
5753.9,3.8826,-6.1533
5765.6,4.6134,-8.2643
5777.3,7.4609,-11.445
5789.1,7.3425,-9.7237
5800.8,6.7023,-9.4363
5812.5,4.0311,-10.616
5824.2,5.8907,-11.744
5835.9,7.2434,-10.602
5847.7,5.1998,-7.9324
5859.4,6.8023,-8.409
5871.1,6.7966,-9.903
5882.8,7.4248,-9.0702
5894.5,5.9381,-11.105
5906.3,8.5283,-12.005
5918,6.8451,-9.7828
5929.7,5.7513,-10.185
5941.4,5.7439,-11.483
5953.1,8.2386,-8.6872
5964.8,7.4421,-12.517
5976.6,6.8398,-9.968
5988.3,5.1218,-7.5584
6000,3.8318,-7.9864
6011.7,5.1523,-8.2078
6023.4,4.9326,-8.2991
6035.2,4.3376,-9.6409
6046.9,1.9723,-11.625
6058.6,4.9139,-10.576
6070.3,6.0797,-8.9254
6082,5.6296,-9.0999
6093.8,4.8492,-9.0994
6105.5,4.0255,-9.7857
6117.2,5.2421,-10.074
6128.9,5.983,-11.011
6140.6,5.4533,-8.99
6152.3,4.6956,-12.46
6164.1,5.9043,-10.954
6175.8,4.8033,-10.311
6187.5,0.74664,-10.15
6199.2,3.1126,-7.231
6210.9,3.2172,-4.6088
6222.7,3.7722,-7.1123
6234.4,1.9588,-9.4602
6246.1,4.0424,-8.7536
6257.8,3.2354,-9.3165
6269.5,0.93282,-10.929
6281.3,4.9373,-8.5562
6293,4.6935,-9.4841
6304.7,5.4453,-8.8441
6316.4,3.7627,-6.7455
6328.1,5.1995,-10.625
6339.8,4.8117,-11.063
6351.6,2.4119,-9.2375
6363.3,1.3081,-6.936
6375,3.6356,-8.6187
6386.7,6.0547,-9.4028
6398.4,5.8018,-8.5737
6410.2,4.352,-8.3576
6421.9,3.429,-9.1649
6433.6,5.2122,-8.8344
6445.3,7.0013,-6.4703
6457,6.344,-5.9816
6468.8,8.1038,-9.1117
6480.5,6.8628,-10.912
6492.2,2.486,-9.7576
6503.9,3.3085,-8.388
6515.6,5.2556,-8.6647
6527.3,7.3293,-6.2131
6539.1,5.3712,-8.8774
6550.8,1.4455,-12.033
6562.5,2.6477,-10.039
6574.2,3.5313,-8.1392
6585.9,4.8564,-9.0494
6597.7,3.5662,-8.9401
6609.4,2.4355,-10.365
6621.1,2.753,-8.8723
6632.8,2.7564,-7.7974
6644.5,5.0519,-9.1207
6656.3,4.2874,-6.6078
6668,4.8103,-8.9348
6679.7,4.4103,-7.9294
6691.4,4.7566,-7.1147
6703.1,4.5506,-7.4362
6714.8,4.7902,-10.06
6726.6,5.8315,-9.9846
6738.3,2.4872,-8.1118
6750,3.6338,-7.0966
6761.7,3.5793,-6.9964
6773.4,4.6245,-8.4592
6785.2,0.70545,-10.42
6796.9,0.21319,-10.258
6808.6,0.92241,-9.007
6820.3,2.5499,-7.5243
6832,4.001,-7.0795
6843.8,4.8284,-9.3233
6855.5,4.2492,-13.24
6867.2,5.2278,-9.0906
6878.9,2.222,-7.4285
6890.6,-0.6633,-8.9798
6902.3,3.3072,-9.8991
6914.1,4.201,-9.3465
6925.8,5.0427,-10.53
6937.5,5.1745,-10.046
6949.2,4.8693,-7.7823
6960.9,3.3576,-6.1144
6972.7,3.9366,-7.6458
6984.4,2.8334,-12.064
6996.1,2.291,-9.7088
7007.8,4.4521,-10.141
7019.5,6.8335,-9.0443
7031.3,7.2036,-8.1756
7043,4.5823,-9.3142
7054.7,3.7907,-9.5296
7066.4,4.3,-6.4535
7078.1,1.3916,-9.041
7089.8,2.8405,-5.6008
7101.6,4.5706,-6.1513
7113.3,5.8098,-6.8941
7125,3.959,-6.1423
7136.7,3.1958,-9.4716
7148.4,5.0575,-13.135
7160.2,6.5537,-11.005
7171.9,6.1639,-10.766
7183.6,4.7568,-8.6496
7195.3,1.0366,-6.7668
7207,4.2231,-8.4426
7218.8,6.1156,-10.163
7230.5,5.6763,-11.523
7242.2,6.4443,-13.479
7253.9,3.7751,-9.7818
7265.6,4.3168,-8.9932
7277.3,5.1731,-7.1839
7289.1,4.2236,-8.7846
7300.8,5.8128,-7.3348
7312.5,3.9721,-7.291
7324.2,4.2298,-8.6328
7335.9,0.45258,-10.467
7347.7,2.0376,-10.484
7359.4,4.1927,-10.822
7371.1,4.1007,-10.067
7382.8,3.6633,-9.9104
7394.5,3.9843,-9.8031
7406.3,4.2733,-9.5049
7418,5.167,-9.4079
7429.7,7.3882,-9.7013
7441.4,1.8712,-9.9615
7453.1,3.893,-12.128
7464.8,1.9224,-11.304
7476.6,4.3372,-9.1398
7488.3,3.4558,-7.788
7500,2.1777,-8.8627
7511.7,4.2756,-9.4036
7523.4,4.3301,-10.056
7535.2,1.8995,-12.751
7546.9,0.87677,-10.745
7558.6,-0.29417,-8.1741
7570.3,0.29181,-7.6744
7582,2.2096,-9.0519
7593.8,2.9156,-11.334
7605.5,-0.1614,-10.469
7617.2,1.311,-11.791
7628.9,3.7205,-7.5956
7640.6,4.171,-6.7649
7652.3,2.3444,-10.053
7664.1,1.63,-10.009
7675.8,0.51649,-11.129
7687.5,2.7277,-10.157
7699.2,2.3112,-10.534
7710.9,-0.54254,-8.603
7722.7,3.406,-7.7079
7734.4,2.833,-7.4308
7746.1,1.5859,-6.6736
7757.8,2.6856,-7.48
7769.5,4.6019,-7.7458
7781.3,2.8619,-6.6361
7793,2.8034,-8.5055
7804.7,0.24131,-10.807
7816.4,3.016,-9.5529
7828.1,2.426,-9.3211
7839.8,-0.25205,-8.869
7851.6,1.45,-8.7302
7863.3,4.2858,-8.4083
7875,4.6809,-8.5633
7886.7,2.5419,-8.3989
7898.4,2.8668,-8.451
7910.2,3.7647,-8.6528
7921.9,1.9374,-8.5593
7933.6,0.8209,-10.808
7945.3,1.6983,-9.6727
7957,2.328,-9.4143
7968.8,4.2372,-9.3407
7980.5,3.5355,-10.926
7992.2,0.74212,-10.209
8003.9,1.7685,-9.5481
8015.6,2.3831,-9.5255
8027.3,1.8712,-10.082
8039.1,3.1,-11.413
8050.8,2.6351,-9.966
8062.5,3.9661,-11.569
8074.2,1.6022,-9.6905
8085.9,1.8437,-8.541
8097.7,2.9204,-10.216
8109.4,2.2291,-10.299
8121.1,3.5599,-7.2658
8132.8,1.0564,-6.5348
8144.5,4.7724,-9.0562
8156.3,3.9686,-10.691
8168,2.6046,-12.211
8179.7,-0.10645,-14.406
8191.4,0.2067,-15.313
8203.1,3.684,-11.912
8214.8,0.86146,-10.194
8226.6,-0.85429,-7.3151
8238.3,1.1908,-9.772
8250,1.0403,-11.071
8261.7,0.47538,-10.198
8273.4,-0.039163,-10.099
8285.2,-1.0975,-10.321
8296.9,-1.298,-9.1977
8308.6,0.52106,-9.1629
8320.3,-2.6555,-8.5194
8332,-3.1005,-13.637
8343.8,0.52161,-10.362
8355.5,1.7978,-8.8043
8367.2,3.6133,-9.2335
8378.9,3.994,-10.721
8390.6,4.3975,-7.8899
8402.3,2.4445,-7.8691
8414.1,1.9874,-14.119
8425.8,0.54432,-13.07
8437.5,-0.64969,-10.19
8449.2,-0.57198,-9.9407
8460.9,-1.2731,-9.6561
8472.7,0.038503,-6.2584
8484.4,1.9619,-6.0128
8496.1,2.2942,-9.3959
8507.8,1.8261,-11.96
8519.5,3.0751,-12.948
8531.3,0.08809,-8.9634
8543,1.8817,-9.3662
8554.7,3.979,-10.085
8566.4,1.1069,-8.7717
8578.1,-0.917,-8.0598
8589.8,-0.56993,-9.2746
8601.6,1.4342,-10.296
8613.3,0.58595,-9.7897
8625,2.554,-8.488
8636.7,3.7693,-9.8538
8648.4,1.0669,-12.316
8660.2,-1.0317,-11.235
8671.9,-0.76146,-8.8717
8683.6,1.4136,-10.147
8695.3,-0.37426,-11.752
8707,2.2029,-13.681
8718.8,1.3785,-16.62
8730.5,-0.20189,-15.606
8742.2,-1.1475,-12.518
8753.9,1.4877,-12.088
8765.6,2.4163,-9.9178
8777.3,2.506,-9.8065
8789.1,2.163,-9.1782
8800.8,1.1118,-10.312
8812.5,1.1694,-13.752
8824.2,1.6216,-11.624
8835.9,0.78741,-12.276
8847.7,2.1163,-11.807
8859.4,1.7018,-10.245
8871.1,2.8804,-10.613
8882.8,2.1026,-11.6
8894.5,-1.1469,-10.33
8906.3,1.0979,-8.9162
8918,3.5874,-12.751
8929.7,4.0457,-11.524
8941.4,3.9484,-10.132
8953.1,1.7509,-9.4289
8964.8,1.7887,-12.557
8976.6,4.131,-11.75
8988.3,4.2768,-9.2939
9000,1.1004,-8.4124
9011.7,0.7945,-9.8762
9023.4,3.9282,-10.057
9035.2,3.4055,-10.334
9046.9,1.4163,-10.12
9058.6,0.28538,-8.1262
9070.3,-0.68206,-9.377
9082,1.0019,-9.9153
9093.8,2.2482,-9.6324
9105.5,0.16372,-8.6103
9117.2,0.364,-6.896
9128.9,1.8082,-6.8411
9140.6,0.51915,-10.003
9152.3,1.2934,-11.821
9164.1,-1.1967,-14.687
9175.8,-1.2606,-10.088
9187.5,-1.0436,-9.562
9199.2,0.041561,-13.015
9210.9,-2.4223,-10.12
9222.7,2.5233,-6.3725
9234.4,3.5326,-7.7182
9246.1,2.5257,-11.28
9257.8,0.4122,-6.5298
9269.5,4.0663,-9.7906
9281.3,3.0467,-11.063
9293,1.3893,-8.3836
9304.7,1.7627,-8.0623
9316.4,-0.05568,-12.169
9328.1,1.6416,-7.3099
9339.8,1.5465,-9.8154
9351.6,0.81312,-10.829
9363.3,-1.0735,-8.8803
9375,-3.3776,-9.9042
9386.7,-4.3983,-11.852
9398.4,-1.772,-11.297
9410.2,2.1993,-10.685
9421.9,1.4565,-10.569
9433.6,0.74546,-10.386
9445.3,-2.0915,-8.913
9457,-5.6075,-10.871
9468.8,-2.3917,-10.204
9480.5,-1.8622,-11.169
9492.2,-2.8568,-11.006
9503.9,0.93763,-10.526
9515.6,1.0682,-11.008
9527.3,0.7959,-12.393
9539.1,4.1456,-10.772
9550.8,4.489,-13.085
9562.5,3.9029,-12.416
9574.2,3.0681,-10.983
9585.9,2.3036,-12.274
9597.7,3.547,-10.281
9609.4,2.2542,-8.6513
9621.1,-0.85066,-9.3355
9632.8,0.2038,-10.495
9644.5,-1.3671,-10.1
9656.3,-0.92527,-13.451
9668,-0.73614,-11.746
9679.7,-0.065951,-11.992
9691.4,0.14801,-11.331
9703.1,1.2287,-11.612
9714.8,0.79568,-12.868
9726.6,-2.6717,-15.402
9738.3,-1.7083,-14.833
9750,0.87585,-12.923
9761.7,-1.9208,-11.74
9773.4,-1.0855,-9.6494
9785.2,0.84448,-9.4525
9796.9,1.1141,-9.3027
9808.6,1.2075,-11.388
9820.3,-1.2278,-10.887
9832,0.14002,-11.243
9843.8,4.2214,-12.877
9855.5,3.5789,-10.844
9867.2,1.7401,-11.799
9878.9,1.2761,-12.979
9890.6,1.4039,-12.239
9902.3,-2.0503,-12.735
9914.1,0.28582,-11.675
9925.8,0.19433,-12.673
9937.5,-1.2075,-11.079
9949.2,-1.1142,-12.629
9960.9,-1.4342,-10.74
9972.7,0.90698,-8.5543
9984.4,-3.4229,-9.2682
9996.1,-0.21516,-10.894
10008,0.36485,-12.385
10020,-0.75664,-13.609
10031,-0.58206,-12.511
10043,0.058327,-10.883
10055,0.64852,-11.415
10066,-1.3418,-11.622
10078,-3.0678,-12.875
10090,-0.67124,-10.132
10102,0.21919,-10.652
10113,-2.9858,-11.037
10125,-3.5949,-9.987
10137,-4.2911,-13.242
10148,-0.29315,-11.533
10160,-0.35059,-11.643
10172,-1.3232,-14.164
10184,-2.5142,-13.958
10195,-2.4424,-15.752
10207,-3.598,-13.511
10219,-3.315,-11.727
10230,-0.44712,-12.964
10242,-1.3682,-11.53
10254,-0.64291,-10.612
10266,0.24021,-10.605
10277,0.0029752,-12.923
10289,-0.35091,-12.385
10301,0.52405,-11.099
10313,-0.16528,-12.718
10324,-2.4538,-9.9692
10336,-0.99807,-9.4208
10348,-0.64684,-11.694
10359,-0.62508,-10.818
10371,-1.8891,-11.153
10383,-0.64857,-10.748
10395,0.3678,-11.458
10406,1.8531,-10.791
10418,2.9689,-10.09
10430,1.3882,-9.7735
10441,-0.77384,-9.996
10453,0.022806,-12.274
10465,0.41457,-10.048
10477,-1.8158,-12.85
10488,-1.5672,-16.686
10500,-2.9553,-14.749
10512,-1.3066,-10.979
10523,-1.7275,-12.126
10535,-3.8967,-11.673
10547,-1.7662,-11.69
10559,-1.304,-13.265
10570,1.7005,-12.714
10582,1.1957,-10.042
10594,-0.59469,-9.5149
10605,-0.64682,-10.66
10617,0.064495,-10.589
10629,-2.4039,-14.375
10641,-2.2402,-14.766
10652,-3.4909,-12.138
10664,-1.8512,-14.164
10676,-0.79897,-13.298
10688,-2.9802,-13.258
10699,-1.1283,-7.8991
10711,0.1373,-10.279
10723,-0.92017,-11.29
10734,1.0645,-11.174
10746,1.716,-9.2456
10758,0.99221,-9.6096
10770,-1.1628,-10.066
10781,1.2881,-10.934
10793,1.1488,-9.8251
10805,-2.3437,-10.398
10816,-4.9212,-11.32
10828,-3.2642,-13.66
10840,-0.36504,-14.313
10852,-1.0549,-13.452
10863,-1.182,-10.189
10875,0.88906,-10.677
10887,1.4055,-10.432
10898,0.16045,-10.966
10910,1.055,-12.28
10922,0.58552,-11.382
10934,0.76988,-13.651
10945,-0.55521,-15.17
10957,-1.159,-13.789
10969,-0.60718,-14.031
10980,1.0045,-14.859
10992,1.3018,-12.743
11004,-0.46983,-13.372
11016,-1.875,-17.315
11027,-0.50978,-14.47
11039,-0.18307,-15.576
11051,-0.78576,-11.709
11063,-0.15931,-10.298
11074,-0.25338,-9.3205
11086,-3.2836,-12.445
11098,-1.9059,-14.925
11109,-2.3475,-13.394
11121,-5.262,-12.954
11133,-0.82444,-10.169
11145,-0.099628,-9.1466
11156,0.38844,-8.7727
11168,0.16623,-11.813
11180,-1.6308,-11.746
11191,-1.9343,-10.999
11203,0.77413,-10.828
11215,-0.36345,-9.801
11227,-1.4431,-10.593
11238,-0.61895,-10.376
11250,-0.55733,-8.9827
11262,-0.59486,-9.8484
11273,-3.6221,-9.0505
11285,-2.727,-8.5876
11297,-0.80873,-8.7153
11309,-1.0454,-10.012
11320,-1.7896,-12.041
11332,-7.306,-11.405
11344,-2.1167,-13.15
11355,-0.35288,-13.876
11367,-3.1836,-15.396
11379,-2.706,-13.31
11391,1.0802,-14.738
11402,0.70185,-10.518
11414,-1.9688,-12.783
11426,-2.243,-14.587
11438,-3.5366,-8.7763
11449,-5.1274,-8.8026
11461,-4.4295,-11.162
11473,-2.1306,-13.708
11484,-2.1668,-15.797
11496,1.3991,-12.84
11508,2.4713,-11.887
11520,1.4353,-11.552
11531,1.746,-11.374
11543,1.7739,-12.683
11555,-0.95135,-10.305
11566,-2.1506,-12.348
11578,0.67531,-13.53
11590,-1.2376,-10.661
11602,-4.6426,-10.575
11613,-3.2362,-12.91
11625,-1.1212,-12.122
11637,-1.2281,-10.519
11648,-1.6903,-12.533
11660,-0.60701,-14.85
11672,-3.6235,-13.356
11684,-1.5464,-13.514
11695,-3.0273,-17.268
11707,-3.6661,-14.976
11719,-3.9314,-14.455
11730,-3.2911,-12.894
11742,-4.8057,-14.44
11754,-2.155,-12.791
11766,-2.6764,-12.211
11777,-5.173,-12.202
11789,-1.7453,-13.3
11801,-0.82263,-12.49
11813,-2.5683,-14.383
11824,-2.8713,-14.791
11836,-2.4107,-12.904
11848,-0.93613,-12.97
11859,0.27335,-14.608
11871,-0.91104,-14.066
11883,0.61245,-15.538
11895,0.61862,-15.314
11906,-1.1395,-15.37
11918,-2.928,-13.586
11930,-2.3276,-11.591
11941,-1.0914,-11.072
11953,-4.2279,-10.914
11965,-4.8135,-12.315
11977,-4.1118,-11.333
11988,-0.9607,-12.423
12000,-1.7994,-12.639
12012,-3.3028,-18.386
12023,-2.612,-17.033
12035,-3.6914,-16.154
12047,-5.7927,-16.221
12059,-2.7398,-14.913
12070,-2.1437,-13.287
12082,-0.73963,-12.275
12094,-2.1871,-11.197
12105,-2.6476,-10.372
12117,-0.8912,-12.311
12129,0.81147,-12.141
12141,-2.3569,-12.217
12152,-4.4733,-10.615
12164,-2.2989,-12.414
12176,-3.3493,-13.037
12188,-3.0022,-13.245
12199,-1.9633,-11.962
12211,-1.2477,-12.712
12223,-0.66962,-11.563
12234,-0.69203,-14.216
12246,-0.78463,-15.371
12258,-2.1672,-13.842
12270,-5.9077,-11.028
12281,-4.7779,-11.732
12293,-2.8031,-15.363
12305,-4.2586,-12.538
12316,-2.9737,-8.9702
12328,-1.7319,-11.007
12340,-0.86931,-12.277
12352,-0.97743,-13.56
12363,-2.1951,-14.046
12375,-3.2721,-13.64
12387,-2.6972,-14.257
12398,-0.7049,-14.854
12410,-3.043,-15.563
12422,-5.7122,-19.064
12434,-8.2316,-15.655
12445,-2.6248,-13.473
12457,0.10446,-14.986
12469,-0.72451,-10.534
12480,-1.5617,-9.3232
12492,-2.0743,-12.088
12504,-1.0952,-15.064
12516,-1.3024,-13.021
12527,-3.3142,-9.9417
12539,-4.8601,-11.148
12551,-5.8544,-13.157
12563,-4.0606,-13.216
12574,-1.5542,-12.335
12586,-0.82201,-11.9
12598,-0.25544,-11.006
12609,-1.222,-14.183
12621,-5.0105,-16.011
12633,-3.3879,-14.746
12645,-5.2194,-13.423
12656,-3.8175,-12.675
12668,-3.5195,-11.171
12680,-5.3822,-11.931
12691,-2.0071,-14.35
12703,-0.95255,-14.502
12715,-4.5419,-13.398
12727,-2.4328,-13.888
12738,0.023818,-11.049
12750,-4.2391,-12.434
12762,-6.7894,-13.621
12773,-4.9422,-14.516
12785,-5.1756,-14.332
12797,-6.4072,-10.524
12809,-6.3275,-13.427
12820,-6.1941,-14.691
12832,-6.0782,-12.988
12844,-4.5681,-13.425
12855,-5.6143,-12.397
12867,-6.2568,-17.182
12879,-3.1184,-14.556
12891,-2.7603,-15.404
12902,-4.373,-14.161
12914,-5.2354,-14.22
12926,-0.8709,-13.523
12938,-1.2906,-13.303
12949,-3.9449,-14.616
12961,-5.8652,-14.248
12973,-4.7122,-14.678
12984,-6.211,-16.258
12996,-3.0562,-15.455
13008,-1.8856,-13.278
13020,-2.3447,-11.977
13031,-0.66506,-14.043
13043,-2.7267,-15.277
13055,-2.9173,-14.584
13066,-2.7179,-14.716
13078,-4.05,-15.319
13090,-2.8307,-15.815
13102,-3.3998,-15.515
13113,-3.0734,-12.478
13125,-3.0297,-14.514
13137,-2.0474,-14.805
13148,-3.31,-14.22
13160,-4.9481,-13.11
13172,-2.5381,-12.948
13184,0.57132,-13.63
13195,-1.7457,-13.28
13207,-1.927,-10.839
13219,-0.27984,-9.7136
13230,-2.6607,-11.099
13242,-1.5385,-10.484
13254,-0.78638,-13.464
13266,-5.1206,-12.178
13277,-3.5909,-12.24
13289,-1.1945,-9.5588
13301,-3.207,-13.474
13313,-5.1229,-13.372
13324,-4.0834,-12.914
13336,-5.6353,-14.697
13348,-4.5018,-16.983
13359,-3.0187,-13.68
13371,-2.5108,-11.597
13383,-3.9175,-12.966
13395,-1.3595,-14.866
13406,-1.792,-16.346
13418,0.11679,-16.074
13430,-2.195,-14.566
13441,-5.1953,-16.991
13453,-2.6782,-15.33
13465,-1.8252,-12.604
13477,-3.1696,-9.7471
13488,-4.4724,-11.981
13500,-6.729,-14.976
13512,-3.0884,-18.289
13523,-1.4765,-13.999
13535,-1.6058,-13.917
13547,-1.3893,-14.106
13559,0.81787,-18.196
13570,-1.1299,-17.669
13582,-2.7941,-16.224
13594,-3.9309,-14.102
13605,-5.2201,-10.222
13617,-2.4398,-9.583
13629,-2.4516,-11.902
13641,-4.9942,-13.93
13652,-4.8835,-15.68
13664,-2.5918,-15.025
13676,-2.1327,-12.585
13688,-1.8801,-13.265
13699,-1.5316,-15.488
13711,-1.9424,-14.846
13723,-2.6966,-13.119
13734,-3.6219,-15.07
13746,-2.3334,-15.273
13758,-3.3684,-14.262
13770,-4.9225,-13.094
13781,-2.5714,-13.654
13793,-2.7157,-14.152
13805,-3.8961,-12.648
13816,-4.1302,-14.151
13828,-4.6313,-15.274
13840,-2.1139,-16.241
13852,-2.5774,-13.238
13863,-4.8354,-13.162
13875,-4.0861,-13.739
13887,-4.1823,-13.115
13898,-5.0591,-14.733
13910,-5.2001,-13.311
13922,-4.5759,-14.453
13934,-2.1858,-12.181
13945,-1.0455,-15.288
13957,-3.0317,-10.482
13969,-5.6245,-12.283
13980,-4.7311,-19.356
13992,-5.9202,-14.166
14004,-8.187,-13.492
14016,-5.0925,-14.922
14027,-4.3725,-14.15
14039,-4.2824,-14.138
14051,-4.5894,-13.311
14063,-3.61,-12.637
14074,-2.5307,-12.659
14086,-3.9609,-13.217
14098,-5.4441,-12.011
14109,-2.8864,-11.784
14121,-2.1597,-15.289
14133,-3.4443,-14.837
14145,-3.5731,-15.468
14156,-4.6432,-15.339
14168,-5.0036,-10.589
14180,-1.1955,-10.211
14191,-2.8517,-15.139
14203,-6.7055,-15.091
14215,-5.2587,-12.321
14227,-4.554,-13.512
14238,-2.3942,-14.27
14250,-2.9966,-14.357
14262,-3.7818,-12.684
14273,-4.4209,-12.722
14285,-4.4883,-16.592
14297,-5.7183,-16.329
14309,-7.3542,-12.85
14320,-2.4657,-14.341
14332,-3.2659,-13.168
14344,-5.1922,-13.197
14355,-6.0253,-17.668
14367,-3.7997,-14.426
14379,-6.0532,-15.6
14391,-6.0829,-16.601
14402,-8.0483,-13.617
14414,-3.5706,-13.132
14426,-4.1945,-13.156
14438,-3.3097,-16.55
14449,-4.9991,-14.722
14461,-9.9463,-12.457
14473,-7.7572,-12.22
14484,-5.0126,-11.084
14496,-3.8891,-14.637
14508,-3.9553,-18.554
14520,-3.2374,-16.904
14531,-4.081,-16.657
14543,-6.3244,-12.763
14555,-4.9184,-12.942
14566,-5.8282,-13.259
14578,-4.8289,-15.002
14590,-7.2187,-15.52
14602,-6.8881,-16.228
14613,-4.0439,-15.3
14625,-5.5442,-16.589
14637,-5.0969,-16.644
14648,-5.8203,-17.116
14660,-4.9084,-14.728
14672,-6.2253,-11.688
14684,-5.6041,-12.045
14695,-7.3977,-13.718
14707,-3.0535,-14.615
14719,-2.5748,-13.115
14730,-2.5254,-11.095
14742,-1.3342,-11.996
14754,-2.6175,-16.059
14766,-5.6494,-15.52
14777,-3.7234,-14.872
14789,-6.7408,-14.436
14801,-8.4512,-13.393
14813,-6.8219,-15.924
14824,-5.5885,-13.639
14836,-5.636,-14.943
14848,-7.3721,-12.621
14859,-7.1207,-12.199
14871,-5.5923,-13.556
14883,-6.3656,-12.655
14895,-5.1334,-12.93
14906,-5.2893,-15.701
14918,-4.6726,-16.692
14930,-6.308,-16.696
14941,-6.7579,-18.017
14953,-3.8275,-15.634
14965,-3.2951,-16.261
14977,-5.272,-15.98
14988,-6.5357,-14.832
15000,-4.689,-12.854
15012,-4.6787,-12.639
15023,-6.1994,-11.513
15035,-5.9374,-15.46
15047,-5.6881,-14.662
15059,-5.9585,-13.946
15070,-6.1873,-15.819
15082,-11.201,-18.641
15094,-10.966,-17.46
15105,-5.6452,-15.888
15117,-3.5624,-16.784
15129,-3.8905,-15.721
15141,-4.753,-14.414
15152,-4.6993,-16.446
15164,-2.6096,-15.675
15176,-4.7072,-16.25
15188,-2.6523,-14.699
15199,-2.8142,-17.277
15211,-4.4678,-17.129
15223,-5.7185,-16.256
15234,-7.3471,-15.384
15246,-8.3299,-15.715
15258,-4.4837,-17.867
15270,-3.493,-15.044
15281,-3.6868,-13.696
15293,-5.9342,-13.173
15305,-5.8261,-16.232
15316,-4.5268,-16.698
15328,-8.1384,-15.984
15340,-9.2787,-16.969
15352,-7.8128,-16.643
15363,-6.1588,-17.601
15375,-5.7501,-13.979
15387,-6.993,-13.059
15398,-7.6889,-17.252
15410,-8.2227,-17.656
15422,-5.1758,-17.613
15434,-3.3247,-17.378
15445,-4.3893,-15.897
15457,-6.1648,-13.188
15469,-6.4249,-11.711
15480,-6.3585,-12.766
15492,-6.5979,-13.992
15504,-5.5134,-12.693
15516,-8.1827,-13.6
15527,-6.8649,-13.64
15539,-5.2056,-16.245
15551,-6.4944,-15.108
15563,-8.5166,-16.888
15574,-6.7118,-15.284
15586,-10.685,-15.488
15598,-7.9892,-16.339
15609,-4.8887,-14.723
15621,-8.1088,-17.89
15633,-11.609,-16.757
15645,-8.3571,-16.187
15656,-6.3398,-17.574
15668,-4.973,-17.696
15680,-5.3951,-15.506
15691,-6.431,-13.269
15703,-5.9811,-14.622
15715,-8.107,-18.234
15727,-9.0623,-14.617
15738,-8.7229,-14.037
15750,-10.12,-15.15
15762,-9.6409,-12.979
15773,-8.7709,-16.3
15785,-7.5132,-15.026
15797,-8.3925,-15.642
15809,-8.3203,-15.238
15820,-5.991,-16.833
15832,-5.9318,-16.603
15844,-9.393,-17.791
15855,-8.5755,-14.954
15867,-7.4952,-16.308
15879,-9.1646,-16.402
15891,-8.4046,-13.63
15902,-7.0325,-15.142
15914,-6.6909,-17.358
15926,-9.0278,-17.964
15938,-7.2174,-15.723
15949,-6.784,-14.227
15961,-7.394,-12.716
15973,-7.5659,-12.312
15984,-6.9768,-12.899
15996,-4.6287,-14.439
16008,-4.4424,-16.44
16020,-6.2616,-16.287
16031,-5.5531,-16.551
16043,-5.84,-15.765
16055,-6.9454,-15.714
16066,-5.3233,-18.566
16078,-5.5742,-22.133
16090,-7.7561,-18.479
16102,-10.113,-16.279
16113,-7.0264,-13.634
16125,-6.5446,-16.832
16137,-6.6281,-15.14
16148,-7.2866,-16.412
16160,-6.5136,-17.725
16172,-7.869,-16.308
16184,-8.6723,-15.522
16195,-8.8165,-15.184
16207,-10.28,-16.274
16219,-8.1667,-16
16230,-10.777,-16.168
16242,-6.3235,-19.243
16254,-8.0941,-16.706
16266,-7.6428,-15.057
16277,-7.6165,-15.743
16289,-9.1677,-15.205
16301,-8.9903,-15.739
16313,-8.5637,-15.612
16324,-7.4135,-16.016
16336,-6.352,-17.394
16348,-7.3556,-17.834
16359,-7.1285,-17.276
16371,-8.3862,-17.774
16383,-9.01,-14.279
16395,-8.0583,-16.333
16406,-5.8903,-15.004
16418,-6.9199,-15.885
16430,-6.4241,-18.022
16441,-6.3551,-17.272
16453,-8.819,-17.359
16465,-11.004,-15.73
16477,-9.7188,-17.627
16488,-8.5797,-18.18
16500,-12.652,-15.37
16512,-10.13,-16.252
16523,-9.9939,-17.972
16535,-5.7885,-14.025
16547,-5.4691,-13.27
16559,-6.6685,-14.925
16570,-10.418,-14
16582,-11.141,-13.492
16594,-8.9918,-14.32
16605,-8.3951,-18.046
16617,-8.5457,-16.699
16629,-7.3696,-17.749
16641,-9.2478,-18.573
16652,-7.2249,-15.513
16664,-6.843,-15.402
16676,-8.1133,-20.273
16688,-7.6626,-17.983
16699,-5.0762,-16.172
16711,-5.7053,-16.186
16723,-8.1168,-18.449
16734,-12.752,-14.963
16746,-8.9181,-15.184
16758,-8.7797,-19.897
16770,-10.839,-15.995
16781,-11.229,-14.022
16793,-12.223,-16.773
16805,-12.211,-17.781
16816,-13.449,-17.405
16828,-10.512,-18.806
16840,-10.467,-18.943
16852,-6.1933,-19.525
16863,-7.7139,-17.961
16875,-5.6706,-15.928
16887,-8.9362,-16.781
16898,-12.714,-16.173
16910,-10.041,-17.601
16922,-10.646,-20.135
16934,-10.059,-18.762
16945,-8.5002,-16.16
16957,-9.5236,-16.264
16969,-10.341,-18.998
16980,-9.3864,-17.004
16992,-7.8552,-13.018
17004,-9.5286,-14.643
17016,-13.141,-19.929
17027,-11.28,-20.537
17039,-11.592,-18.923
17051,-9.1306,-18.153
17063,-9.7288,-14.535
17074,-9.7763,-15.359
17086,-11.451,-15.779
17098,-12.345,-16.638
17109,-9.3864,-18.566
17121,-7.5782,-18.401
17133,-7.744,-17.399
17145,-9.0956,-17.914
17156,-8.2767,-16.783
17168,-7.6617,-16.177
17180,-8.4389,-15.044
17191,-7.1162,-16.552
17203,-8.6387,-18.255
17215,-9.5586,-14.837
17227,-7.4744,-16.935
17238,-8.2063,-16.143
17250,-8.4797,-14.884
17262,-9.8655,-15.835
17273,-10.894,-19.301
17285,-12.455,-18.079
17297,-11.062,-16.595
17309,-9.785,-15.411
17320,-9.214,-16.629
17332,-9.5207,-12.987
17344,-10.163,-12.584
17355,-10.818,-15.913
17367,-11.919,-15.257
17379,-10.148,-16.817
17391,-10.449,-16.537
17402,-12.501,-17.479
17414,-13.158,-16.787
17426,-11.425,-21.302
17438,-10.87,-18.449
17449,-14.496,-14.467
17461,-11.255,-16.228
17473,-9.909,-17.012
17484,-11.709,-18.677
17496,-12.63,-17.353
17508,-9.203,-18.388
17520,-10.554,-18.096
17531,-12.89,-15.609
17543,-11.987,-18.429
17555,-9.6698,-17.122
17566,-11.144,-13.84
17578,-11.876,-14.951
17590,-7.8339,-14.682
17602,-7.9727,-16.175
17613,-9.4394,-17.973
17625,-12.287,-17.669
17637,-8.7296,-17.41
17648,-9.9834,-14.098
17660,-15.18,-15.085
17672,-11.772,-16.541
17684,-8.3244,-16.111
17695,-7.5037,-16.23
17707,-9.1584,-18.667
17719,-11.48,-17.285
17730,-11.455,-16.906
17742,-9.2445,-15.662
17754,-8.3937,-17.034
17766,-8.4028,-16.659
17777,-9.5225,-18.694
17789,-9.9988,-17.148
17801,-13.429,-17.78
17813,-11.975,-18.168
17824,-13.879,-19.981
17836,-15.769,-16.782
17848,-12.582,-15.029
17859,-9.8507,-16.877
17871,-12.369,-15.518
17883,-10.305,-14.452
17895,-7.5946,-15.392
17906,-9.4869,-17.059
17918,-11.483,-15.001
17930,-9.3447,-16.56
17941,-9.9264,-19.027
17953,-11.299,-17.479
17965,-11.678,-16.849
17977,-10.543,-16.808
17988,-7.9621,-14.7
18000,-7.5061,-14.319
18012,-12.707,-15.196
18023,-13.008,-17.054
18035,-11.86,-19.854
18047,-9.5728,-16.355
18059,-13.902,-17.382
18070,-10.212,-15.9
18082,-13.379,-14.372
18094,-12.348,-14.458
18105,-12.581,-14.573
18117,-12.113,-17.78
18129,-10,-17.342
18141,-10.806,-19.214
18152,-10.112,-20.346
18164,-9.83,-18.142
18176,-9.9662,-18.722
18188,-11.4,-17.78
18199,-12.156,-16.285
18211,-6.4797,-14.134
18223,-7.6139,-17.153
18234,-12.395,-18.4
18246,-10.899,-16.738
18258,-10.566,-14.152
18270,-12.335,-14.608
18281,-14.549,-17.004
18293,-10.114,-20.466
18305,-10.711,-18.606
18316,-12.461,-16.6
18328,-11.264,-14.827
18340,-9.4331,-14.708
18352,-8.1241,-15.978
18363,-9.6944,-17.125
18375,-11.082,-16.81
18387,-11.046,-19.062
18398,-7.8934,-17.061
18410,-10.308,-18.676
18422,-11.364,-18.501
18434,-11.497,-16.305
18445,-12.796,-18.277
18457,-11.998,-14.677
18469,-12.419,-12.444
18480,-13.869,-14.514
18492,-12.532,-18.254
18504,-14.837,-17.71
18516,-13.884,-17.331
18527,-10.221,-21.171
18539,-10.47,-19.576
18551,-13.875,-18.791
18563,-11.349,-17.825
18574,-10.786,-18.058
18586,-9.2712,-17.871
18598,-13.319,-18.953
18609,-14.595,-20.826
18621,-11.066,-20.576
18633,-8.5426,-18.333
18645,-12.652,-20.86
18656,-10.733,-20.702
18668,-10.45,-15.659
18680,-12.498,-14.217
18691,-11.084,-15.621
18703,-12.658,-14.371
18715,-14.362,-17.74
18727,-14.812,-15.511
18738,-12.516,-15.372
18750,-10.473,-17.782
18762,-11.58,-17.859
18773,-12.611,-17.371
18785,-12.813,-19.818
18797,-14.019,-19.246
18809,-12.122,-17.059
18820,-13.959,-16.996
18832,-14.573,-20.935
18844,-14.344,-16.615
18855,-12.281,-14.308
18867,-11.496,-16.873
18879,-13.102,-20.943
18891,-14.25,-17.268
18902,-13.154,-18.438
18914,-10.622,-20.264
18926,-10.325,-17.514
18938,-11.62,-16.604
18949,-12.071,-15.611
18961,-11.057,-17.932
18973,-13.021,-18.789
18984,-13.45,-15.847
18996,-11.836,-15.655
19008,-10.522,-15.532
19020,-12.422,-14.85
19031,-13.977,-15.101
19043,-10.073,-17.402
19055,-15.509,-18.632
19066,-13.524,-18.243
19078,-15.576,-15.262
19090,-16.205,-14.777
19102,-13.869,-15.097
19113,-12.041,-16.441
19125,-11.881,-17.728
19137,-13.254,-18.826
19148,-13.806,-19.248
19160,-15.575,-17.381
19172,-15.091,-16.648
19184,-15.748,-20.396
19195,-15.347,-17.976
19207,-13.651,-17.681
19219,-11.665,-19.688
19230,-13.009,-16.935
19242,-14.528,-19.706
19254,-13.663,-19.025
19266,-12.954,-18.738
19277,-11.975,-20.516
19289,-9.766,-19.719
19301,-9.9851,-18.719
19313,-12.829,-18.492
19324,-13.439,-18.045
19336,-13.392,-18.443
19348,-11.568,-17.757
19359,-10.505,-16.012
19371,-13.985,-17.958
19383,-11.55,-16.143
19395,-11.976,-16.15
19406,-12.821,-17.617
19418,-10.878,-17.557
19430,-12.897,-14.695
19441,-13.061,-14.29
19453,-10.654,-17.246
19465,-14.196,-20.998
19477,-17.125,-20.463
19488,-14.29,-19.09
19500,-12.206,-18.553
19512,-9.6973,-21.662
19523,-11.389,-23.06
19535,-14.631,-20.528
19547,-13.963,-17.481
19559,-14.431,-17.642
19570,-15.685,-17.544
19582,-14.051,-18.109
19594,-12.981,-18.011
19605,-12.868,-17.435
19617,-14.408,-16.2
19629,-11.19,-16.222
19641,-10.262,-16.52
19652,-10.621,-17.458
19664,-12.645,-15.281
19676,-15.247,-15.738
19688,-16.393,-17.634
19699,-15.75,-16.587
19711,-14.495,-21.277
19723,-13.136,-23.002
19734,-13.072,-16.434
19746,-10.511,-15.169
19758,-12.13,-19.282
19770,-14.755,-17.746
19781,-14.075,-14.487
19793,-13.824,-15.221
19805,-13.05,-16.149
19816,-13.7,-15.481
19828,-12.11,-17.19
19840,-13.077,-18.972
19852,-13.082,-18.488
19863,-14.595,-17.947
19875,-12.85,-17.086
19887,-11.785,-17.482
19898,-10.991,-14.026
19910,-11.783,-16.465
19922,-13.804,-17.225
19934,-13.687,-15.454
19945,-14.202,-16.316
19957,-16.747,-19.91
19969,-13.967,-22.457
19980,-14.652,-23.499
19992,-14.027,-18.767
20004,-14.393,-16.43
20016,-15.144,-17.732
20027,-17.529,-20.444
20039,-17.707,-18.23
20051,-16.092,-17.445
20063,-14.352,-15.683
20074,-17.498,-14.067
20086,-16.898,-17.861
20098,-12.361,-22.54
20109,-12.788,-20.975
20121,-12.275,-20.931
20133,-11.768,-19.2
20145,-13.598,-17.404
20156,-12.1,-20.454
20168,-15.076,-18.473
20180,-14.768,-17.748
20191,-14.707,-18.494
20203,-13.473,-18.987
20215,-12.327,-19.557
20227,-11.19,-16.178
20238,-11.504,-16.44
20250,-12.237,-18.468
20262,-13.022,-19.357
20273,-13.484,-16.212
20285,-14.446,-16.863
20297,-15.61,-20.18
20309,-13.996,-20.407
20320,-12.567,-18.308
20332,-13.411,-17.862
20344,-14.708,-21.017
20355,-14.89,-18.93
20367,-17.512,-19.74
20379,-13.881,-20.092
20391,-13.077,-20.001
20402,-13.875,-21.197
20414,-13.391,-18.481
20426,-15.138,-18.409
20438,-15.553,-18.122
20449,-17.714,-19.351
20461,-17.608,-18.855
20473,-17.615,-16.518
20484,-14.259,-20.178
20496,-15.344,-19.602
20508,-15.421,-18.835
20520,-15.935,-19.671
20531,-15.843,-19.672
20543,-17.068,-19.447
20555,-16.198,-19.103
20566,-12.68,-18.436
20578,-12.147,-19.248
20590,-12.958,-19.276
20602,-14.326,-18.975
20613,-16.669,-19.673
20625,-12.929,-20.363
20637,-11.693,-20.95
20648,-14.284,-17.283
20660,-17.238,-19.383
20672,-17.838,-21.03
20684,-14.461,-21.077
20695,-14.782,-21.179
20707,-13.861,-18.88
20719,-10.58,-18.128
20730,-10.536,-16.891
20742,-12.901,-16.558
20754,-15.268,-17.708
20766,-14.144,-18.18
20777,-14.16,-18.098
20789,-14.785,-17.615
20801,-16.365,-17.556
20813,-14.905,-18.79
20824,-14.084,-20.951
20836,-16.555,-18.388
20848,-15.892,-16.584
20859,-17.21,-18.025
20871,-16.123,-18.74
20883,-14.01,-19.158
20895,-15.529,-18.009
20906,-18.539,-19.338
20918,-16.672,-17.034
20930,-16.318,-16.524
20941,-9.774,-19.226
20953,-9.6837,-19.114
20965,-11.581,-20.617
20977,-12.847,-19.805
20988,-15.889,-14.444
21000,-14.336,-13.246
21012,-12.914,-16.77
21023,-14.524,-18.601
21035,-14.257,-15.4
21047,-13.991,-18.697
21059,-13.889,-22.951
21070,-16.038,-23.248
21082,-14.894,-21.618
21094,-14.583,-18.938
21105,-16.087,-19.05
21117,-15.958,-17.365
21129,-15.726,-18.575
21141,-17.606,-21.016
21152,-16.607,-18.683
21164,-13.852,-17.281
21176,-15.456,-18.303
21188,-14.315,-17.784
21199,-13.193,-18.673
21211,-13.49,-20.113
21223,-14.879,-18.387
21234,-15.203,-17.598
21246,-17.698,-20.783
21258,-18.392,-20.843
21270,-19.418,-20.765
21281,-14.232,-21.036
21293,-15.632,-20.029
21305,-14.731,-18.634
21316,-12.848,-19.655
21328,-13.893,-19.637
21340,-16.37,-19.481
21352,-14.46,-17.473
21363,-12.504,-17.86
21375,-13.606,-16.216
21387,-15.004,-18.316
21398,-15.6,-18.707
21410,-14.272,-18.603
21422,-14.573,-18.485
21434,-16.855,-17.726
21445,-17.853,-18.484
21457,-15.618,-20.626
21469,-12.715,-20.339
21480,-13.363,-19.078
21492,-15.044,-18.626
21504,-15.046,-16.518
21516,-15.134,-18.951
21527,-15.112,-17.115
21539,-16.345,-16.684
21551,-15.982,-18.359
21563,-16.983,-16.863
21574,-15.827,-19.237
21586,-14.625,-18.427
21598,-18.488,-19.209
21609,-17.185,-20.03
21621,-13.689,-19.777
21633,-15.365,-21.138
21645,-17.231,-15.917
21656,-19.146,-16.258
21668,-15.824,-21.428
21680,-13.21,-19.865
21691,-15.258,-19.287
21703,-14.448,-21.204
21715,-14.931,-19.659
21727,-19.649,-18.112
21738,-18.006,-20.05
21750,-17.585,-19.462
21762,-18.357,-16.294
21773,-15.48,-18.198
21785,-15.421,-22.363
21797,-15.665,-19.628
21809,-16.119,-21.831
21820,-15.183,-21.149
21832,-15.195,-18.648
21844,-17.224,-21.674
21855,-17.829,-21.975
21867,-16.086,-19.48
21879,-16.878,-16.893
21891,-17.296,-15.874
21902,-17.636,-20.161
21914,-12.998,-19.585
21926,-13.813,-18.467
21938,-17.711,-20.214
21949,-16.473,-22.328
21961,-16.465,-19.378
21973,-16.19,-16.503
21984,-18.422,-15.848
21996,-18.117,-18.433
22008,-17.335,-17.443
22020,-16.164,-18.389
22031,-13.434,-19.002
22043,-13.369,-19.051
22055,-14.717,-22.765
22066,-18.392,-20.383
22078,-18.638,-19.764
22090,-15.136,-19.366
22102,-14.248,-20.377
22113,-15.421,-18.613
22125,-18.234,-17.917
22137,-15.745,-18.219
22148,-18.792,-22.723
22160,-18.739,-19.222
22172,-19.972,-18.799
22184,-19.307,-19.766
22195,-16.377,-20.405
22207,-18.704,-21.144
22219,-14.665,-17.525
22230,-17.809,-14.534
22242,-18.414,-16.602
22254,-17.13,-18.468
22266,-17.184,-20.611
22277,-16.037,-22.266
22289,-17.032,-17.888
22301,-17.166,-16.639
22313,-18.264,-19.213
22324,-17.145,-19.721
22336,-16.146,-20.014
22348,-14.151,-17.467
22359,-13.94,-19.348
22371,-16.582,-20.867
22383,-19.057,-21.58
22395,-16.84,-19.368
22406,-16.178,-20.58
22418,-18.038,-21.712
22430,-17.152,-20.359
22441,-14.141,-20.553
22453,-14.466,-19.816
22465,-16.213,-20.11
22477,-16.613,-21.771
22488,-13.829,-22.214
22500,-17.073,-18.964
22512,-19.737,-17.548
22523,-17.588,-20.39
22535,-15.786,-21.951
22547,-16.524,-22.447
22559,-16.884,-20.547
22570,-18.567,-20.005
22582,-19.096,-23.726
22594,-17.485,-19.831
22605,-16.551,-19.332
22617,-14.076,-20.906
22629,-17.502,-18.85
22641,-18.704,-17.135
22652,-22.252,-20.46
22664,-19.098,-17.195
22676,-18.635,-17.339
22688,-15.28,-18.199
22699,-16.528,-21.029
22711,-18.62,-20.04
22723,-16.247,-19.967
22734,-14.189,-18.826
22746,-15.234,-18.093
22758,-16.879,-21.111
22770,-17.427,-16.932
22781,-15.485,-20.132
22793,-14.119,-20.835
22805,-13.591,-22.365
22816,-15.118,-18.714
22828,-15.971,-19.672
22840,-16.593,-18.27
22852,-15.726,-20.44
22863,-12.429,-19.938
22875,-13.603,-19.402
22887,-13.437,-19.307
22898,-13.607,-20.352
22910,-17.748,-21.884
22922,-16.645,-19.268
22934,-13.65,-18.467
22945,-14.844,-21.153
22957,-17.495,-17.999
22969,-16.505,-17.748
22980,-15.483,-18.238
22992,-15.878,-17.375
23004,-19.732,-16.455
23016,-17.861,-19.967
23027,-17.157,-20.95
23039,-19.939,-23.645
23051,-17.135,-22.555
23063,-16.713,-21.26
23074,-19.559,-20.815
23086,-15.8,-18.82
23098,-16.675,-20.542
23109,-16.403,-22.107
23121,-17.8,-22.65
23133,-17.072,-24.072
23145,-17.841,-24.562
23156,-17.367,-22.87
23168,-15.168,-21.303
23180,-14.943,-20.471
23191,-16.166,-20.392
23203,-17.223,-21.217
23215,-16.859,-18.771
23227,-16.72,-17.704
23238,-18.439,-19.907
23250,-14.074,-21.452
23262,-14.163,-23.989
23273,-16.641,-20.011
23285,-19.315,-20.16
23297,-18.898,-17.204
23309,-17.129,-18.93
23320,-18.416,-18.901
23332,-20.335,-19.7
23344,-21.136,-19.818
23355,-17.923,-18.899
23367,-12.509,-18.815
23379,-13.539,-21.876
23391,-18.184,-19.526
23402,-17.538,-17.522
23414,-17.601,-20.604
23426,-17.229,-19.392
23438,-17.475,-18.268
23449,-17.703,-18.914
23461,-15.948,-20.106
23473,-13.891,-20.925
23484,-13.302,-18.807
23496,-15.281,-18.892
23508,-18.209,-19.402
23520,-18.103,-20.602
23531,-17.917,-18.543
23543,-20.263,-20.209
23555,-19.971,-20.46
23566,-17.014,-20.112
23578,-18.057,-18.579
23590,-21.238,-18.956
23602,-17.876,-20.426
23613,-13.449,-22.952
23625,-16.239,-20.639
23637,-20.489,-21.518
23648,-17.794,-21.258
23660,-16.843,-19.921
23672,-16.597,-19.509
23684,-16.602,-24.98
23695,-19.469,-18.039
23707,-15.545,-22.935
23719,-14.538,-17.237
23730,-16.96,-19.916
23742,-17.414,-21.515
23754,-16.135,-19.769
23766,-17.109,-21.121
23777,-19.325,-19.096
23789,-19.165,-20.056
23801,-15.227,-19.39
23813,-14.863,-19.037
23824,-18.16,-22.584
23836,-16.301,-23.934
23848,-17.281,-20.367
23859,-20.171,-19.409
23871,-20.038,-20.39
23883,-18.07,-17.449
23895,-18.66,-18.321
23906,-17.56,-20.119
23918,-18.525,-21.248
23930,-16.519,-19.297
23941,-16.389,-19.817
23953,-17.9,-22.156
23965,-18.077,-21.296
23977,-20.691,-19.107
23988,-17.014,-19.067
