FFT,Power Spectrum
Frequency[Hz],Level-L[dB],Level-R[dB]
11.719,49.149,-5.7094
23.438,50.041,-19.751
35.156,37.643,-15.687
46.875,37.616,-8.3392
58.594,34.988,-9.7638
70.313,34.357,-14.368
82.031,36.432,-16.167
93.75,36.266,-15.652
105.47,33.209,-16.063
117.19,28.106,-16.889
128.91,25.374,-16.51
140.63,25.113,-10.699
152.34,22.699,-10.471
164.06,22.153,-14.952
175.78,16.218,-14.593
187.5,22.573,-15.639
199.22,26.681,-18.003
210.94,21.093,-19.083
222.66,14.937,-17.746
234.38,17.35,-20.002
246.09,14.947,-16.227
257.81,15.736,-17.004
269.53,15.549,-21.447
281.25,7.8383,-22.868
292.97,11.307,-23.167
304.69,13.543,-21.764
316.41,13.293,-20.231
328.13,16.007,-18.485
339.84,14.131,-16.545
351.56,12.873,-16.638
363.28,13.515,-18.647
375,15.507,-21.107
386.72,17.895,-22.778
398.44,17.91,-18.02
410.16,16.135,-20.448
421.88,17.075,-20.464
433.59,16.476,-18.901
445.31,16.81,-19.653
457.03,12.58,-18.508
468.75,11.535,-19.819
480.47,9.7778,-20.417
492.19,11.38,-20.669
503.91,15.156,-21.513
515.63,14.414,-20.409
527.34,9.6106,-18.664
539.06,8.7504,-21.107
550.78,9.2525,-19.792
562.5,12.452,-19.046
574.22,14.68,-19.846
585.94,15.166,-19.523
597.66,12.17,-20.313
609.38,12.037,-20.527
621.09,10.658,-19.175
632.81,5.4061,-19.546
644.53,9.7503,-23.113
656.25,11.163,-20.437
667.97,12.741,-18.295
679.69,15.086,-20.588
691.41,14.665,-20.854
703.13,14.473,-19.975
714.84,15.305,-20.748
726.56,15.34,-20.443
738.28,14.039,-21.612
750,13.697,-22.045
761.72,13.118,-20.789
773.44,14.373,-19.592
785.16,14.549,-18.671
796.88,14.013,-20.109
808.59,11.424,-22.346
820.31,9.4402,-20.603
832.03,7.6382,-19.293
843.75,9.846,-22.075
855.47,7.5554,-19.874
867.19,5.7159,-18.259
878.91,5.6987,-19.085
890.63,4.4301,-21.093
902.34,5.83,-18.966
914.06,5.7264,-16.553
925.78,2.5594,-17.724
937.5,3.9247,-17.361
949.22,5.0113,-17.866
960.94,7.0158,-21.206
972.66,6.4009,-25.725
984.38,4.2735,-21.592
996.09,5.3842,-18.897
1007.8,4.6575,-18.164
1019.5,4.8153,-17.652
1031.3,3.7862,-18.769
1043,5.2188,-21.112
1054.7,7.6396,-19.544
1066.4,6.6113,-21.958
1078.1,8.384,-19.407
1089.8,6.4483,-18.724
1101.6,4.0263,-19.455
1113.3,4.717,-19.087
1125,7.6799,-17.336
1136.7,6.42,-17.796
1148.4,6.4517,-18.68
1160.2,6.1572,-18.485
1171.9,6.2659,-16.403
1183.6,11.023,-20.86
1195.3,11.453,-19.825
1207,8.894,-18.341
1218.8,6.6053,-21.749
1230.5,7.1191,-21.14
1242.2,7.5261,-16.651
1253.9,8.4045,-17.428
1265.6,8.6792,-17.143
1277.3,7.8236,-17.074
1289.1,5.1735,-18.626
1300.8,2.4847,-18.443
1312.5,5.489,-19.884
1324.2,5.4957,-22.991
1335.9,6.1208,-19.631
1347.7,7.156,-19.246
1359.4,7.3263,-19.814
1371.1,6.4571,-19.657
1382.8,9.1417,-20.55
1394.5,10.716,-20.063
1406.3,8.7358,-18.629
1418,4.1473,-19.163
1429.7,5.4163,-18.868
1441.4,6.3081,-18.476
1453.1,9.6063,-20.67
1464.8,11.939,-19.723
1476.6,12.195,-17.995
1488.3,12.099,-20.577
1500,9.3497,-19.719
1511.7,4.3183,-21.241
1523.4,3.9132,-18.823
1535.2,3.1172,-20.315
1546.9,7.5425,-18.883
1558.6,8.446,-19.179
1570.3,6.5631,-21.09
1582,3.3788,-21.347
1593.8,-0.74996,-19.275
1605.5,-1.9039,-17.979
1617.2,0.080134,-20.381
1628.9,0.7888,-19.354
1640.6,3.5778,-19.46
1652.3,3.7942,-21.71
1664.1,1.5296,-21.921
1675.8,3.8206,-22.426
1687.5,7.7382,-21.186
1699.2,6.973,-21.183
1710.9,4.4235,-24.74
1722.7,2.7437,-19.477
1734.4,2.2484,-16.963
1746.1,5.4945,-17.191
1757.8,7.7589,-19.459
1769.5,7.0578,-21.862
1781.3,6.6879,-22.316
1793,7.5292,-22.389
1804.7,8.0455,-19.68
1816.4,8.5045,-19.494
1828.1,7.455,-20.729
1839.8,4.1356,-19.633
1851.6,4.5507,-19.611
1863.3,6.7967,-20.302
1875,7.1199,-23.356
1886.7,6.668,-19.509
1898.4,5.1574,-19.655
1910.2,3.7716,-19.332
1921.9,5.0823,-19.437
1933.6,6.8641,-19.387
1945.3,7.4211,-20.147
1957,6.5826,-19.318
1968.8,6.1836,-20.038
1980.5,1.6267,-20.667
1992.2,-0.95432,-19.447
2003.9,1.3013,-17.87
2015.6,3.8711,-17.817
2027.3,2.5453,-18.231
2039.1,1.6502,-20.226
2050.8,1.589,-19.138
2062.5,2.4251,-18.587
2074.2,3.0271,-20.133
2085.9,3.8471,-19.801
2097.7,6.1052,-20.196
2109.4,5.4871,-21.472
2121.1,2.7843,-20.026
2132.8,1.7621,-20.259
2144.5,1.529,-18.035
2156.3,1.2496,-20.272
2168,2.3201,-21.633
2179.7,2.6948,-22.813
2191.4,4.5125,-21.61
2203.1,4.9567,-21.169
2214.8,4.0437,-20.326
2226.6,3.5421,-18.961
2238.3,2.4941,-18.506
2250,0.24818,-19.074
2261.7,-0.68871,-20.442
2273.4,5.384,-19.377
2285.2,6.8597,-17.471
2296.9,5.5067,-19.539
2308.6,6.8343,-21.019
2320.3,5.1272,-21.533
2332,0.77162,-19.479
2343.8,3.0244,-21.889
2355.5,6.1365,-20.677
2367.2,6.8309,-20.343
2378.9,6.4689,-18.39
2390.6,3.9394,-19.373
2402.3,3.0037,-20.143
2414.1,3.83,-18.887
2425.8,5.7421,-19.759
2437.5,6.6288,-21.834
2449.2,5.7369,-19.814
2460.9,2.7103,-21.376
2472.7,-0.87513,-20.161
2484.4,1.422,-22.9
2496.1,1.714,-18.384
2507.8,4.0619,-21.181
2519.5,2.4771,-22.325
2531.3,-0.034295,-19.574
2543,0.70884,-17.621
2554.7,-0.89228,-18.202
2566.4,1.5723,-18.941
2578.1,5.0364,-20.474
2589.8,6.1747,-21.988
2601.6,3.3857,-24.464
2613.3,3.3979,-21.775
2625,4.3482,-19.539
2636.7,1.374,-19.321
2648.4,3.6701,-21.49
2660.2,3.7422,-20.041
2671.9,2.4694,-20.492
2683.6,-0.51787,-21.013
2695.3,0.35141,-20.94
2707,0.32332,-20.065
2718.8,1.1965,-24.686
2730.5,1.1413,-19.645
2742.2,2.9859,-16.794
2753.9,3.7069,-16.6
2765.6,2.1374,-18.36
2777.3,0.35909,-20.562
2789.1,-0.94579,-19.885
2800.8,0.73381,-17.504
2812.5,1.4206,-17.113
2824.2,-0.119,-19.808
2835.9,2.6511,-22.971
2847.7,3.5745,-21.162
2859.4,4.1782,-22.064
2871.1,4.6315,-21.775
2882.8,4.1137,-20.571
2894.5,2.1601,-19.082
2906.3,2.1161,-18.235
2918,2.922,-20.802
2929.7,1.909,-20.209
2941.4,-0.67538,-19.484
2953.1,-2.7211,-19.501
2964.8,1.6716,-18.955
2976.6,2.519,-18.903
2988.3,2.2875,-20.609
3000,1.3997,-18.277
3011.7,0.88718,-18.559
3023.4,0.37284,-19.849
3035.2,-1.9012,-17.163
3046.9,-4.3242,-17.9
3058.6,-2.2313,-20.85
3070.3,-1.9131,-18.365
3082,-0.40619,-20.284
3093.8,0.17167,-18.167
3105.5,1.5845,-15.767
3117.2,-0.10194,-19.351
3128.9,-0.40363,-21.486
3140.6,0.25953,-16.944
3152.3,1.4968,-19.206
3164.1,1.4258,-22.027
3175.8,2.0818,-21.454
3187.5,1.1923,-21.495
3199.2,2.6021,-19.76
3210.9,2.5915,-17.874
3222.7,-1.8596,-18.819
3234.4,-4.4732,-20.382
3246.1,-1.2612,-19.193
3257.8,1.4536,-19.13
3269.5,2.4303,-19.573
3281.3,0.34615,-20.298
3293,-4.4104,-20.611
3304.7,-1.3103,-19.277
3316.4,0.84567,-20.543
3328.1,-0.15081,-22.749
3339.8,0.24516,-20.357
3351.6,1.8775,-17.914
3363.3,1.5065,-18.82
3375,1.1663,-18.429
3386.7,3.3399,-18.958
3398.4,3.7596,-21.554
3410.2,3.3549,-19.789
3421.9,0.90699,-19.138
3433.6,-0.93994,-21.641
3445.3,-2.596,-23.044
3457,-0.7803,-22.39
3468.8,-2.4095,-25.598
3480.5,-0.42267,-21.626
3492.2,-0.56126,-21.555
3503.9,-1.1659,-19.942
3515.6,1.4574,-21.901
3527.3,2.6336,-21.115
3539.1,2.989,-20.129
3550.8,2.3984,-19.341
3562.5,0.83491,-17.853
3574.2,1.2586,-14.714
3585.9,0.071642,-14.427
3597.7,-1.247,-16.898
3609.4,-0.26375,-17.186
3621.1,-1.706,-18.921
3632.8,-1.2673,-17.279
3644.5,0.011096,-19.619
3656.3,1.5534,-18.322
3668,2.8161,-17.948
3679.7,0.64387,-18.039
3691.4,-2.694,-19.888
3703.1,-3.5049,-19.018
3714.8,-3.3731,-20.787
3726.6,-3.6582,-21.555
3738.3,-1.7755,-19.351
3750,-2.0077,-21.747
3761.7,0.10439,-22.311
3773.4,2.5408,-20.542
3785.2,2.1818,-19.419
3796.9,3.2142,-19.285
3808.6,1.3174,-19.714
3820.3,-3.8943,-21.73
3832,0.50864,-20.141
3843.8,0.63537,-21.083
3855.5,-2.2776,-20.248
3867.2,-4.1958,-20.842
3878.9,-1.7021,-21.026
3890.6,-3.5229,-20.289
3902.3,-0.39425,-18.202
3914.1,-1.2379,-18.453
3925.8,-1.1142,-18.992
3937.5,-4.3074,-20.663
3949.2,0.025761,-18.946
3960.9,1.0257,-18.324
3972.7,-0.54327,-18.934
3984.4,0.38929,-21.471
3996.1,0.89313,-22.264
4007.8,0.56033,-22.951
4019.5,0.71903,-23.121
4031.3,-1.339,-20.069
4043,-1.9411,-18.613
4054.7,0.13473,-21.872
4066.4,0.61623,-20.779
4078.1,-0.68315,-20.578
4089.8,-1.4141,-18.741
4101.6,-1.4347,-17.568
4113.3,-2.3814,-15.636
4125,-0.76477,-17.474
4136.7,2.0182,-21.2
4148.4,0.83172,-20.499
4160.2,-0.74916,-20.202
4171.9,-1.9593,-20.734
4183.6,0.1084,-18.044
4195.3,0.84203,-18.266
4207,-1.1686,-19.465
4218.8,-3.3399,-19.937
4230.5,-4.0847,-19.197
4242.2,-1.9757,-16.52
4253.9,-0.86671,-18.469
4265.6,-2.353,-16.965
4277.3,-0.92427,-16.278
4289.1,-1.3329,-22.368
4300.8,-0.85937,-20.442
4312.5,-0.081887,-19.432
4324.2,-1.0652,-23.852
4335.9,-4.1537,-22.308
4347.7,-6.409,-19.979
4359.4,-2.1083,-19.434
4371.1,-0.25566,-20.276
4382.8,-3.6911,-22.196
4394.5,-3.6366,-19.45
4406.3,-2.6647,-20.015
4418,-3.0032,-21.391
4429.7,-2.6716,-19.269
4441.4,-3.2932,-19.48
4453.1,-4.0122,-18.81
4464.8,-0.72552,-18.83
4476.6,-0.8431,-17.892
4488.3,-3.5029,-18.3
4500,-4.6887,-17.669
4511.7,-0.45618,-20.581
4523.4,-0.16066,-20.423
4535.2,-3.5014,-20.47
4546.9,-8.3828,-20.135
4558.6,-5.3897,-22.774
4570.3,-3.9933,-20.265
4582,-3.3159,-20.94
4593.8,-5.7478,-17.211
4605.5,-4.4321,-16.386
4617.2,-3.487,-20.666
4628.9,-3.8207,-21.943
4640.6,-3.9924,-19.867
4652.3,-3.9734,-20.598
4664.1,-1.2411,-16.453
4675.8,-6.1482,-18.218
4687.5,-4.247,-20.146
4699.2,-3.4619,-20.225
4710.9,-4.1391,-21.709
4722.7,-3.8184,-19.386
4734.4,-6.2705,-18.803
4746.1,-4.8618,-21.639
4757.8,-3.6486,-20.098
4769.5,-3.2887,-23.783
4781.3,-5.0038,-22.614
4793,-5.485,-19.057
4804.7,-5.1544,-18.382
4816.4,-3.0574,-17.844
4828.1,-2.4252,-18.168
4839.8,-1.4551,-18.979
4851.6,-0.32544,-21.163
4863.3,-1.7937,-17.341
4875,-1.379,-17.295
4886.7,-0.14312,-21.632
4898.4,-2.7799,-22.184
4910.2,-3.1372,-20.799
4921.9,-5.6353,-20.934
4933.6,-5.6286,-19.437
4945.3,-6.0317,-17.931
4957,-4.6324,-17.967
4968.8,-4.6384,-19.219
4980.5,-2.428,-19.611
4992.2,-1.5555,-20.677
5003.9,-3.6778,-22.854
5015.6,-8.2543,-23.981
5027.3,-7.443,-21.915
5039.1,-4.4559,-23.287
5050.8,-3.2173,-21.673
5062.5,-3.4913,-19.174
5074.2,-4.4738,-20.307
5085.9,-6.1334,-20.715
5097.7,-8.1095,-20.119
5109.4,-5.4567,-20.225
5121.1,-2.8395,-21.732
5132.8,-3.8928,-19.752
5144.5,-6.8855,-19.606
5156.3,-6.7236,-21.753
5168,-6.4213,-21.524
5179.7,-7.4201,-18.971
5191.4,-3.5905,-18.211
5203.1,-4.075,-18.784
5214.8,-3.6889,-20.144
5226.6,-4.445,-20.663
5238.3,-7.7976,-20.048
5250,-3.9351,-20.099
5261.7,-2.4924,-18.324
5273.4,-5.8487,-18.85
5285.2,-8.5116,-18.582
5296.9,-4.2925,-20.371
5308.6,-2.6407,-24.021
5320.3,-4.2265,-19.171
5332,-3.8187,-17.333
5343.8,-7.2955,-18.577
5355.5,-4.8804,-18.58
5367.2,-2.5941,-20.238
5378.9,-1.922,-23.374
5390.6,-2.703,-21.445
5402.3,-5.2621,-19.483
5414.1,-5.6519,-20.87
5425.8,-6.0823,-19.14
5437.5,-7.478,-18.523
5449.2,-6.0942,-18.993
5460.9,-2.3416,-18.729
5472.7,-5.1882,-17.728
5484.4,-4.5685,-18.746
5496.1,-2.9703,-20.684
5507.8,-3.5857,-22.279
5519.5,-7.4464,-19.762
5531.3,-6.8994,-21.012
5543,-3.9643,-20.61
5554.7,-3.5598,-20.683
5566.4,-8.0306,-19.751
5578.1,-4.6681,-20.618
5589.8,-3.6144,-19.159
5601.6,-6.6023,-18.519
5613.3,-5.9413,-19.511
5625,-4.0595,-16.919
5636.7,-5.1437,-17.195
5648.4,-7.2527,-20.908
5660.2,-7.9401,-18.96
5671.9,-7.1501,-18.355
5683.6,-4.2605,-19.033
5695.3,-4.2627,-17.586
5707,-6.2997,-16.352
5718.8,-6.2831,-19.56
5730.5,-5.0313,-15.99
5742.2,-5.8436,-18.351
5753.9,-6.9914,-19.44
5765.6,-4.2783,-21.196
5777.3,-2.59,-20.98
5789.1,-2.1383,-19.968
5800.8,-4.9926,-18.938
5812.5,-6.0699,-18.219
5824.2,-6.068,-19.862
5835.9,-6.9085,-18.6
5847.7,-6.4548,-19.38
5859.4,-7.047,-19.66
5871.1,-4.3793,-20.536
5882.8,-3.9864,-19.533
5894.5,-6.4603,-19.307
5906.3,-8.8653,-18.593
5918,-8.5332,-20.267
5929.7,-6.9696,-21.304
5941.4,-4.1984,-21.83
5953.1,-3.8361,-21.313
5964.8,-5.1028,-21.742
5976.6,-6.185,-19.981
5988.3,-8.2072,-17.791
6000,-6.9516,-19.963
6011.7,-6.1598,-22.139
6023.4,-7.2079,-20.719
6035.2,-7.0872,-21.278
6046.9,-5.5607,-19.646
6058.6,-5.1133,-17.86
6070.3,-3.863,-17.385
6082,-4.7051,-18.15
6093.8,-4.8347,-19.597
6105.5,-5.3052,-21.464
6117.2,-6.5852,-18.946
6128.9,-4.6485,-18.59
6140.6,-3.9312,-19.548
6152.3,-3.9222,-21.832
6164.1,-3.306,-19.173
6175.8,-4.4612,-21.629
6187.5,-4.9197,-24.911
6199.2,-5.2252,-20.483
6210.9,-5.1468,-19.268
6222.7,-4.4668,-20.123
6234.4,-7.173,-20.307
6246.1,-7.1624,-16.37
6257.8,-4.0603,-18.911
6269.5,-3.8979,-19.852
6281.3,-7.0367,-20.559
6293,-9.9048,-19.228
6304.7,-6.5516,-21.214
6316.4,-5.1116,-21.317
6328.1,-3.2388,-20.708
6339.8,-4.3506,-19.461
6351.6,-5.8804,-18.105
6363.3,-6.6814,-21.427
6375,-9.5115,-19.799
6386.7,-8.0155,-18.201
6398.4,-4.5505,-20.144
6410.2,-2.6619,-21.154
6421.9,-2.2884,-20.379
6433.6,-4.2332,-19.64
6445.3,-3.9606,-20.018
6457,-6.1692,-20.682
6468.8,-5.6798,-19.7
6480.5,-5.6879,-18.32
6492.2,-5.7611,-19.052
6503.9,-3.4977,-21.436
6515.6,-4.9781,-19.57
6527.3,-8.3159,-18.396
6539.1,-5.8415,-21.028
6550.8,-5.8865,-20.569
6562.5,-5.3982,-18.199
6574.2,-3.6345,-20.438
6585.9,-4.1964,-23
6597.7,-5.9356,-22.814
6609.4,-8.5309,-19.38
6621.1,-6.9231,-20.751
6632.8,-5.5452,-24.924
6644.5,-5.2866,-23.25
6656.3,-4.1108,-21.368
6668,-3.3555,-18.985
6679.7,-6.8292,-18.461
6691.4,-5.8995,-21.271
6703.1,-5.8455,-20.129
6714.8,-8.1523,-19.474
6726.6,-5.3134,-21.819
6738.3,-4.839,-18.106
6750,-5.1468,-17.043
6761.7,-6.1104,-21.576
6773.4,-4.5477,-22.269
6785.2,-3.3287,-19.954
6796.9,-4.2098,-22.921
6808.6,-6.6063,-22.883
6820.3,-8.165,-19.123
6832,-6.3041,-15.606
6843.8,-9.303,-16.489
6855.5,-8.0474,-18.756
6867.2,-8.8851,-19.148
6878.9,-8.4765,-21.553
6890.6,-6.5255,-19.34
6902.3,-6.6094,-20.127
6914.1,-6.4284,-22.145
6925.8,-6.9858,-20.12
6937.5,-7.8521,-19.54
6949.2,-8.7434,-17.052
6960.9,-6.3828,-19.334
6972.7,-5.9426,-21.292
6984.4,-6.3171,-18.185
6996.1,-6.5584,-17.571
7007.8,-7.1061,-19.195
7019.5,-7.4172,-19.421
7031.3,-9.1685,-18.657
7043,-6.9461,-21.629
7054.7,-5.8374,-17.138
7066.4,-7.6005,-18.864
7078.1,-9.429,-19.872
7089.8,-5.9289,-20.217
7101.6,-5.82,-20.377
7113.3,-5.3993,-21.013
7125,-5.4379,-16.182
7136.7,-5.1577,-18.731
7148.4,-6.1247,-19
7160.2,-6.7249,-19.268
7171.9,-9.8434,-18.384
7183.6,-11.026,-20.157
7195.3,-8.7937,-21.665
7207,-6.8379,-17.915
7218.8,-4.6956,-17.995
7230.5,-5.5682,-19.765
7242.2,-6.4282,-17.973
7253.9,-6.7868,-18.303
7265.6,-7.3181,-18.189
7277.3,-7.6023,-19.384
7289.1,-6.7103,-24.822
7300.8,-4.7241,-18.477
7312.5,-9.8097,-18.89
7324.2,-8.2442,-20.916
7335.9,-7.4097,-18.362
7347.7,-6.5616,-18.456
7359.4,-7.2986,-19.073
7371.1,-6.7092,-20.686
7382.8,-7.9512,-21.994
7394.5,-10.158,-21.109
7406.3,-10.039,-21.421
7418,-6.4912,-19.585
7429.7,-8.0768,-19.721
7441.4,-5.8987,-24.376
7453.1,-4.7123,-20.829
7464.8,-6.2369,-20.25
7476.6,-7.6962,-20.403
7488.3,-8.9114,-22.032
7500,-6.8851,-21.261
7511.7,-8.3094,-23.079
7523.4,-7.6423,-25.918
7535.2,-9.8952,-22.347
7546.9,-10.459,-21.226
7558.6,-9.4219,-19.173
7570.3,-6.4661,-17.611
7582,-5.1391,-19.859
7593.8,-9.0526,-25.217
7605.5,-7.3893,-22.074
7617.2,-7.7083,-23.065
7628.9,-6.8209,-21.863
7640.6,-7.1994,-19.565
7652.3,-9.2818,-20.182
7664.1,-11.114,-22.833
7675.8,-6.5602,-20.438
7687.5,-4.4493,-20.608
7699.2,-5.8526,-20.96
7710.9,-4.5847,-22.839
7722.7,-5.1307,-20.401
7734.4,-7.6004,-19.489
7746.1,-5.9861,-21.393
7757.8,-5.4993,-22.493
7769.5,-6.4946,-22.637
7781.3,-5.9129,-22.227
7793,-5.492,-24.26
7804.7,-2.9706,-23.015
7816.4,-6.2554,-20.143
7828.1,-8.1254,-19.662
7839.8,-6.7632,-18.43
7851.6,-7.7829,-22.184
7863.3,-9.2121,-21.535
7875,-6.2909,-19.318
7886.7,-6.3482,-18.534
7898.4,-10.605,-16.085
7910.2,-8.585,-18.166
7921.9,-4.8504,-19.476
7933.6,-3.8921,-20.498
7945.3,-5.4993,-22.817
7957,-7.8971,-23.808
7968.8,-8.6364,-22.043
7980.5,-7.4214,-21.351
7992.2,-5.6426,-18.042
8003.9,-5.5447,-19.364
8015.6,-8.0283,-21.47
8027.3,-8.5256,-20.554
8039.1,-6.2297,-20.411
8050.8,-5.4313,-22.252
8062.5,-7.1129,-18.224
8074.2,-9.51,-17.478
8085.9,-9.4963,-20.537
8097.7,-7.1541,-22.171
8109.4,-7.4987,-22.522
8121.1,-7.029,-23.575
8132.8,-4.867,-23.314
8144.5,-8.2089,-22.436
8156.3,-7.9415,-21.841
8168,-6.8609,-19.554
8179.7,-9.4395,-20.078
8191.4,-10.864,-21.943
8203.1,-6.339,-21.25
8214.8,-6.1482,-18.892
8226.6,-8.0542,-18.141
8238.3,-9.2233,-17.902
8250,-8.1492,-17.701
8261.7,-8.8073,-19.112
8273.4,-9.2375,-20.185
8285.2,-8.8866,-18.334
8296.9,-6.9091,-18.967
8308.6,-7.3764,-18.315
8320.3,-6.9997,-17.707
8332,-8.2445,-18.749
8343.8,-7.7147,-23.298
8355.5,-9.1556,-20.377
8367.2,-10.348,-20.671
8378.9,-8.7776,-21.089
8390.6,-6.6837,-18.141
8402.3,-7.3042,-19.808
8414.1,-6.8607,-20.209
8425.8,-9.3181,-18.912
8437.5,-8.5951,-16.579
8449.2,-8.0936,-18.086
8460.9,-5.833,-19.479
8472.7,-7.1075,-19.037
8484.4,-6.2994,-19.168
8496.1,-5.2894,-19.908
8507.8,-4.2445,-18.928
8519.5,-5.6885,-20.764
8531.3,-9.6549,-19.478
8543,-10.494,-20.169
8554.7,-9.569,-21.005
8566.4,-10.024,-19.73
8578.1,-8.2972,-19.236
8589.8,-7.2493,-20.333
8601.6,-8.9692,-19.578
8613.3,-9.6402,-22.016
8625,-9.0201,-21.716
8636.7,-11.548,-18.171
8648.4,-10.465,-21.233
8660.2,-8.4824,-24.535
8671.9,-4.9022,-21.299
8683.6,-7.0286,-17.357
8695.3,-11.433,-17.432
8707,-10.071,-21.392
8718.8,-8.9038,-20.607
8730.5,-9.9889,-19.105
8742.2,-7.9047,-19.673
8753.9,-6.9403,-21.931
8765.6,-8.6015,-19.289
8777.3,-9.7435,-16.994
8789.1,-9.3632,-16.177
8800.8,-9.8801,-20.308
8812.5,-7.6341,-20.611
8824.2,-7.4345,-18.473
8835.9,-6.8274,-16.608
8847.7,-10.007,-18.129
8859.4,-8.9603,-19.165
8871.1,-9.0324,-19.701
8882.8,-11.979,-20.462
8894.5,-10.362,-20.817
8906.3,-7.783,-19.42
8918,-7.2365,-19.067
8929.7,-8.7825,-18.218
8941.4,-7.416,-19.708
8953.1,-5.6343,-22.323
8964.8,-6.0516,-21.036
8976.6,-7.6939,-20.375
8988.3,-6.7793,-18.959
9000,-5.702,-17.38
9011.7,-5.3329,-15.869
9023.4,-6.7915,-16.412
9035.2,-11.075,-16.346
9046.9,-8.3357,-18.983
9058.6,-5.9002,-20.331
9070.3,-5.7139,-19.872
9082,-8.3523,-21.919
9093.8,-8.8769,-19.614
9105.5,-8.3418,-17.974
9117.2,-9.7669,-17.863
9128.9,-10.751,-21.468
9140.6,-10.992,-22.776
9152.3,-9.5808,-23.045
9164.1,-11.68,-22.896
9175.8,-7.1877,-22.011
9187.5,-7.7599,-19.404
9199.2,-9.869,-19.433
9210.9,-10.722,-21.448
9222.7,-9.0355,-18.173
9234.4,-8.2726,-18.736
9246.1,-7.3687,-17.271
9257.8,-7.1573,-18.044
9269.5,-8.7453,-16.802
9281.3,-7.7894,-19.67
9293,-8.8251,-21.069
9304.7,-9.236,-19.821
9316.4,-7.9518,-18.375
9328.1,-7.5403,-18.694
9339.8,-8.5966,-21.157
9351.6,-10.568,-18.781
9363.3,-11.007,-18.864
9375,-6.1916,-21.731
9386.7,-6.599,-19.963
9398.4,-9.4997,-21.079
9410.2,-6.2943,-21.767
9421.9,-5.6671,-22.653
9433.6,-8.9478,-22.848
9445.3,-9.3309,-20.89
9457,-8.1512,-19.597
9468.8,-7.7681,-17.081
9480.5,-8.2369,-15.743
9492.2,-7.8831,-18.444
9503.9,-7.7784,-22.369
9515.6,-9.0866,-18.855
9527.3,-8.4453,-17.759
9539.1,-9.9246,-21.039
9550.8,-8.8022,-21.464
9562.5,-7.9966,-19.641
9574.2,-8.9425,-18.89
9585.9,-8.1779,-17.801
9597.7,-9.4454,-17.792
9609.4,-9.0993,-17.527
9621.1,-9.5057,-21.18
9632.8,-9.4814,-25.456
9644.5,-9.7173,-23.769
9656.3,-11.203,-19.674
9668,-10.605,-20.015
9679.7,-8.5491,-20.015
9691.4,-6.2155,-17.489
9703.1,-9.8023,-20.362
9714.8,-8.6355,-20.716
9726.6,-6.7583,-20.875
9738.3,-7.055,-16.709
9750,-8.6509,-18.093
9761.7,-8.6004,-21.579
9773.4,-8.3263,-19.188
9785.2,-7.3072,-17.689
9796.9,-7.9598,-20.03
9808.6,-9.0528,-20.209
9820.3,-9.9266,-18.062
9832,-10.864,-19.034
9843.8,-9.6358,-19.22
9855.5,-7.9945,-20.707
9867.2,-9.5384,-22.334
9878.9,-9.8497,-20.01
9890.6,-12.95,-18.428
9902.3,-11.9,-17.663
9914.1,-10.337,-19.406
9925.8,-8.7599,-22.015
9937.5,-5.0582,-19.204
9949.2,-4.8983,-21.282
9960.9,-6.7583,-21.313
9972.7,-9.282,-20.231
9984.4,-9.8859,-21.125
9996.1,-9.5882,-21.641
10008,-11.404,-20.716
10020,-12.251,-20.295
10031,-9.1002,-18.51
10043,-8.5004,-20.275
10055,-9.3061,-18.153
10066,-9.2775,-19.317
10078,-12.366,-21.282
10090,-9.4081,-19.885
10102,-4.9152,-19.319
10113,-5.9273,-18.686
10125,-8.9934,-19.675
10137,-7.6979,-19.334
10148,-6.9923,-19.868
10160,-3.4293,-20.182
10172,-7.4631,-20.433
10184,-9.3207,-20.035
10195,-9.7971,-18.979
10207,-11.24,-21.784
10219,-9.8159,-20.408
10230,-10.69,-21.92
10242,-11.958,-20.585
10254,-11.237,-20.734
10266,-10.095,-19.932
10277,-9.1419,-22.187
10289,-11.142,-20.104
10301,-11.86,-20.211
10313,-11.333,-23.154
10324,-8.2875,-21.574
10336,-9.5456,-17.504
10348,-8.1623,-18.235
10359,-8.1458,-17.993
10371,-8.212,-18.096
10383,-8.0749,-19.819
10395,-7.9821,-21.942
10406,-6.9236,-23.089
10418,-10.704,-21.136
10430,-11.784,-21.519
10441,-8.6704,-21.715
10453,-6.6863,-22.048
10465,-9.4462,-22.453
10477,-9.3219,-20.837
10488,-7.7886,-19.989
10500,-6.7341,-22.587
10512,-8.1928,-20.584
10523,-7.9113,-21.72
10535,-7.194,-21.619
10547,-9.8981,-21.395
10559,-10.494,-18.676
10570,-8.3603,-18.559
10582,-7.1791,-20.366
10594,-6.8952,-21.254
10605,-6.0997,-20.698
10617,-6.1549,-17.814
10629,-8.0752,-22.935
10641,-13.296,-21.855
10652,-12.31,-20.482
10664,-11.681,-21.622
10676,-11.244,-22.026
10688,-10.307,-19.41
10699,-6.7952,-20.001
10711,-5.9768,-21.885
10723,-10.567,-19.867
10734,-8.0768,-18.923
10746,-8.2352,-18.342
10758,-8.7944,-18.994
10770,-8.3443,-19.011
10781,-5.952,-20.07
10793,-6.921,-19.365
10805,-7.8113,-20.879
10816,-7.4294,-20.055
10828,-9.38,-20.612
10840,-10.739,-22.678
10852,-10.409,-22.389
10863,-10.347,-20.948
10875,-10.461,-18.153
10887,-9.8444,-17.382
10898,-8.5629,-15.955
10910,-9.1574,-14.955
10922,-9.6188,-17.033
10934,-8.7597,-20.106
10945,-11.798,-20.865
10957,-10.55,-21.099
10969,-12.677,-17.686
10980,-11.949,-18.421
10992,-10.433,-24.473
11004,-10.315,-22.528
11016,-9.7915,-20.539
11027,-9.7352,-21.623
11039,-10.16,-21.383
11051,-9.5751,-20.299
11063,-12.789,-18.599
11074,-12.622,-18.962
11086,-10.372,-22.034
11098,-8.0474,-21.32
11109,-9.6844,-23.398
11121,-12.841,-19.634
11133,-10.388,-19.288
11145,-7.2936,-21.045
11156,-10.295,-16.411
11168,-13.51,-19.517
11180,-12.958,-21.818
11191,-9.1483,-22.572
11203,-6.8835,-21.313
11215,-10.739,-18.837
11227,-9.1692,-20.153
11238,-6.2849,-20.486
11250,-7.7748,-16.879
11262,-8.4028,-17.349
11273,-5.2362,-15.986
11285,-7.8033,-17.117
11297,-9.2774,-19.862
11309,-9.1172,-17.733
11320,-13.306,-18.537
11332,-11.543,-18.896
11344,-9.9709,-20.669
11355,-9.3051,-22.072
11367,-9.9614,-20.868
11379,-9.7124,-20.305
11391,-8.7723,-22.212
11402,-8.4244,-18.329
11414,-9.8949,-18.816
11426,-12.48,-21.602
11438,-11.129,-21.495
11449,-9.606,-23.163
11461,-11.079,-24.18
11473,-9.019,-23.03
11484,-8.2515,-21.696
11496,-9.2569,-20.597
11508,-8.6469,-22.088
11520,-8.7412,-23.117
11531,-10.799,-20.702
11543,-11.244,-17.553
11555,-9.8993,-17.157
11566,-12.743,-20.175
11578,-11.782,-20.754
11590,-5.992,-21.644
11602,-5.6615,-20.359
11613,-8.3093,-20.505
11625,-10.643,-22.26
11637,-8.9164,-18.544
11648,-10.301,-18.555
11660,-9.6325,-20.854
11672,-10.747,-22.659
11684,-11.619,-23.351
11695,-10.49,-21.098
11707,-9.6093,-20.754
11719,-6.3623,-19.296
11730,-4.5089,-17.248
11742,-5.9867,-20.445
11754,-11.466,-21.419
11766,-12.247,-19.595
11777,-9.6736,-21.404
11789,-8.4946,-20.338
11801,-7.3555,-20.337
11813,-8.562,-20.286
11824,-9.7353,-19.607
11836,-8.4157,-20.535
11848,-8.0214,-21.323
11859,-7.8403,-20.24
11871,-7.5373,-20.686
11883,-10.034,-21.073
11895,-10.899,-21.168
11906,-10.348,-21.63
11918,-10.494,-22.384
11930,-10.785,-20.613
11941,-6.9128,-20.199
11953,-8.5135,-20.074
11965,-13.47,-20.117
11977,-11.337,-19.046
11988,-8.6471,-19.442
12000,-10.589,-21.587
12012,-12.533,-20.681
12023,-11.728,-20.463
12035,-9.8842,-21.817
12047,-9.4836,-21.707
12059,-11.636,-22.942
12070,-11.908,-21.411
12082,-13.714,-21.554
12094,-10.744,-19.617
12105,-7.5946,-18.607
12117,-9.6821,-20.031
12129,-10.059,-20.749
12141,-14.031,-20.043
12152,-10.044,-19.677
12164,-11.582,-20.921
12176,-12.082,-21.139
12188,-10.71,-22.789
12199,-7.4672,-24.586
12211,-7.2688,-22.999
12223,-9.6118,-21.665
12234,-8.1925,-20.632
12246,-7.9005,-21.661
12258,-5.908,-21.151
12270,-6.5321,-18.521
12281,-9.839,-18.537
12293,-12.44,-18.12
12305,-11.227,-21.014
12316,-7.936,-21.419
12328,-8.9392,-22.012
12340,-9.2312,-21.54
12352,-12,-19.98
12363,-12.065,-21.389
12375,-12.923,-21.332
12387,-10.185,-22.946
12398,-10.137,-20.854
12410,-6.3694,-17.94
12422,-5.9657,-17.053
12434,-8.5748,-17.217
12445,-9.8482,-18.805
12457,-11.625,-18.203
12469,-11.577,-20.571
12480,-15.091,-21.725
12492,-12.246,-19.474
12504,-9.2752,-18.267
12516,-11.607,-19.88
12527,-10.756,-20.998
12539,-11.384,-20.87
12551,-11.799,-20.584
12563,-12.666,-23.367
12574,-13.291,-21.986
12586,-11.617,-21.881
12598,-12.674,-19.402
12609,-12.451,-18.868
12621,-12.932,-21.377
12633,-14.367,-21.224
12645,-10.776,-17.533
12656,-10.779,-17.084
12668,-14.381,-19.746
12680,-10.713,-21.784
12691,-10.206,-18.427
12703,-13.318,-20.5
12715,-13.141,-18.285
12727,-9.5599,-17.337
12738,-9.8248,-19.147
12750,-9.8143,-17.557
12762,-10.836,-18.437
12773,-12.493,-19.134
12785,-10.54,-17.686
12797,-11.212,-17.742
12809,-11.363,-21.462
12820,-9.343,-21.873
12832,-10.779,-19.719
12844,-9.2494,-17.9
12855,-8.7517,-20.3
12867,-9.5138,-20.3
12879,-11.325,-20.4
12891,-10.848,-21.433
12902,-10.073,-20.07
12914,-11.06,-17.301
12926,-9.8159,-18.054
12938,-9.6576,-18.766
12949,-7.943,-18.459
12961,-8.9504,-19.855
12973,-10.21,-20.43
12984,-10.198,-21.656
12996,-8.3134,-18.175
13008,-9.9179,-19.308
13020,-11.532,-20.549
13031,-13.375,-18.652
13043,-13.71,-20.453
13055,-12.034,-20.94
13066,-12.403,-19.713
13078,-10.408,-19.08
13090,-10.601,-18.199
13102,-10.844,-19.745
13113,-10.928,-18.933
13125,-11.932,-17.171
13137,-11.966,-18.207
13148,-9.851,-18.763
13160,-11.177,-18.069
13172,-11.86,-19.427
13184,-10.325,-18.857
13195,-8.9246,-17.433
13207,-9.2699,-18.707
13219,-10.627,-19.643
13230,-13.519,-22.916
13242,-11.341,-20.182
13254,-10.805,-20.869
13266,-13.257,-19.367
13277,-12.474,-18.674
13289,-8.6683,-21.34
13301,-10.571,-19.993
13313,-10.947,-20.322
13324,-9.477,-19.493
13336,-10.585,-19.229
13348,-9.5947,-17.232
13359,-11.044,-19.621
13371,-10.069,-18.649
13383,-8.4631,-19.571
13395,-10.185,-21.424
13406,-7.7945,-20.39
13418,-9.009,-22.829
13430,-12.473,-25.79
13441,-14.393,-21.406
13453,-13.157,-20.251
13465,-8.0895,-20.756
13477,-10.095,-18.46
13488,-12.866,-16.484
13500,-9.6625,-17.878
13512,-9.0362,-20.275
13523,-11.883,-22.42
13535,-10.93,-21.01
13547,-12.195,-19.943
13559,-10.544,-19.052
13570,-9.6726,-20.672
13582,-11.865,-20.791
13594,-9.1913,-22.208
13605,-11.994,-22.919
13617,-9.8341,-22.231
13629,-12.53,-21.938
13641,-14.09,-19.422
13652,-11.765,-19.584
13664,-9.7558,-21.088
13676,-9.9131,-21.309
13688,-12.391,-21.335
13699,-13.471,-20.675
13711,-11.722,-19.777
13723,-11.496,-18.224
13734,-10.432,-16.869
13746,-9.9921,-17.236
13758,-10.803,-19.179
13770,-14.443,-22.334
13781,-13.924,-20.919
13793,-12.02,-19.209
13805,-8.2682,-23.596
13816,-8.9577,-20.205
13828,-8.5623,-17.645
13840,-8.1548,-19.969
13852,-12.891,-24.268
13863,-11.734,-21.689
13875,-13.48,-19.474
13887,-14.473,-21.077
13898,-10.949,-21.736
13910,-9.9994,-20.443
13922,-12.306,-21.624
13934,-13.552,-17.345
13945,-13.085,-18.89
13957,-10.719,-20.433
13969,-9.8616,-17.876
13980,-10.038,-18.503
13992,-10.358,-20.148
14004,-10.411,-20.111
14016,-10.577,-20.392
14027,-12.721,-21.671
14039,-9.9761,-22.421
14051,-11.302,-21.889
14063,-14.094,-19.501
14074,-14.649,-19.242
14086,-14.403,-19.435
14098,-9.3431,-20.334
14109,-10.385,-21.54
14121,-11.627,-21.648
14133,-10.169,-23.213
14145,-11.784,-23.401
14156,-15.649,-21.794
14168,-12.902,-21.311
14180,-13.52,-20.811
14191,-13.855,-19.948
14203,-10.314,-19.396
14215,-10.637,-21.173
14227,-13.872,-20.734
14238,-11.786,-22.304
14250,-12.588,-20.529
14262,-12.46,-19.86
14273,-10.905,-18.742
14285,-9.8471,-19.679
14297,-10.703,-19.391
14309,-12.19,-22.138
14320,-12.284,-22.9
14332,-14.86,-21.848
14344,-13.022,-21.308
14355,-12.619,-21.144
14367,-11.646,-20.616
14379,-9.4307,-18.723
14391,-11.98,-17.459
14402,-10.835,-18.36
14414,-11.45,-17.787
14426,-15.166,-20.362
14438,-13.791,-20.456
14449,-11.439,-18.022
14461,-11.355,-18.753
14473,-10.357,-19.522
14484,-9.4432,-22.428
14496,-7.8049,-21.301
14508,-10.417,-17.752
14520,-10.053,-22.549
14531,-11.051,-20.093
14543,-12.881,-20.045
14555,-12.285,-21.196
14566,-10.946,-20.668
14578,-9.9991,-20.093
14590,-11.632,-16.221
14602,-11.584,-18.79
14613,-12.373,-21.434
14625,-16.389,-22.653
14637,-13.794,-18.744
14648,-11.697,-20.275
14660,-11.377,-21.321
14672,-12.117,-19.831
14684,-11.6,-20.008
14695,-8.555,-19.932
14707,-9.494,-21.165
14719,-14.213,-20.756
14730,-10.058,-23.221
14742,-10.089,-21.952
14754,-13.039,-18.502
14766,-12.771,-19.597
14777,-14.403,-20.493
14789,-14.568,-21.485
14801,-15.708,-21.706
14813,-15.09,-20.843
14824,-14.832,-22.409
14836,-14.362,-19.86
14848,-12.712,-20.067
14859,-10.743,-21.512
14871,-13.099,-20.057
14883,-13.493,-21.413
14895,-12.842,-21.975
14906,-12.04,-20.15
14918,-11.49,-19.713
14930,-13.25,-17.247
14941,-12.881,-18.638
14953,-11.001,-16.565
14965,-10.769,-18.805
14977,-12.156,-21.578
14988,-14.537,-19.552
15000,-12.766,-16.963
15012,-12.539,-19.002
15023,-11.244,-21.081
15035,-11.604,-21.482
15047,-11.957,-21.736
15059,-10.941,-22.3
15070,-13.075,-22.428
15082,-12.654,-21.403
15094,-12.958,-20.871
15105,-10.028,-20.892
15117,-9.8795,-20.363
15129,-12.411,-20.923
15141,-13.089,-21.291
15152,-12.495,-21.675
15164,-10.831,-23.011
15176,-8.7967,-19.827
15188,-8.7257,-18.816
15199,-10.324,-21.022
15211,-11.019,-20.777
15223,-10.468,-20.986
15234,-11.657,-20.777
15246,-15.137,-20.484
15258,-15.272,-21.683
15270,-15.205,-21.655
15281,-13.318,-20.948
15293,-11.733,-20.099
15305,-12.956,-20.081
15316,-14.035,-19.4
15328,-12.854,-18.961
15340,-12.654,-17.428
15352,-11.943,-17.762
15363,-11.777,-19.404
15375,-14.964,-20.362
15387,-12.036,-20.518
15398,-13.174,-19.908
15410,-13.761,-20.635
15422,-10.119,-19.5
15434,-10.459,-20.297
15445,-11.611,-19.743
15457,-12.286,-18.894
15469,-14.838,-20.904
15480,-11.467,-23.54
15492,-10.666,-24.301
15504,-14.595,-20.898
15516,-12.892,-18.87
15527,-13.522,-18.959
15539,-13.833,-19.947
15551,-13.643,-20.695
15563,-12.109,-23.345
15574,-14.306,-22.366
15586,-14.03,-20.779
15598,-10.771,-18.177
15609,-9.7432,-17.321
15621,-11.02,-21.755
15633,-13.023,-23.401
15645,-11.57,-21.535
15656,-10.643,-21.285
15668,-10.939,-19.905
15680,-11.313,-19.527
15691,-14.551,-22.236
15703,-14.008,-21.478
15715,-16.908,-21.745
15727,-13.261,-24.406
15738,-12.823,-22.327
15750,-11.893,-20.236
15762,-14.943,-19.309
15773,-14.861,-19.902
15785,-13.386,-19.042
15797,-15.461,-20.542
15809,-14.241,-22.498
15820,-12.888,-23.653
15832,-14.172,-24.242
15844,-14.747,-20.86
15855,-11.941,-17.601
15867,-14.054,-18.659
15879,-11.833,-19.512
15891,-10.916,-21.62
15902,-13.058,-18.722
15914,-13.009,-20.861
15926,-12.621,-23.238
15938,-12.943,-21.192
15949,-11.557,-17.814
15961,-11.758,-20.304
15973,-15.325,-20.984
15984,-16.716,-21.23
15996,-13.858,-16.293
16008,-14.734,-18.232
16020,-12.467,-20.098
16031,-13.164,-18.696
16043,-13.389,-21.247
16055,-14.222,-20.108
16066,-16.941,-17.301
16078,-13.232,-19.185
16090,-11.198,-21.023
16102,-13.356,-19.349
16113,-15.985,-20.836
16125,-13.37,-21.297
16137,-13.4,-21.518
16148,-15.346,-20.681
16160,-13.412,-18.247
16172,-10.144,-17.396
16184,-9.2675,-19.413
16195,-9.8397,-21.811
16207,-11.066,-21.524
16219,-11.036,-21.577
16230,-11.738,-19.892
16242,-9.4479,-19.238
16254,-9.4966,-18.582
16266,-13.46,-19.962
16277,-13.87,-20.791
16289,-15.399,-21.246
16301,-13.768,-20.426
16313,-14.542,-20.809
16324,-14.439,-20.753
16336,-13.878,-20.728
16348,-14.58,-19.441
16359,-12.972,-19.073
16371,-12.598,-19.567
16383,-13.414,-18.451
16395,-12.941,-20.431
16406,-13.052,-20.487
16418,-12.127,-23.444
16430,-11.461,-22.936
16441,-13.461,-21.052
16453,-14.637,-17.164
16465,-14.197,-18.683
16477,-11.81,-19.379
16488,-9.333,-19.542
16500,-12.534,-18.022
16512,-13.933,-17.885
16523,-15.899,-20.767
16535,-15.665,-20.43
16547,-13.5,-19.036
16559,-14.948,-18.289
16570,-13.513,-20.877
16582,-11.884,-21.879
16594,-12.535,-21.493
16605,-13.849,-19.261
16617,-13.793,-20.728
16629,-13.37,-20.681
16641,-14.461,-17.605
16652,-12.594,-18.077
16664,-12.942,-21.262
16676,-10.507,-19.806
16688,-10.779,-17.332
16699,-15.625,-19.447
16711,-12.611,-21.584
16723,-10.801,-19.613
16734,-13.433,-16.514
16746,-11.569,-17.364
16758,-12.154,-19.989
16770,-11.662,-20.142
16781,-11.181,-22.957
16793,-11.145,-18.232
16805,-12.357,-19.177
16816,-14.548,-19.619
16828,-13.463,-20.102
16840,-13.953,-21.855
16852,-13.071,-20.995
16863,-12.172,-21.647
16875,-13.678,-22.9
16887,-18.671,-21.62
16898,-17.214,-18.769
16910,-12.903,-19.095
16922,-11.7,-20.071
16934,-12.169,-20.406
16945,-14.214,-19.124
16957,-14.2,-20.335
16969,-12.852,-23.085
16980,-14.575,-21.004
16992,-18.192,-19.054
17004,-17.282,-18.114
17016,-14.889,-18.571
17027,-14.561,-16.331
17039,-14.456,-18.574
17051,-13.163,-21.054
17063,-12.763,-22.963
17074,-13.099,-21.974
17086,-13.806,-20.381
17098,-15.101,-19.935
17109,-15.45,-17.997
17121,-12.53,-14.126
17133,-11.474,-17.004
17145,-14.236,-20.802
17156,-14.155,-21.038
17168,-13.587,-18.775
17180,-13.631,-18.07
17191,-10.574,-19.305
17203,-10.707,-17.031
17215,-10.129,-17.962
17227,-12.545,-17.618
17238,-15.458,-17.952
17250,-13.441,-20.475
17262,-13.651,-17.699
17273,-12.193,-16.36
17285,-11.68,-17.851
17297,-14.066,-19.43
17309,-15.476,-18.55
17320,-14.816,-18.083
17332,-12.217,-19.635
17344,-13.96,-18.434
17355,-16.656,-18.448
17367,-14.22,-19.937
17379,-12.907,-20.69
17391,-13.648,-21.373
17402,-13.998,-20.382
17414,-14.124,-20.673
17426,-15.75,-20.468
17438,-16.125,-24.022
17449,-15.998,-20.544
17461,-15.928,-16.337
17473,-13.397,-17.457
17484,-10.843,-19.766
17496,-9.4652,-20.215
17508,-12.39,-17.965
17520,-12.146,-21.03
17531,-14.408,-19.142
17543,-16.283,-17.875
17555,-14.852,-17.36
17566,-13.018,-17.074
17578,-11.693,-21.962
17590,-16.162,-23.679
17602,-18.588,-20.885
17613,-16.457,-18.071
17625,-14.785,-19.595
17637,-10.911,-17.503
17648,-12.479,-17.691
17660,-11.216,-19.688
17672,-11.76,-18.269
17684,-14.3,-19.103
17695,-17.434,-19.686
17707,-16.154,-21.934
17719,-14.491,-20.554
17730,-10.939,-17.883
17742,-10.865,-17.517
17754,-13.409,-17.282
17766,-16.81,-17.149
17777,-15.737,-22.692
17789,-14.215,-20.37
17801,-13.789,-19.583
17813,-17.311,-19.292
17824,-17.98,-16.674
17836,-12.885,-14.571
17848,-12.264,-16.356
17859,-16.025,-21.16
17871,-17.425,-25.026
17883,-13.472,-19.586
17895,-13.717,-16.659
17906,-16.415,-16.701
17918,-17.25,-17.946
17930,-18.833,-20.7
17941,-18.406,-20.101
17953,-13.353,-21.558
17965,-14.844,-20.317
17977,-18.652,-19.987
17988,-13.494,-19.167
18000,-12.762,-19.448
18012,-13.759,-21.993
18023,-14.136,-21.7
18035,-14.767,-22.951
18047,-14.268,-24.37
18059,-12.258,-20.293
18070,-12.687,-21.645
18082,-11.991,-20.878
18094,-12.8,-21.189
18105,-13.698,-21.225
18117,-14.638,-22.327
18129,-12.933,-22.479
18141,-15.086,-21.171
18152,-14.213,-19.235
18164,-12.251,-21.287
18176,-15.129,-22.162
18188,-17.337,-18.741
18199,-13.998,-20.145
18211,-13.527,-25.333
18223,-15.448,-22.654
18234,-14.118,-20.889
18246,-13.698,-22.901
18258,-16.248,-19.982
18270,-17.027,-17.513
18281,-16.183,-22.91
18293,-19.833,-19.395
18305,-18.644,-18.389
18316,-16.302,-19.063
18328,-14.948,-19.139
18340,-15.363,-21.102
18352,-13.812,-21.502
18363,-12.893,-21.686
18375,-13.336,-22.004
18387,-15.643,-22.735
18398,-15.554,-23.114
18410,-16.518,-19.564
18422,-18.386,-19.067
18434,-15.529,-20.325
18445,-18.154,-22.853
18457,-16.955,-20.533
18469,-12.789,-20.123
18480,-15.617,-21.18
18492,-17.043,-21.425
18504,-15.628,-20.884
18516,-15.001,-20.262
18527,-15.349,-20.314
18539,-14.739,-18.667
18551,-15.166,-20.02
18563,-16.883,-23.178
18574,-14.049,-25.072
18586,-14.04,-25.034
18598,-14.083,-25.651
18609,-16.425,-21.537
18621,-14.716,-19.419
18633,-13.973,-21.781
18645,-14.463,-19.184
18656,-15.721,-18.072
18668,-15.696,-19.515
18680,-14.599,-19.904
18691,-13.576,-20.948
18703,-14.68,-19.302
18715,-17.251,-18.276
18727,-16.99,-21.44
18738,-14.784,-23.19
18750,-13.84,-21.779
18762,-14.314,-20.169
18773,-16.657,-21.808
18785,-15.316,-19.863
18797,-13.037,-17.922
18809,-14.205,-19.129
18820,-14.715,-21.589
18832,-14.635,-25.351
18844,-14.829,-23.784
18855,-18.345,-23.649
18867,-14.711,-21.918
18879,-15.198,-20.234
18891,-15.537,-21
18902,-13.912,-19.76
18914,-15.86,-18.27
18926,-16.208,-16.86
18938,-16.653,-17.378
18949,-14.562,-22.016
18961,-14.586,-18.561
18973,-16.079,-19.97
18984,-17.384,-19.795
18996,-14.504,-19.456
19008,-13.372,-20.365
19020,-16.898,-21.785
19031,-17.004,-20.457
19043,-16.454,-20.758
19055,-15.553,-17.689
19066,-17.235,-19.944
19078,-19.764,-19.094
19090,-18.225,-16.998
19102,-13.891,-17.262
19113,-14.859,-17.374
19125,-15.52,-18.273
19137,-15.625,-20.521
19148,-17.628,-20.156
19160,-17.232,-17.615
19172,-17.791,-17.786
19184,-17.73,-19.946
19195,-18.351,-20.551
19207,-19.236,-20.1
19219,-19.081,-18.372
19230,-16.591,-19.323
19242,-17.911,-21.17
19254,-13.96,-20.961
19266,-12.768,-20.454
19277,-15,-20.286
19289,-16.931,-20.063
19301,-14.007,-20.344
19313,-13.68,-22.266
19324,-14.781,-20.657
19336,-16.383,-21.421
19348,-16.271,-21.532
19359,-16.203,-22.171
19371,-18.625,-26.212
19383,-15.761,-25.34
19395,-14.684,-23.287
19406,-19.502,-20.418
19418,-12.543,-20.689
19430,-11.942,-20.614
19441,-11.422,-19.346
19453,-13.618,-20.019
19465,-17.074,-23.089
19477,-16.717,-20.388
19488,-16.437,-22.382
19500,-17.364,-22.967
19512,-15.922,-21.598
19523,-15.468,-21.324
19535,-17.74,-17.319
19547,-13.005,-17.519
19559,-16.2,-18.38
19570,-16.757,-18.128
19582,-14.671,-19.479
19594,-14.69,-20.878
19605,-15.557,-19.297
19617,-14.833,-17.431
19629,-15.918,-21.698
19641,-17.856,-23.002
19652,-16.624,-22.498
19664,-14.825,-20.523
19676,-16.963,-19.68
19688,-17.278,-20.718
19699,-15.336,-19.953
19711,-16.597,-22.755
19723,-15.191,-22.934
19734,-14.247,-22.943
19746,-15.791,-21.479
19758,-16.546,-18.847
19770,-16.527,-21.171
19781,-17.516,-23.417
19793,-16.648,-21.901
19805,-15.437,-21.345
19816,-13.655,-20.615
19828,-14.368,-19.283
19840,-19.225,-19.904
19852,-17.281,-23.748
19863,-15.425,-23.231
19875,-19.855,-20.165
19887,-15.772,-17.773
19898,-14.201,-18.081
19910,-14.104,-19.976
19922,-13.547,-22.436
19934,-13.43,-22.844
19945,-15.431,-22.166
19957,-17.418,-22.266
19969,-16.353,-21.046
19980,-18.452,-18.439
19992,-16.045,-18.166
20004,-15.755,-17.856
20016,-16.248,-19.092
20027,-15.57,-16.26
20039,-16.012,-17.838
20051,-16.025,-19.545
20063,-16.982,-21.116
20074,-16.614,-19.873
20086,-15.977,-21.365
20098,-16.5,-20.655
20109,-15.642,-18.778
20121,-11.859,-21.03
20133,-12.582,-17.539
20145,-16.705,-15.934
20156,-18.265,-16.972
20168,-15.618,-20.1
20180,-13.471,-22.281
20191,-14.476,-22.018
20203,-17.645,-20.957
20215,-17.004,-17.785
20227,-15.561,-16.897
20238,-15.252,-17.47
20250,-15.601,-17.353
20262,-15.009,-19.175
20273,-14.747,-22.275
20285,-15.989,-20.184
20297,-20.403,-18.955
20309,-15.454,-18.939
20320,-15.434,-19.275
20332,-15.677,-20.172
20344,-17.104,-20.945
20355,-17.494,-19.699
20367,-17.176,-19.685
20379,-16.155,-21.468
20391,-15.451,-18.979
20402,-15.754,-18.487
20414,-16.746,-18.617
20426,-16.865,-19.184
20438,-16.195,-21.241
20449,-16.324,-19.446
20461,-15.68,-22.484
20473,-15.383,-21.215
20484,-15.258,-18.404
20496,-16.254,-18.536
20508,-15.727,-20.891
20520,-16.145,-22.178
20531,-15.876,-20.499
20543,-13.591,-21.701
20555,-12.508,-22.693
20566,-16.963,-20.824
20578,-14.576,-18.171
20590,-17.224,-20.127
20602,-19.563,-19.822
20613,-16.978,-20.331
20625,-20.175,-18.093
20637,-17.186,-16.062
20648,-14.571,-18.819
20660,-14.315,-17.842
20672,-16.079,-14.909
20684,-16.087,-16.661
20695,-14.838,-18.236
20707,-12.823,-21.811
20719,-13.445,-21.563
20730,-17.39,-23.882
20742,-14.823,-20.861
20754,-16.351,-18.717
20766,-16.81,-19.147
20777,-17.226,-20.286
20789,-16.226,-19.489
20801,-14.882,-19.168
20813,-16.324,-18.928
20824,-16.452,-19.305
20836,-16.872,-21.126
20848,-16.389,-19.642
20859,-13.959,-20.482
20871,-12.85,-22.03
20883,-16.108,-17.082
20895,-18.862,-17.703
20906,-18.829,-18.048
20918,-15.503,-16.866
20930,-15.279,-19.588
20941,-14.482,-20.093
20953,-16.139,-20.677
20965,-17.857,-20.982
20977,-18.055,-21.674
20988,-17.781,-18.269
21000,-17.306,-16.26
21012,-14.81,-19.342
21023,-13.606,-19.608
21035,-14.676,-21.03
21047,-17.456,-18.023
21059,-14.215,-19.756
21070,-14.783,-21.432
21082,-16.6,-21.558
21094,-16.804,-20.275
21105,-14.16,-19.096
21117,-15.012,-19.123
21129,-15.49,-17.021
21141,-19.23,-16.332
21152,-18.872,-16.328
21164,-20.906,-19.096
21176,-18.123,-18.995
21188,-17.599,-19.011
21199,-18.66,-18.494
21211,-18.537,-17.457
21223,-15.694,-18.399
21234,-13.667,-21.869
21246,-15.509,-20.616
21258,-18.136,-20.882
21270,-19.92,-21.386
21281,-19.201,-20.997
21293,-17.418,-18.518
21305,-16.229,-19.756
21316,-15.438,-20.196
21328,-16.451,-21.772
21340,-15.349,-23.326
21352,-18.835,-20.433
21363,-18.215,-18.906
21375,-17.303,-20.65
21387,-20.479,-21.14
21398,-19.23,-19.781
21410,-15.936,-21.723
21422,-15.297,-21.044
21434,-15.798,-21.153
21445,-16.044,-23.403
21457,-15.045,-19.972
21469,-12.956,-21.485
21480,-14.141,-24.385
21492,-17.227,-20.936
21504,-15.924,-22.013
21516,-17.322,-21.784
21527,-17.221,-19.825
21539,-16.525,-17.647
21551,-16.714,-18.807
21563,-16.906,-25.969
21574,-16.318,-23.515
21586,-14.52,-19.42
21598,-15.644,-20.994
21609,-17.891,-21.348
21621,-17.773,-21.37
21633,-16.567,-21.353
21645,-14.814,-19.506
21656,-16.707,-17.905
21668,-15.686,-21.459
21680,-14.439,-18.922
21691,-15.662,-17.676
21703,-17.517,-21.266
21715,-16.348,-22.076
21727,-15.824,-22.149
21738,-14.597,-21.135
21750,-14.86,-20.43
21762,-15.155,-21.656
21773,-16.329,-19.941
21785,-16.377,-19.202
21797,-17.485,-18.75
21809,-15.77,-18.463
21820,-13.895,-18.38
21832,-16.458,-18.035
21844,-19.829,-18.682
21855,-14.015,-20.238
21867,-12.635,-20.853
21879,-15.609,-23.449
21891,-19.039,-23.672
21902,-19.695,-23.292
21914,-18.81,-19.536
21926,-17.423,-20.039
21938,-16.997,-22.392
21949,-16.067,-24.384
21961,-14.379,-20.829
21973,-16.477,-19.497
21984,-19.818,-19.472
21996,-19.452,-17.2
22008,-16.069,-16.407
22020,-16.018,-16.456
22031,-17.928,-18.781
22043,-17.214,-18.407
22055,-19.141,-19.458
22066,-15.239,-21.111
22078,-15.319,-22.006
22090,-13.851,-23.941
22102,-13.271,-20.608
22113,-17.897,-21.906
22125,-20.775,-21.553
22137,-18.032,-20.074
22148,-17.362,-20.87
22160,-16.17,-21.275
22172,-16.523,-19.012
22184,-17.139,-18.585
22195,-16.076,-21.934
22207,-14.545,-19.71
22219,-16.155,-18.341
22230,-17.597,-20.17
22242,-14.836,-21.095
22254,-13.82,-20.067
22266,-15.236,-22.884
22277,-14.238,-20.143
22289,-16.01,-20.758
22301,-17.578,-20.495
22313,-19.068,-18.363
22324,-17.334,-20.004
22336,-12.531,-22.274
22348,-11.507,-23.15
22359,-16.439,-19.689
22371,-17.247,-20.823
22383,-16.232,-20.727
22395,-16.973,-20.27
22406,-17.771,-21.589
22418,-17.748,-18.338
22430,-15.676,-18.233
22441,-15.474,-18.437
22453,-16.939,-20.94
22465,-15.081,-22.564
22477,-18.333,-19.915
22488,-19.091,-19.095
22500,-19.072,-19.568
22512,-18.185,-21.24
22523,-14.125,-20.455
22535,-14.731,-18.267
22547,-16.487,-20.595
22559,-16.439,-17.412
22570,-14.403,-17.316
22582,-15.683,-23.388
22594,-13.884,-22.798
22605,-15.73,-22.353
22617,-17.854,-20.997
22629,-15.425,-23.161
22641,-17.982,-23.362
22652,-17.426,-23.262
22664,-17.309,-22.096
22676,-18.961,-21.032
22688,-17.844,-18.681
22699,-14.389,-20.19
22711,-15.322,-21.404
22723,-18.296,-20.452
22734,-20.719,-18.989
22746,-18.469,-22.006
22758,-15.006,-22.188
22770,-15.357,-17.946
22781,-15.974,-19.17
22793,-16.231,-21.086
22805,-17.262,-19.916
22816,-17.28,-18.694
22828,-17.155,-19.459
22840,-17.297,-22.51
22852,-19.676,-21.659
22863,-18.285,-19.518
22875,-12.356,-19.48
22887,-13.733,-20.912
22898,-18.214,-20.89
22910,-18.617,-20.642
22922,-17.033,-20.84
22934,-17.325,-23.842
22945,-16.61,-22.724
22957,-18.812,-20.736
22969,-22.374,-22.757
22980,-18.713,-19.697
22992,-18.412,-18.713
23004,-17.628,-16.791
23016,-16.621,-15.405
23027,-16.038,-16.396
23039,-14.901,-17.87
23051,-17.122,-18.129
23063,-19.4,-21.159
23074,-18.494,-20.232
23086,-16.051,-18.487
23098,-17.079,-20.422
23109,-16.571,-21.796
23121,-17.944,-22.276
23133,-22.036,-21.362
23145,-17.867,-22.421
23156,-18.973,-22.232
23168,-18.088,-21.255
23180,-20.609,-23.458
23191,-18.899,-21.872
23203,-16.999,-21.074
23215,-18.757,-23.02
23227,-17.388,-21.081
23238,-17.092,-19.687
23250,-18.325,-19.077
23262,-18.298,-20.246
23273,-20.337,-20.249
23285,-20.138,-19.601
23297,-18.75,-18.694
23309,-16.105,-22.095
23320,-15.251,-21.929
23332,-16.824,-21.355
23344,-16.18,-18.325
23355,-16.542,-17.756
23367,-16.634,-18.541
23379,-17.069,-20.975
23391,-19.437,-19.566
23402,-21.101,-19.833
23414,-18.939,-20.227
23426,-18.812,-17.41
23438,-14.958,-17.89
23449,-14.484,-21.601
23461,-15.609,-21.708
23473,-19.638,-22.081
23484,-19.316,-21.077
23496,-18.384,-20.445
23508,-19.461,-19.995
23520,-17.14,-17.279
23531,-16.733,-19.317
23543,-20.091,-23.21
23555,-20.953,-19.619
23566,-19.794,-17.71
23578,-18.526,-17.576
23590,-16.342,-18.754
23602,-17.844,-22.349
23613,-18.976,-21.087
23625,-17.579,-19
23637,-18.018,-21.248
23648,-19.997,-24.016
23660,-21.2,-24.12
23672,-20.732,-22.82
23684,-16.924,-22.225
23695,-16.03,-22.415
23707,-14.878,-21.741
23719,-14.796,-21.991
23730,-15.172,-22.081
23742,-17.369,-20.816
23754,-17.161,-22.286
23766,-16.66,-21.695
23777,-18.343,-23.771
23789,-23.368,-22.27
23801,-19.827,-21.434
23813,-20.124,-21.802
23824,-18.434,-19.277
23836,-19.025,-20.327
23848,-15.968,-21.323
23859,-16.33,-19.975
23871,-15.984,-20.613
23883,-14.939,-19.065
23895,-18.797,-16.596
23906,-22.168,-16.575
23918,-21.508,-16.19
23930,-20.11,-17.869
23941,-19.004,-21.808
23953,-16.907,-17.006
23965,-16.493,-17.851
23977,-20.302,-21.1
23988,-18.204,-15.586
