FFT,Power Spectrum
Frequency[Hz],Level-L[dB],Level-R[dB]
11.719,-3.9894,-63.138
23.438,15.975,-55.011
35.156,12.997,-40.334
46.875,11.778,-27.209
58.594,15.188,-26.088
70.313,16.683,-30.168
82.031,15.032,-28.822
93.75,17.99,-27.124
105.47,15.179,-23.553
117.19,17.421,-22.718
128.91,24.073,-16.869
140.63,24.716,-13.876
152.34,18.739,-12.812
164.06,22.418,-13.465
175.78,22.911,-15.517
187.5,19.472,-16.48
199.22,21.425,-14.209
210.94,16.899,-17.131
222.66,17.936,-20.498
234.38,21.42,-16.84
246.09,17.914,-13.088
257.81,14.791,-14.538
269.53,14.923,-15.719
281.25,14.372,-15.389
292.97,15.106,-15.858
304.69,15.911,-12.678
316.41,17.828,-13.91
328.13,16.769,-15.106
339.84,18.007,-13.589
351.56,17.91,-13.108
363.28,12.92,-14.193
375,13.629,-14.195
386.72,17.146,-11.901
398.44,18.927,-14.731
410.16,18.829,-10.714
421.88,19.115,-11.603
433.59,16.441,-9.1612
445.31,15.782,-9.0518
457.03,15.823,-11.953
468.75,15.282,-10.315
480.47,17.593,-11.534
492.19,18.212,-15.192
503.91,16.15,-12.935
515.63,17.242,-11.551
527.34,18.57,-12.91
539.06,15.906,-13.31
550.78,19.322,-11.682
562.5,21.011,-11.456
574.22,21.649,-11.713
585.94,22.355,-10.802
597.66,22.18,-9.4651
609.38,18.751,-10.057
621.09,21.708,-12.226
632.81,20.099,-12.686
644.53,19.073,-10.762
656.25,17.113,-11.212
667.97,17.544,-12.549
679.69,18.776,-13.155
691.41,20.153,-10.537
703.13,21.092,-7.6816
714.84,19.102,-9.2109
726.56,21.134,-9.9707
738.28,18.984,-9.5701
750,15.672,-12.558
761.72,15.751,-9.4883
773.44,14.772,-8.9216
785.16,16.74,-9.1031
796.88,16.424,-10.717
808.59,14.195,-7.7546
820.31,16.313,-9.3857
832.03,14.702,-10.778
843.75,15.442,-8.4863
855.47,15.894,-9.0982
867.19,16.99,-7.7337
878.91,18.759,-7.6917
890.63,18.314,-11.825
902.34,18.153,-7.2403
914.06,18.752,-9.6469
925.78,18.031,-9.9089
937.5,16.507,-9.5524
949.22,13.681,-5.8506
960.94,12.501,-4.1976
972.66,12.924,-5.7451
984.38,16.452,-5.7474
996.09,18.007,-9.2979
1007.8,14.872,-9.5168
1019.5,14.047,-8.1385
1031.3,16.55,-7.0165
1043,17.733,-6.2043
1054.7,18.676,-8.1479
1066.4,17.288,-8.8392
1078.1,15.608,-8.5095
1089.8,14.769,-10.741
1101.6,17.575,-7.8372
1113.3,20.27,-6.6343
1125,19.196,-5.1144
1136.7,15.707,-7.6523
1148.4,14.557,-10.405
1160.2,15.368,-8.659
1171.9,18.647,-7.7764
1183.6,17.344,-8.7138
1195.3,14.284,-7.5848
1207,19.415,-4.3727
1218.8,16.978,-9.5826
1230.5,17.251,-9.1758
1242.2,15.953,-9.3362
1253.9,15.368,-7.1526
1265.6,14.526,-6.1931
1277.3,15.545,-5.9995
1289.1,14.843,-6.3316
1300.8,16.131,-8.9491
1312.5,15.697,-10.223
1324.2,17.088,-6.435
1335.9,15.029,-3.9993
1347.7,16.327,-4.5336
1359.4,16.634,-6.715
1371.1,16.599,-7.721
1382.8,15.606,-7.4767
1394.5,15.638,-8.2258
1406.3,13.715,-10.493
1418,13.633,-12.117
1429.7,15.049,-10.932
1441.4,16.245,-7.2728
1453.1,14.953,-7.0906
1464.8,12.782,-11.202
1476.6,14.725,-9.9192
1488.3,15.706,-8.8301
1500,16.592,-7.0997
1511.7,17.681,-8.1931
1523.4,17.214,-8.9857
1535.2,15.899,-6.4256
1546.9,16.111,-3.4645
1558.6,16.877,-2.3221
1570.3,15.625,-4.6988
1582,15.522,-7.8078
1593.8,14.867,-6.0647
1605.5,15.6,-6.6197
1617.2,17.398,-9.151
1628.9,15.854,-8.7721
1640.6,11.946,-7.4307
1652.3,13.324,-6.4022
1664.1,13.745,-4.5102
1675.8,15.699,-2.3177
1687.5,19.324,-5.4446
1699.2,17.17,-5.939
1710.9,10.909,-6.754
1722.7,15.166,-7.0202
1734.4,13.494,-8.0613
1746.1,14.285,-7.1676
1757.8,17.613,-7.5593
1769.5,16.272,-7.1677
1781.3,16.415,-7.0908
1793,14.782,-5.949
1804.7,11.986,-8.326
1816.4,13.748,-9.6774
1828.1,12.843,-8.1328
1839.8,14.8,-8.5416
1851.6,14.061,-8.5827
1863.3,14.742,-11.138
1875,15.371,-11.896
1886.7,14.263,-9.9747
1898.4,14.69,-7.6561
1910.2,13.054,-9.3063
1921.9,9.9205,-12.349
1933.6,11.045,-6.1017
1945.3,13.32,-6.2989
1957,14.712,-9.2971
1968.8,15.892,-4.8884
1980.5,14.69,-6.8571
1992.2,13.651,-8.2816
2003.9,11.015,-4.9647
2015.6,12.405,-5.7973
2027.3,15.072,-5.1416
2039.1,14.318,-4.6147
2050.8,12.6,-7.3312
2062.5,11.77,-8.9503
2074.2,11.777,-9.5764
2085.9,11.074,-8.7202
2097.7,11.298,-8.5205
2109.4,14.024,-5.9991
2121.1,13.692,-2.9222
2132.8,12.108,-5.535
2144.5,12.088,-5.7462
2156.3,13.213,-7.0171
2168,14.27,-7.6528
2179.7,15,-8.0001
2191.4,15.148,-5.0175
2203.1,14.231,-7.1043
2214.8,13.677,-6.3263
2226.6,14.071,-4.9911
2238.3,13.301,-10.804
2250,10.173,-4.9746
2261.7,13.367,-8.4602
2273.4,14.914,-5.0847
2285.2,12.512,-4.4759
2296.9,11.362,-9.8966
2308.6,9.9714,-9.1181
2320.3,10.117,-4.5712
2332,11.958,-2.3345
2343.8,12.26,-6.5567
2355.5,12.896,-6.6106
2367.2,15.117,-6.0606
2378.9,15.784,-6.5686
2390.6,16.576,-5.7266
2402.3,15.159,-5.4224
2414.1,11.325,-6.2059
2425.8,13.888,-4.8432
2437.5,15.304,-5.8217
2449.2,16.322,-7.4861
2460.9,13.715,-8.847
2472.7,9.5606,-6.8481
2484.4,10.738,-4.9489
2496.1,11.286,-7.807
2507.8,11.802,-10.24
2519.5,13.679,-7.3627
2531.3,12.485,-4.0548
2543,13.202,-7.0689
2554.7,11.017,-8.879
2566.4,9.7127,-6.7303
2578.1,9.8929,-5.1582
2589.8,10.915,-5.5322
2601.6,13.61,-6.1426
2613.3,8.8886,-7.6829
2625,7.9579,-8.2125
2636.7,10.937,-6.1052
2648.4,8.3434,-6.2751
2660.2,10.392,-6.9514
2671.9,13.162,-6.5428
2683.6,11.744,-6.1694
2695.3,10.118,-5.7316
2707,9.1833,-4.2331
2718.8,10.071,-6.5942
2730.5,7.6955,-5.7594
2742.2,7.9468,-5.0705
2753.9,9.4395,-6.161
2765.6,10.642,-3.3504
2777.3,8.6998,-4.7023
2789.1,9.6976,-9.2503
2800.8,9.7962,-5.9955
2812.5,9.7343,-5.1747
2824.2,13.179,-5.6046
2835.9,12.314,-5.4047
2847.7,10.382,-7.4257
2859.4,7.231,-11.576
2871.1,7.7633,-12.284
2882.8,9.6742,-9.4716
2894.5,11.103,-8.1325
2906.3,12.074,-9.1484
2918,9.6855,-8.6642
2929.7,10.667,-9.1787
2941.4,9.8684,-7.6441
2953.1,6.4041,-8.4574
2964.8,7.4214,-8.162
2976.6,8.0059,-7.9208
2988.3,9.7741,-9.149
3000,9.4801,-8.9853
3011.7,8.1722,-6.2346
3023.4,9.757,-3.9208
3035.2,9.618,-6.509
3046.9,11.603,-7.4756
3058.6,8.7024,-11.406
3070.3,7.9925,-5.5454
3082,10.112,-4.8137
3093.8,10.282,-6.5793
3105.5,9.8612,-6.606
3117.2,12.274,-6.1162
3128.9,9.9124,-5.7206
3140.6,10.484,-6.7451
3152.3,12.482,-9.9508
3164.1,12.687,-8.7798
3175.8,9.1975,-8.2001
3187.5,9.8439,-5.592
3199.2,11.068,-3.7885
3210.9,13.586,-5.8888
3222.7,13.361,-7.6874
3234.4,10.192,-5.9342
3246.1,10.313,-6.7876
3257.8,13.234,-8.3634
3269.5,12.75,-13.236
3281.3,13.66,-12.521
3293,11.643,-13.804
3304.7,10.245,-9.8389
3316.4,9.8596,-8.9325
3328.1,11.035,-10.797
3339.8,11.974,-9.6374
3351.6,9.0163,-9.4306
3363.3,10.106,-9.8251
3375,11.999,-6.461
3386.7,11.295,-6.6311
3398.4,9.5318,-9.6875
3410.2,8.9915,-7.4093
3421.9,8.549,-6.1877
3433.6,8.309,-9.351
3445.3,5.6043,-5.347
3457,8.0164,-4.861
3468.8,7.5203,-7.8708
3480.5,7.6625,-6.9485
3492.2,11.702,-5.0547
3503.9,11.194,-2.618
3515.6,8.1192,-3.557
3527.3,6.5149,-5.8174
3539.1,8.5455,-6.9128
3550.8,9.82,-8.9031
3562.5,7.5132,-9.1882
3574.2,9.5921,-11.891
3585.9,10.715,-10.46
3597.7,10.502,-9.2243
3609.4,6.5532,-9.7427
3621.1,9.5212,-9.0295
3632.8,6.1311,-8.2878
3644.5,9.0529,-7.8695
3656.3,12.103,-6.1728
3668,9.1204,-9.9134
3679.7,7.8124,-10.244
3691.4,7.1784,-9.9358
3703.1,8.9616,-5.8493
3714.8,8.2155,-6.0832
3726.6,8.9198,-7.477
3738.3,10.824,-6.3053
3750,9.7529,-6.2701
3761.7,8.8166,-7.2608
3773.4,8.5393,-6.722
3785.2,8.56,-6.2249
3796.9,8.4423,-7.3706
3808.6,8.7416,-7.3191
3820.3,9.3567,-8.0885
3832,10.132,-11.717
3843.8,8.8383,-6.6908
3855.5,9.6556,-6.6396
3867.2,9.6215,-6.7308
3878.9,8.3391,-9.4444
3890.6,8.1063,-7.6187
3902.3,8.7965,-7.6242
3914.1,10.148,-8.265
3925.8,10.869,-6.3875
3937.5,9.1046,-9.0082
3949.2,9.424,-8.6122
3960.9,12.252,-6.7911
3972.7,13.499,-4.85
3984.4,13.711,-8.02
3996.1,9.8166,-9.8204
4007.8,8.0528,-12.109
4019.5,8.727,-6.624
4031.3,9.4123,-4.9872
4043,11.629,-8.6569
4054.7,10.705,-7.0364
4066.4,9.8227,-6.4842
4078.1,9.3961,-9.1169
4089.8,8.7886,-8.6609
4101.6,8.1313,-7.0321
4113.3,6.3226,-8.0604
4125,9.156,-6.8338
4136.7,7.6995,-5.8571
4148.4,6.1448,-7.4938
4160.2,5.4001,-5.329
4171.9,7.0903,-6.3836
4183.6,6.4357,-7.8514
4195.3,6.536,-7.451
4207,9.7521,-9.4902
4218.8,11.148,-10.582
4230.5,7.3109,-10.3
4242.2,7.6333,-8.7958
4253.9,5.1993,-8.4074
4265.6,7.2749,-6.961
4277.3,9.223,-7.9011
4289.1,7.4683,-7.4181
4300.8,7.0105,-5.2309
4312.5,6.7897,-7.8095
4324.2,7.8008,-6.4553
4335.9,8.8449,-7.1039
4347.7,10.161,-7.0678
4359.4,9.0152,-8.6356
4371.1,7.2142,-7.2235
4382.8,7.4625,-7.9373
4394.5,7.2222,-5.9697
4406.3,5.3916,-7.1504
4418,5.118,-7.897
4429.7,8.9891,-5.7264
4441.4,9.737,-5.9322
4453.1,6.9572,-7.2553
4464.8,7.6948,-8.6513
4476.6,9.3894,-6.9397
4488.3,7.9877,-5.6031
4500,7.6806,-6.522
4511.7,7.063,-8.6705
4523.4,5.9739,-11.355
4535.2,4.2282,-8.3714
4546.9,10.582,-5.1438
4558.6,10.339,-7.3446
4570.3,8.7034,-6.9351
4582,11.067,-6.9491
4593.8,9.138,-8.1664
4605.5,5.5416,-6.0461
4617.2,9.3386,-6.8924
4628.9,9.6492,-8.2992
4640.6,11.863,-8.2719
4652.3,7.2235,-7.6557
4664.1,6.8055,-7.7248
4675.8,6.2907,-7.0309
4687.5,7.2258,-7.363
4699.2,9.3304,-8.8589
4710.9,8.8187,-7.5434
4722.7,7.4786,-8.5025
4734.4,9.9532,-8.8356
4746.1,10.456,-6.0399
4757.8,11.796,-8.2101
4769.5,9.9446,-6.8887
4781.3,4.1858,-7.844
4793,7.2431,-7.8451
4804.7,8.624,-7.0331
4816.4,8.5312,-4.8159
4828.1,8.9226,-4.3094
4839.8,6.7672,-8.1577
4851.6,5.0485,-7.8521
4863.3,6.4918,-7.3037
4875,7.031,-4.9222
4886.7,8.2444,-6.1677
4898.4,8.6486,-12.058
4910.2,8.5211,-9.1324
4921.9,8.6419,-8.0817
4933.6,6.8174,-7.839
4945.3,5.6695,-7.2402
4957,6.7996,-5.9318
4968.8,4.0902,-5.2692
4980.5,3.5472,-5.6316
4992.2,7.3582,-6.0212
5003.9,9.5074,-7.2829
5015.6,9.3695,-8.5087
5027.3,4.8702,-9.1054
5039.1,7.5278,-8.0852
5050.8,8.6607,-10.217
5062.5,7.203,-9.1118
5074.2,5.4745,-9.6552
5085.9,6.6159,-8.8104
5097.7,5.8654,-9.8619
5109.4,6.3188,-9.4111
5121.1,5.0248,-8.8935
5132.8,5.923,-9.2754
5144.5,4.2879,-8.7571
5156.3,4.0434,-9.8817
5168,6.7323,-11.05
5179.7,6.3707,-6.8091
5191.4,6.0727,-6.368
5203.1,6.3582,-7.6598
5214.8,8.4883,-5.463
5226.6,9.4825,-7.6738
5238.3,8.1717,-7.9527
5250,5.492,-5.9153
5261.7,4.3929,-7.1389
5273.4,7.2331,-7.376
5285.2,7.2602,-8.3664
5296.9,6.9636,-9.4157
5308.6,6.421,-8.811
5320.3,5.474,-6.9053
5332,4.8326,-4.6255
5343.8,5.2321,-9.1919
5355.5,5.9009,-11.756
5367.2,7.9941,-8.951
5378.9,6.7859,-8.9655
5390.6,9.066,-8.848
5402.3,8.1888,-7.3468
5414.1,7.9974,-9.2254
5425.8,7.7027,-12.805
5437.5,5.1035,-9.5789
5449.2,5.3231,-7.5778
5460.9,6.1252,-8.0127
5472.7,6.6966,-11.181
5484.4,6.4447,-8.3227
5496.1,6.1212,-6.8142
5507.8,13.108,-7.4962
5519.5,15.07,-4.7359
5531.3,9.096,-4.978
5543,6.7399,-7.629
5554.7,7.8008,-7.6009
5566.4,7.109,-5.9577
5578.1,6.7386,-7.4224
5589.8,3.4699,-7.5256
5601.6,4.038,-8.3586
5613.3,4.1848,-8.0107
5625,6.1517,-10.491
5636.7,4.2085,-7.9718
5648.4,2.6528,-6.2827
5660.2,6.5332,-8.371
5671.9,8.8682,-8.3866
5683.6,6.2961,-12.392
5695.3,7.4311,-9.7115
5707,6.4227,-6.8919
5718.8,5.9182,-6.9705
5730.5,4.1253,-11.587
5742.2,1.1738,-8.9785
5753.9,5.1005,-10.255
5765.6,3.1792,-9.2964
5777.3,2.5802,-7.7077
5789.1,3.9134,-8.7493
5800.8,5.7007,-7.6206
5812.5,3.7276,-9.5511
5824.2,4.5659,-9.6207
5835.9,4.2643,-7.5392
5847.7,3.5009,-9.3817
5859.4,4.8301,-10.212
5871.1,4.9115,-11.138
5882.8,3.7515,-12.364
5894.5,4.3404,-8.0191
5906.3,2.5742,-6.44
5918,3.1041,-11.229
5929.7,3.2858,-6.1901
5941.4,2.253,-5.2633
5953.1,4.943,-7.234
5964.8,7.3093,-7.6438
5976.6,7.4257,-6.8433
5988.3,5.1458,-7.9165
6000,3.322,-7.1248
6011.7,7.3873,-9.6087
6023.4,9.3888,-10.467
6035.2,7.5463,-9.9177
6046.9,7.4051,-12.26
6058.6,6.3767,-5.1438
6070.3,3.0374,-3.988
6082,1.1357,-6.9802
6093.8,3.4715,-10.62
6105.5,4.3762,-9.5343
6117.2,4.7999,-7.3055
6128.9,2.111,-8.6865
6140.6,4.0135,-11.176
6152.3,5.7035,-8.0442
6164.1,4.657,-8.0799
6175.8,5.4013,-8.3332
6187.5,5.0278,-9.5649
6199.2,3.2642,-9.7241
6210.9,2.3321,-9.6616
6222.7,0.46988,-7.8729
6234.4,4.0644,-9.3459
6246.1,4.4436,-8.5536
6257.8,6.0281,-8.4357
6269.5,6.1657,-8.1347
6281.3,5.4373,-9.9319
6293,4.9084,-12.235
6304.7,5.494,-9.5542
6316.4,7.2987,-8.8897
6328.1,7.6149,-9.8044
6339.8,9.1959,-10.638
6351.6,9.8345,-8.6293
6363.3,5.863,-7.0737
6375,3.4273,-6.9943
6386.7,3.5551,-10.156
6398.4,5.2101,-10.342
6410.2,6.5268,-7.1501
6421.9,5.951,-7.9084
6433.6,4.3777,-9.7659
6445.3,0.98894,-7.9619
6457,6.9451,-8.0453
6468.8,5.9897,-10.592
6480.5,2.7491,-8.5123
6492.2,1.1673,-8.5395
6503.9,4.9931,-9.6121
6515.6,4.4606,-9.5462
6527.3,4.8144,-6.3476
6539.1,4.1125,-6.7564
6550.8,7.1141,-9.6816
6562.5,6.6029,-10.739
6574.2,4.5757,-7.5979
6585.9,2.1243,-12.017
6597.7,2.0011,-9.1197
6609.4,3.5327,-9.7646
6621.1,4.7167,-7.0744
6632.8,6.9571,-10.04
6644.5,7.7541,-13.171
6656.3,5.3427,-10.347
6668,2.3977,-10.724
6679.7,3.3045,-10.461
6691.4,2.7873,-7.4857
6703.1,1.0028,-9.6801
6714.8,4.4519,-9.9438
6726.6,1.1882,-9.6294
6738.3,1.2152,-10.354
6750,5.6678,-8.614
6761.7,5.7622,-7.2472
6773.4,3.2919,-10.442
6785.2,4.9646,-7.4063
6796.9,1.7983,-8.1785
6808.6,5.0956,-7.6743
6820.3,4.5517,-5.0673
6832,1.8866,-5.2528
6843.8,4.5831,-9.0175
6855.5,6.7141,-7.1724
6867.2,3.2628,-10.759
6878.9,6.857,-7.5582
6890.6,7.6511,-8.2401
6902.3,2.2495,-6.1125
6914.1,2.7939,-7.5814
6925.8,7.6184,-8.2742
6937.5,6.8306,-8.9562
6949.2,6.57,-9.3111
6960.9,5.5861,-8.4977
6972.7,4.5034,-7.8875
6984.4,6.8253,-9.2145
6996.1,5.5101,-8.8372
7007.8,0.50559,-9.0362
7019.5,3.7859,-11.399
7031.3,4.6217,-11.101
7043,3.2217,-10.966
7054.7,2.6106,-12.434
7066.4,1.675,-12.23
7078.1,3.0947,-9.9972
7089.8,2.4925,-9.9192
7101.6,3.2356,-8.5973
7113.3,3.807,-7.4806
7125,5.2797,-8.319
7136.7,5.1108,-11.386
7148.4,1.9663,-11.879
7160.2,1.3284,-11.789
7171.9,3.6742,-11.482
7183.6,2.6663,-9.9762
7195.3,2.395,-11.048
7207,2.8286,-9.318
7218.8,3.9363,-8.7711
7230.5,3.7277,-10.324
7242.2,4.7545,-12.619
7253.9,4.8814,-9.9654
7265.6,1.2576,-7.1292
7277.3,3.1477,-8.5835
7289.1,5.702,-9.9518
7300.8,4.626,-9.1377
7312.5,1.5538,-8.8298
7324.2,2.3172,-7.9493
7335.9,2.9508,-7.3749
7347.7,3.403,-8.8276
7359.4,4.2445,-12.14
7371.1,4.4882,-9.9728
7382.8,4.3016,-9.7066
7394.5,5.6814,-11.052
7406.3,6.4794,-9.1772
7418,3.4014,-9.1114
7429.7,1.4206,-9.0262
7441.4,2.7856,-9.5624
7453.1,2.3141,-11.759
7464.8,1.0055,-7.0364
7476.6,2.1918,-5.9328
7488.3,2.0315,-10.343
7500,0.78432,-11.514
7511.7,2.295,-10.638
7523.4,4.8172,-8.965
7535.2,7.0832,-9.6504
7546.9,5.485,-8.6409
7558.6,3.8115,-5.9543
7570.3,4.7736,-8.9755
7582,6.1326,-8.9497
7593.8,3.9419,-8.2089
7605.5,-0.95819,-9.0688
7617.2,1.7163,-13.793
7628.9,1.8334,-11.419
7640.6,3.7515,-10.856
7652.3,1.5226,-11.117
7664.1,-0.23358,-8.336
7675.8,2.5264,-9.4181
7687.5,5.5015,-9.8069
7699.2,3.8482,-10.266
7710.9,-0.30881,-8.6131
7722.7,0.60243,-8.9047
7734.4,5.5444,-10.058
7746.1,6.8858,-8.5559
7757.8,3.8261,-10.118
7769.5,1.3725,-9.1125
7781.3,3.1324,-6.1279
7793,3.4799,-6.339
7804.7,3.5928,-6.9921
7816.4,5.179,-7.9276
7828.1,2.6252,-12.313
7839.8,2.7055,-11.396
7851.6,4.6656,-8.503
7863.3,4.711,-8.2685
7875,0.82671,-9.0605
7886.7,4.2424,-7.8211
7898.4,3.2032,-8.4578
7910.2,2.8454,-12.312
7921.9,1.4676,-10.742
7933.6,0.0025569,-11.873
7945.3,1.1985,-11.277
7957,0.41505,-7.9014
7968.8,3.945,-8.1039
7980.5,11.423,-8.9087
7992.2,28.745,-7.4862
8003.9,30.616,-7.3998
8015.6,19.382,-9.4728
8027.3,5.4223,-7.7836
8039.1,1.6579,-7.8332
8050.8,0.31634,-9.4399
8062.5,2.5433,-8.908
8074.2,3.5905,-13.621
8085.9,3.4217,-6.6194
8097.7,0.22807,-8.9943
8109.4,1.5136,-10.129
8121.1,2.5518,-10.804
8132.8,1.6703,-11.007
8144.5,-0.019208,-9.5537
8156.3,-0.90793,-9.0699
8168,-0.13679,-11.755
8179.7,-1.3972,-11.213
8191.4,-1.0808,-9.7643
8203.1,-1.0666,-8.8544
8214.8,0.49969,-10.334
8226.6,0.76924,-11.679
8238.3,0.98291,-10.36
8250,1.003,-10.449
8261.7,0.75678,-10.498
8273.4,0.46868,-10.918
8285.2,0.7146,-12.424
8296.9,1.0359,-9.6159
8308.6,0.68786,-9.0238
8320.3,2.978,-8.9265
8332,5.389,-8.3843
8343.8,3.2511,-8.1366
8355.5,-1.5486,-11.266
8367.2,0.91076,-13.871
8378.9,-1.4201,-13.932
8390.6,0.1042,-10.972
8402.3,1.4057,-8.6233
8414.1,-1.7331,-7.7491
8425.8,3.2612,-11.493
8437.5,2.5248,-10.302
8449.2,1.9328,-7.361
8460.9,-2.1076,-9.6533
8472.7,2.499,-9.1973
8484.4,2.2515,-11.512
8496.1,-1.1126,-11.916
8507.8,-0.99847,-9.2838
8519.5,0.38804,-9.5132
8531.3,0.9104,-8.7051
8543,0.36936,-9.8067
8554.7,1.817,-9.3738
8566.4,2.9889,-9.7852
8578.1,2.6139,-8.8607
8589.8,3.0642,-11.601
8601.6,2.039,-10.105
8613.3,0.94167,-10.939
8625,0.79162,-8.4067
8636.7,-2.0014,-8.8232
8648.4,-0.84921,-9.6965
8660.2,0.52258,-10.627
8671.9,2.7018,-11.418
8683.6,-0.0069374,-10.543
8695.3,-0.98636,-9.2431
8707,-0.89137,-9.1964
8718.8,3.1458,-10.847
8730.5,1.8241,-10.442
8742.2,2.2414,-10.853
8753.9,-2.1158,-11.595
8765.6,1.2868,-9.0751
8777.3,4.6052,-9.3432
8789.1,2.654,-9.5374
8800.8,2.6599,-10.237
8812.5,3.2338,-10.502
8824.2,2.9761,-9.6026
8835.9,2.522,-9.6573
8847.7,4.474,-9.5131
8859.4,3.9271,-7.5466
8871.1,2.2549,-10.333
8882.8,0.61098,-12.054
8894.5,0.82057,-7.838
8906.3,0.61858,-9.7353
8918,2.566,-13.578
8929.7,1.5801,-12.24
8941.4,0.24338,-11.005
8953.1,1.3685,-11.814
8964.8,-2.9848,-12.889
8976.6,-2.7011,-8.7245
8988.3,-0.07375,-8.3516
9000,1.539,-9.1519
9011.7,-0.15868,-11.407
9023.4,-0.31324,-11.234
9035.2,-2.1258,-10.377
9046.9,-0.54359,-11.87
9058.6,1.256,-12.369
9070.3,0.25837,-12.715
9082,0.058511,-13.55
9093.8,-1.7341,-13.582
9105.5,-1.6203,-13.866
9117.2,-0.865,-13.782
9128.9,0.68293,-11.361
9140.6,1.5572,-9.4766
9152.3,0.1843,-10.739
9164.1,0.33118,-12.481
9175.8,-1.452,-11.981
9187.5,-0.36545,-11.063
9199.2,-0.22774,-9.7899
9210.9,1.3193,-8.2635
9222.7,-0.25383,-8.3808
9234.4,0.33991,-7.0995
9246.1,1.6804,-10.33
9257.8,0.2125,-12.006
9269.5,3.0401,-9.7028
9281.3,4.1165,-10.403
9293,2.0459,-11.075
9304.7,2.09,-11.017
9316.4,0.2268,-12.584
9328.1,2.1292,-13.252
9339.8,2.3599,-10.903
9351.6,-0.92686,-10.217
9363.3,0.7638,-12.782
9375,0.69596,-13.57
9386.7,1.4975,-11.242
9398.4,1.1536,-10.804
9410.2,1.7361,-10.604
9421.9,-1.1468,-10.316
9433.6,-1.3788,-9.0427
9445.3,-2.3626,-9.9447
9457,-2.7127,-13.082
9468.8,0.11834,-13.845
9480.5,-0.84465,-14.08
9492.2,1.4634,-13.746
9503.9,0.4809,-14.473
9515.6,-1.4159,-12.306
9527.3,-1.5776,-11.719
9539.1,-2.1881,-13.392
9550.8,-0.54617,-14.838
9562.5,-0.41667,-13.399
9574.2,-1.4837,-13.901
9585.9,2.4822,-13.598
9597.7,0.53318,-11.159
9609.4,-0.87245,-9.3462
9621.1,-0.3831,-8.3797
9632.8,0.38692,-9.0113
9644.5,1.7889,-8.471
9656.3,4.9736,-9.1589
9668,1.3624,-10.295
9679.7,-4.4292,-10.156
9691.4,-1.3739,-11.181
9703.1,1.3096,-9.6356
9714.8,0.64039,-12.31
9726.6,-1.5002,-11.649
9738.3,-0.87043,-11.611
9750,0.39014,-12.521
9761.7,-0.63661,-10.578
9773.4,-0.77811,-9.9618
9785.2,-2.9974,-10.865
9796.9,-3.0197,-7.918
9808.6,-2.8423,-7.1444
9820.3,-0.9193,-9.1557
9832,-0.72839,-13.213
9843.8,-2.7705,-12.324
9855.5,-1.7218,-10.654
9867.2,-1.8214,-9.0692
9878.9,1.7224,-8.7024
9890.6,0.038363,-8.295
9902.3,-2.5295,-8.5055
9914.1,-2.0946,-8.4775
9925.8,-4.1385,-12.407
9937.5,-1.8731,-13.798
9949.2,0.35753,-12.043
9960.9,0.23923,-10.506
9972.7,-1.7126,-11.168
9984.4,-3.6027,-11.075
9996.1,-1.593,-10.839
10008,-0.34604,-10.42
10020,-2.6832,-9.2529
10031,-2.6915,-7.2955
10043,0.74195,-9.0486
10055,0.82078,-11.935
10066,-0.73679,-12.27
10078,1.2921,-11.932
10090,-2.7385,-13.801
10102,-2.5014,-15.205
10113,-5.3227,-13.768
10125,-4.8455,-13.331
10137,-0.46435,-11.554
10148,-0.6259,-11.899
10160,-1.9984,-13.763
10172,-3.2058,-12.612
10184,-1.8746,-12.514
10195,-1.1884,-12.428
10207,-2.1776,-12.484
10219,-5.3592,-12.496
10230,-2.9086,-10.991
10242,-3.1399,-10.251
10254,-0.67686,-8.4041
10266,-1.1599,-11.091
10277,0.38989,-12.876
10289,1.8355,-12.261
10301,0.19551,-11.689
10313,-0.23468,-9.7826
10324,-1.8205,-9.3601
10336,-4.499,-10.788
10348,-1.7582,-10.072
10359,-3.2835,-8.9212
10371,-2.7211,-8.5494
10383,-1.4208,-8.4489
10395,0.28442,-9.8845
10406,-2.2993,-12.322
10418,-3.2819,-10.59
10430,-3.4353,-12.882
10441,-2.5321,-11.502
10453,-3.0057,-12.412
10465,-0.11838,-9.9499
10477,3.5101,-12.776
10488,2.9877,-10.787
10500,0.76551,-9.733
10512,0.54181,-13.427
10523,-1.6644,-14.77
10535,-4.4489,-12.73
10547,-2.9832,-11.487
10559,-0.80906,-11.34
10570,1.1315,-11.493
10582,0.32395,-10.969
10594,2.592,-10.949
10605,3.01,-10.03
10617,0.50817,-11.47
10629,-0.73232,-11.774
10641,-1.1057,-10.655
10652,-1.7018,-10.1
10664,-0.84912,-9.2196
10676,0.22598,-7.4667
10688,-3.1675,-7.5749
10699,-1.8442,-11.003
10711,-1.6693,-12.382
10723,-0.43584,-15.777
10734,0.47116,-13.394
10746,-0.8445,-11.819
10758,-2.8792,-9.43
10770,-3.5332,-8.2313
10781,1.5628,-13.54
10793,0.34399,-14.642
10805,-1.8827,-12.965
10816,-0.57158,-11.599
10828,-0.46515,-9.5273
10840,-0.81461,-9.9331
10852,-0.035159,-8.4688
10863,0.43637,-12.009
10875,-3.1228,-10.484
10887,-2.0497,-8.7313
10898,-4.3585,-9.7278
10910,-2.5901,-12.641
10922,0.59754,-12.275
10934,-0.81819,-13.012
10945,-6.3475,-12.443
10957,-6.2724,-12.628
10969,-5.0338,-13.768
10980,-1.163,-11.169
10992,-0.84956,-7.9495
11004,-1.9976,-7.6853
11016,-1.1352,-12.733
11027,-0.64817,-13.116
11039,-2.07,-11.531
11051,-1.9974,-12.251
11063,-2.183,-13.536
11074,-1.537,-10.662
11086,-0.22022,-10.487
11098,-1.6099,-11.116
11109,-1.3489,-10.616
11121,-0.87549,-11.652
11133,0.18061,-12.426
11145,0.19001,-13.346
11156,-2.4494,-12.238
11168,-2.2696,-13.204
11180,-1.2505,-10.912
11191,-2.1973,-8.7351
11203,-3.7698,-8.116
11215,-3.1178,-11.228
11227,-2.4101,-11.44
11238,-1.5143,-9.6531
11250,-2.6335,-9.684
11262,-2.156,-10.649
11273,-5.9133,-11.743
11285,-2.6928,-12.383
11297,-0.35898,-10.269
11309,-0.83959,-13.131
11320,-4.7424,-9.7061
11332,-3.7687,-9.1841
11344,-1.6746,-11.371
11355,-1.8356,-15.088
11367,-2.2301,-17.569
11379,-2.3917,-14.819
11391,1.1387,-11.884
11402,0.7962,-9.7236
11414,-1.4928,-10.133
11426,-0.21594,-10.129
11438,-1.4293,-11.565
11449,-1.2444,-13.963
11461,-1.2523,-12.669
11473,-4.6606,-13.166
11484,-4.0343,-12.839
11496,-5.0447,-13.303
11508,-3.5735,-10.309
11520,-4.5468,-9.941
11531,-3.3685,-9.6224
11543,-1.6805,-12.567
11555,-1.93,-11.322
11566,-5.6935,-9.9552
11578,-3.1465,-12.549
11590,-2.2975,-14.915
11602,1.6442,-11.387
11613,-1.6172,-9.3226
11625,-2.5284,-10.165
11637,-3.015,-11.296
11648,-3.0893,-13.017
11660,-1.8823,-13.819
11672,-0.054847,-11.963
11684,-0.48712,-12.021
11695,-1.9467,-11.101
11707,-0.6766,-11.695
11719,-2.1262,-10.432
11730,0.7211,-11.628
11742,0.72162,-11.746
11754,0.19126,-11.675
11766,-0.098364,-14.375
11777,-0.59371,-13.499
11789,-2.3565,-12.311
11801,-3.8433,-13.859
11813,-5.3977,-13.994
11824,-5.0793,-14.607
11836,-4.5314,-13.334
11848,-4.8441,-13.619
11859,-2.1885,-13.524
11871,-4.0255,-10.913
11883,-2.8571,-10.697
11895,-1.5225,-12.457
11906,-1.3669,-9.8021
11918,-3.6257,-9.9655
11930,-1.5205,-9.4978
11941,-3.2634,-8.6998
11953,-0.86532,-9.9333
11965,-0.94269,-10.728
11977,-0.99595,-11.94
11988,-4.4109,-13.453
12000,-8.0108,-12.753
12012,-4.2032,-12.85
12023,0.40905,-14.342
12035,0.88722,-12.568
12047,-0.687,-11.271
12059,-4.1665,-11.726
12070,-3.4522,-13.108
12082,-2.8353,-14.118
12094,-4.5374,-12.588
12105,-2.559,-13.429
12117,-2.8772,-18.2
12129,-0.60751,-16.173
12141,1.8055,-13.476
12152,0.51813,-13.97
12164,-2.2507,-13.131
12176,-1.5814,-11.192
12188,-1.9881,-10.21
12199,-3.9999,-12.773
12211,-2.6704,-15.89
12223,-2.82,-13.187
12234,-2.7381,-12.801
12246,-1.5362,-12.536
12258,-4.6225,-15.301
12270,-1.4438,-13.23
12281,-1.9933,-13.274
12293,-5.3014,-11.906
12305,-3.5054,-11.021
12316,-1.7708,-14.556
12328,-4.5537,-13.299
12340,-4.5978,-9.6678
12352,-3.7577,-9.7325
12363,-2.9999,-14.456
12375,-5.6438,-15.545
12387,-4.2491,-14.409
12398,-4.5761,-15.436
12410,-3.4618,-13.833
12422,-3.6343,-14.056
12434,-4.3114,-15.923
12445,-3.0684,-15.839
12457,-3.7749,-15.061
12469,-6.1144,-11.6
12480,-5.369,-13.42
12492,-3.7034,-14.801
12504,-6.0945,-14.044
12516,-5.6584,-12.365
12527,-3.2969,-11.949
12539,-1.0988,-12.837
12551,-0.76383,-15.435
12563,-2.9537,-16.065
12574,-2.2874,-14.879
12586,-3.9705,-15.994
12598,-6.3382,-15.034
12609,-3.0532,-13.694
12621,-1.8243,-11.294
12633,-2.0791,-12.964
12645,-2.8339,-12.771
12656,-2.4008,-12.018
12668,-2.6903,-17.298
12680,-1.8734,-18.034
12691,-3.1303,-15.343
12703,-3.6464,-13.507
12715,-1.1193,-14.356
12727,-3.8854,-11.719
12738,-4.5441,-11.82
12750,-4.0533,-11.007
12762,-3.1943,-12.643
12773,-2.4069,-11.993
12785,-4.152,-13.243
12797,-5.3544,-11.032
12809,-4.7195,-13.078
12820,-4.9864,-14.146
12832,-5.4192,-13.951
12844,-3.8059,-11.057
12855,-3.3531,-12.782
12867,-2.5792,-12.967
12879,-2.4902,-14.316
12891,-2.0626,-12.068
12902,-1.6693,-10.408
12914,-4.0456,-13.178
12926,-5.7554,-12.363
12938,-6.2386,-13.216
12949,-5.9095,-13.382
12961,-1.9372,-11.969
12973,-1.2141,-10.682
12984,-5.4109,-13.144
12996,-6.0354,-11.494
13008,-3.8086,-11.05
13020,-1.3583,-12.375
13031,-4.6154,-12.767
13043,-8.9054,-12.808
13055,-8.0622,-13.112
13066,-6.4143,-15.769
13078,-3.2222,-11.766
13090,-4.8256,-13.863
13102,-1.4046,-12.711
13113,-2.0409,-9.5658
13125,-2.6192,-12.081
13137,-4.6315,-12.619
13148,-2.9299,-9.7487
13160,0.47594,-11.266
13172,-3.1401,-13.399
13184,-6.1291,-10.819
13195,-6.6963,-13.672
13207,-6.4474,-11.991
13219,-4.4053,-12.476
13230,-3.6944,-12.949
13242,-5.6121,-16.75
13254,-4.0096,-13.619
13266,-5.0402,-12.625
13277,-3.2232,-12.091
13289,-1.782,-12.373
13301,-1.8796,-15.953
13313,-2.5517,-13.033
13324,-3.9344,-12.095
13336,-3.0355,-11.982
13348,-3.2196,-10.552
13359,-5.124,-9.5207
13371,-4.9384,-11.477
13383,-2.2948,-15.322
13395,-4.0029,-13.632
13406,0.15296,-12.775
13418,-1.5322,-13.195
13430,-4.8158,-12.432
13441,-3.2476,-13.93
13453,-4.3975,-14.214
13465,-8.2455,-17.294
13477,-3.8054,-14.686
13488,-2.9664,-17.657
13500,-1.2418,-14.641
13512,0.30362,-12.386
13523,1.2939,-9.5945
13535,-0.89055,-10.494
13547,-2.028,-11.918
13559,-1.7469,-10.548
13570,-3.8224,-11.999
13582,-2.7483,-14.982
13594,-8.585,-11.008
13605,-2.1672,-12.472
13617,-2.8998,-14.163
13629,-4.4491,-14.904
13641,-4.2717,-13.324
13652,-5.0064,-13.832
13664,-1.8116,-14.526
13676,-5.7388,-12.956
13688,-5.4173,-13.986
13699,-5.1339,-15.092
13711,-4.0903,-16.47
13723,-5.1143,-12.977
13734,-4.4132,-13.522
13746,-2.4885,-15.718
13758,-5.2455,-14.755
13770,-5.6557,-12.897
13781,-7.4939,-13.686
13793,-0.60936,-11.409
13805,-1.5899,-11.323
13816,-5.9046,-12.002
13828,-4.0073,-14.202
13840,-1.6919,-15.356
13852,-1.4899,-14.453
13863,-2.0857,-15.126
13875,-3.1776,-13.64
13887,-5.2639,-12.578
13898,-4.5291,-13.478
13910,-2.6301,-14.524
13922,-4.5439,-15.081
13934,-7.1857,-14.405
13945,-3.5315,-15.389
13957,-4.8389,-13.495
13969,-6.2431,-14.527
13980,-6.442,-16.155
13992,-6.7211,-15.687
14004,-6.1874,-15.553
14016,-3.6947,-16.079
14027,-4.5579,-16.556
14039,-3.0072,-12.392
14051,-4.6825,-11.055
14063,-6.4296,-12.904
14074,-7.8175,-14.861
14086,-4.7101,-14.427
14098,-4.6045,-14.169
14109,-4.2781,-15.721
14121,-6.325,-17.06
14133,-4.8629,-16.012
14145,-3.9711,-16.14
14156,-4.7478,-15.393
14168,-2.942,-13.448
14180,-4.7679,-14.543
14191,-5.9138,-17.042
14203,-5.2923,-16.688
14215,-4.672,-14.804
14227,-3.6669,-15.341
14238,-2.0322,-15.457
14250,-4.2555,-15.055
14262,-5.8891,-12.921
14273,-3.1088,-12.48
14285,-5.2098,-13.967
14297,-6.5226,-13.381
14309,-5.3397,-13.063
14320,-5.5282,-12.693
14332,-5.1941,-12.254
14344,-4.4587,-16.228
14355,-4.8725,-17.892
14367,-6.1784,-17.8
14379,-5.82,-16.465
14391,-3.8814,-13.179
14402,-1.0717,-12.058
14414,-2.6361,-14.562
14426,-4.7897,-15.728
14438,-6.2614,-18.048
14449,-5.5341,-16.881
14461,-6.1656,-18.145
14473,-3.5229,-16.569
14484,-4.8278,-14.023
14496,-5.4476,-11.076
14508,-5.1267,-12.148
14520,-7.0468,-12.365
14531,-6.7246,-14.735
14543,-4.7543,-14.761
14555,-3.7822,-15.237
14566,-8.2199,-16.198
14578,-5.0745,-16.495
14590,-5.3499,-13.357
14602,-4.4825,-14.656
14613,-1.6717,-11.896
14625,1.0747,-13.522
14637,-2.079,-16.479
14648,-6.5024,-14.081
14660,-7.0321,-13.827
14672,-5.8226,-13.891
14684,-7.8437,-15.404
14695,-7.5067,-14.58
14707,-4.8247,-16.716
14719,-6.5246,-13.672
14730,-7.0897,-14.452
14742,-6.6879,-18.463
14754,-5.506,-14.08
14766,-4.8905,-13.073
14777,-5.0195,-14.069
14789,-6.6568,-14.609
14801,-8.7311,-15.574
14813,-6.3473,-17.242
14824,-3.0027,-14.459
14836,-3.4873,-14.379
14848,-8.507,-16.256
14859,-4.5835,-16.402
14871,-2.555,-15.752
14883,-2.9919,-18.777
14895,-3.3509,-13.958
14906,-4.1818,-12.492
14918,-6.2301,-12.902
14930,-6.8783,-15.308
14941,-5.0951,-15.168
14953,-5.0707,-13.653
14965,-7.5207,-12.871
14977,-4.43,-13.835
14988,-4.8823,-17.995
15000,-5.2019,-17.204
15012,-5.9446,-16.791
15023,-6.484,-16.026
15035,-4.42,-11.821
15047,-6.4827,-12.621
15059,-6.0288,-16.788
15070,-3.4354,-12.182
15082,-3.8831,-12.508
15094,-5.4786,-17.192
15105,-7.6273,-20.87
15117,-7.0167,-17.455
15129,-8.4208,-16.532
15141,-7.6622,-15.143
15152,-4.8335,-15.638
15164,-5.503,-15.737
15176,-5.8938,-15.8
15188,-6.6506,-15.459
15199,-8.7866,-16.361
15211,-5.1946,-13.744
15223,-3.319,-14.652
15234,-4.0227,-15.027
15246,-7.9937,-13.877
15258,-6.2517,-14.667
15270,-7.3823,-17.034
15281,-6.1386,-13.013
15293,-5.1713,-12.225
15305,-4.9655,-14.874
15316,-3.4931,-17.601
15328,-3.3582,-18.251
15340,-4.2432,-16.379
15352,-4.8045,-13.281
15363,-5.7668,-13.983
15375,-4.888,-11.364
15387,-6.3199,-11.469
15398,-7.3518,-15.797
15410,-4.1726,-15.725
15422,-5.3201,-15.434
15434,-4.516,-14.241
15445,-5.0352,-13.137
15457,-6.9877,-15.396
15469,-7.6062,-15.503
15480,-9.7663,-13.956
15492,-4.6691,-14.966
15504,-4.0707,-14.351
15516,-7.203,-13.377
15527,-9.9849,-13.567
15539,-7.6607,-17.397
15551,-5.5127,-16.636
15563,-5.0267,-12.078
15574,-6.4762,-13.308
15586,-7.4232,-15.616
15598,-7.9661,-14.863
15609,-6.0065,-14.97
15621,-6.8132,-17.914
15633,-8.6673,-14.505
15645,-10.719,-15.747
15656,-6.7806,-17.647
15668,-8.8522,-15.22
15680,-8.0075,-16.705
15691,-5.9879,-16.794
15703,-5.9439,-14.827
15715,-6.7941,-14.408
15727,-7.6656,-15.79
15738,-7.7958,-15.107
15750,-9.1794,-13.828
15762,-7.5431,-14.933
15773,-8.4035,-18.672
15785,-12.389,-16.311
15797,-10.049,-14.428
15809,-7.8815,-15.2
15820,-8.1175,-13.951
15832,-5.5221,-12.779
15844,-5.4086,-17.935
15855,-8.5141,-18.076
15867,-6.1384,-15.957
15879,-6.7005,-13.757
15891,-9.0497,-13.932
15902,-7.2293,-17.954
15914,-7.7034,-18.622
15926,-7.9757,-16.4
15938,-4.6533,-15.585
15949,-6.4761,-13.68
15961,-9.0939,-13.107
15973,-10.03,-15.672
15984,-7.7229,-16.43
15996,-3.1576,-15.874
16008,-3.8846,-16.715
16020,-7.5956,-17.99
16031,-8.2848,-16.057
16043,-6.5258,-15.759
16055,-7.9137,-17.721
16066,-4.8698,-15.702
16078,-5.6261,-16.76
16090,-8.6619,-14.906
16102,-9.8099,-14.65
16113,-8.8205,-15.59
16125,-8.5553,-16.142
16137,-10.185,-16.039
16148,-8.6616,-15.658
16160,-7.7756,-15.142
16172,-9.4203,-14.717
16184,-11.246,-16.514
16195,-8.6761,-16.955
16207,-8.1018,-17.587
16219,-5.9301,-13.391
16230,-8.5856,-14.044
16242,-12.895,-17.02
16254,-6.5257,-14.763
16266,-8.3922,-14.227
16277,-10.986,-16.417
16289,-8.5053,-13.325
16301,-6.8824,-13.591
16313,-7.2698,-15.682
16324,-5.657,-17.573
16336,-8.3447,-20.57
16348,-10.001,-20.247
16359,-7.0663,-19.441
16371,-5.9852,-15.709
16383,-8.018,-12.131
16395,-10.332,-13.535
16406,-8.527,-14.55
16418,-12.027,-14.604
16430,-5.0226,-16.826
16441,-5.5687,-15.427
16453,-5.0633,-14.681
16465,-7.3137,-15.759
16477,-7.5327,-15.079
16488,-7.0466,-14.276
16500,-10.628,-15.345
16512,-7.5817,-16.88
16523,-7.2285,-13.606
16535,-6.6542,-14.472
16547,-6.8123,-15.966
16559,-9.0277,-16.614
16570,-9.3826,-15.931
16582,-8.7903,-14.673
16594,-9.6897,-16.559
16605,-9.3154,-16.673
16617,-9.7211,-12.858
16629,-8.0447,-15.031
16641,-7.4803,-17.859
16652,-7.0262,-15.795
16664,-7.7121,-12.468
16676,-7.2575,-15.811
16688,-6.9871,-16.68
16699,-10.442,-17.147
16711,-8.5033,-17.968
16723,-7.4657,-16.13
16734,-8.9977,-17.09
16746,-9.3477,-17.355
16758,-7.3995,-17.987
16770,-5.4279,-15.788
16781,-6.1773,-17.113
16793,-7.0267,-18.63
16805,-7.7113,-17.127
16816,-7.6456,-14.487
16828,-5.3255,-15.568
16840,-7.3485,-16.242
16852,-6.9945,-15.609
16863,-7.0345,-16.641
16875,-7.8418,-21.127
16887,-7.1041,-18.83
16898,-10.389,-16.386
16910,-11.336,-16.035
16922,-8.4945,-16.528
16934,-8.1077,-15.623
16945,-11.753,-14.495
16957,-9.4051,-15.704
16969,-9.0128,-13.64
16980,-9.6984,-14.839
16992,-10.287,-16.607
17004,-6.2027,-14.99
17016,-5.5188,-14.849
17027,-10.957,-15.256
17039,-9.4214,-14.367
17051,-8.1522,-16.293
17063,-9.9412,-17.005
17074,-9.8912,-15.665
17086,-9.6824,-15.915
17098,-11.745,-17.612
17109,-10.619,-13.091
17121,-8.5747,-14.577
17133,-7.3597,-17.287
17145,-8.6942,-17.555
17156,-10.07,-17.735
17168,-12.032,-17.1
17180,-13.974,-15.036
17191,-8.6121,-17.634
17203,-8.1824,-18.686
17215,-10.517,-18.675
17227,-13.205,-17.761
17238,-10.695,-14.59
17250,-10.58,-13.115
17262,-14.331,-11.963
17273,-13.365,-13.884
17285,-9.778,-17.384
17297,-9.0594,-16.131
17309,-10.443,-22.225
17320,-13.783,-18.71
17332,-13.691,-18.306
17344,-11.648,-16.993
17355,-7.8518,-15.969
17367,-8.6824,-13.132
17379,-10.409,-14.626
17391,-9.3248,-14.56
17402,-8.7945,-14.606
17414,-11.129,-15.946
17426,-11.865,-15.776
17438,-10.598,-14.14
17449,-8.5353,-17.067
17461,-7.9968,-17.804
17473,-10.028,-19.178
17484,-9.9058,-16.227
17496,-10.173,-17.822
17508,-10.911,-16.994
17520,-13.722,-18.306
17531,-13.193,-14.146
17543,-10.908,-14.829
17555,-13.993,-16.847
17566,-11.041,-17.518
17578,-11.03,-16.9
17590,-11.433,-14.014
17602,-11.345,-11.997
17613,-11.337,-15.131
17625,-9.7359,-16.586
17637,-9.2245,-12.159
17648,-9.7026,-12.484
17660,-8.8379,-13.914
17672,-13.511,-15.927
17684,-11.37,-15.973
17695,-13.103,-13.669
17707,-14.029,-14.308
17719,-8.8256,-19.415
17730,-8.828,-21.116
17742,-11.164,-20.925
17754,-13.664,-19.409
17766,-14.91,-16.088
17777,-12.217,-17.479
17789,-10.812,-18.025
17801,-8.1197,-14.98
17813,-10.334,-16.433
17824,-10.29,-19.369
17836,-10.413,-15.981
17848,-9.6986,-13.916
17859,-8.8748,-14.073
17871,-5.6511,-16.355
17883,-7.9091,-19.111
17895,-7.4412,-17.135
17906,-9.2103,-15.782
17918,-12.447,-13.253
17930,-11.883,-14.995
17941,-12.733,-15.559
17953,-14.792,-14.478
17965,-13.634,-16.833
17977,-13.282,-17.532
17988,-10.731,-15.145
18000,-9.054,-13.574
18012,-10.554,-17.643
18023,-11.039,-16.239
18035,-9.882,-15.782
18047,-9.7713,-16.816
18059,-9.1957,-15.57
18070,-8.7978,-16.382
18082,-8.1011,-18.436
18094,-8.816,-18.279
18105,-11.101,-17.945
18117,-10.437,-17.216
18129,-9.5465,-16.402
18141,-10.566,-16.332
18152,-10.573,-16.786
18164,-11.731,-18.318
18176,-13.464,-18.472
18188,-11.561,-14.816
18199,-10.548,-15.256
18211,-11.396,-17.724
18223,-11.015,-18.495
18234,-10.777,-18.842
18246,-9.6575,-16.926
18258,-11.531,-15.936
18270,-11.825,-19.688
18281,-13.849,-17.091
18293,-12.59,-13.861
18305,-10.643,-15.043
18316,-9.7288,-18.532
18328,-11.698,-16.517
18340,-14.774,-19.261
18352,-11.068,-16.925
18363,-10.97,-14.843
18375,-14.199,-17.367
18387,-14.342,-17.66
18398,-13.714,-14.138
18410,-12.846,-15.744
18422,-12.348,-17.847
18434,-10.562,-19.867
18445,-12.036,-17.626
18457,-12.894,-18.407
18469,-9.6556,-17.777
18480,-12.397,-17.184
18492,-11.081,-17.781
18504,-11.301,-18.612
18516,-14.054,-19.595
18527,-15.301,-17.009
18539,-11.68,-16.618
18551,-12.998,-18.818
18563,-12.188,-17.914
18574,-14.031,-17.966
18586,-16.508,-17.776
18598,-12.298,-17.186
18609,-11.024,-16.883
18621,-10.491,-17.664
18633,-9.8527,-19.477
18645,-10.571,-15.957
18656,-13.447,-15.388
18668,-13.994,-13.935
18680,-15.274,-15.823
18691,-15.265,-19.159
18703,-14.532,-17.963
18715,-12.057,-17.335
18727,-11.863,-17.897
18738,-15.684,-15.369
18750,-13.532,-16.085
18762,-13.068,-17.431
18773,-13.366,-17.984
18785,-13.194,-18.626
18797,-10.937,-19.381
18809,-13.046,-19.772
18820,-13.609,-21.572
18832,-12.7,-17.469
18844,-11.899,-18.399
18855,-13.562,-16.192
18867,-11.583,-18.163
18879,-13.137,-18.872
18891,-11.317,-16.742
18902,-10.666,-18.486
18914,-12.779,-18.297
18926,-14.733,-17.285
18938,-13.979,-16.155
18949,-13.979,-16.936
18961,-14.368,-17.821
18973,-15.919,-18.949
18984,-10.661,-18.048
18996,-12.068,-14.258
19008,-12.148,-14.945
19020,-13.892,-17.327
19031,-14.51,-15.975
19043,-15.571,-17.488
19055,-11.143,-17.776
19066,-8.0705,-16.275
19078,-9.7316,-19.035
19090,-12.446,-21.219
19102,-11.287,-17.26
19113,-11.676,-17.216
19125,-13.201,-21.398
19137,-17.005,-18.822
19148,-13.119,-18.159
19160,-10.84,-16.5
19172,-10.607,-15.535
19184,-10.758,-19.624
19195,-13.42,-18.388
19207,-11.021,-16.882
19219,-10.395,-16.089
19230,-11.578,-20.261
19242,-11.974,-24.474
19254,-14.271,-19.774
19266,-11.324,-20.763
19277,-11.285,-19.867
19289,-12.403,-17.462
19301,-14.13,-17.608
19313,-12.99,-15.38
19324,-13.247,-16.465
19336,-13.59,-17.04
19348,-11.706,-13.27
19359,-15.583,-13.35
19371,-13.235,-18.559
19383,-10.027,-20.191
19395,-9.3259,-20.93
19406,-8.9535,-18.905
19418,-10.946,-18.197
19430,-13.662,-17.357
19441,-14.623,-15.154
19453,-12.737,-13.964
19465,-10.494,-16.15
19477,-10.126,-18.863
19488,-11.138,-17.128
19500,-11.771,-17.151
19512,-12.021,-15.249
19523,-13.167,-16.899
19535,-13.893,-20.377
19547,-13.647,-20.773
19559,-15.213,-18.777
19570,-14.142,-19.967
19582,-14.681,-19.548
19594,-13.616,-20.931
19605,-14.698,-17.511
19617,-15.62,-15.317
19629,-14.19,-14.819
19641,-13.929,-15.623
19652,-13.78,-14.453
19664,-12.163,-15.438
19676,-12.186,-16.694
19688,-11.477,-16.567
19699,-13.706,-14.998
19711,-12.007,-14.978
19723,-13.368,-18.493
19734,-13.891,-17.451
19746,-12.848,-17.821
19758,-13.412,-18.149
19770,-13.322,-19.275
19781,-14.499,-19.055
19793,-14.581,-20.206
19805,-16.582,-19.409
19816,-14.886,-18.184
19828,-13.895,-19.542
19840,-14.076,-17.846
19852,-12.602,-20.447
19863,-12.152,-22.588
19875,-11.2,-20.521
19887,-10.726,-18.012
19898,-13.888,-16.643
19910,-13.496,-16.343
19922,-10.387,-16.316
19934,-11.915,-14.498
19945,-11.688,-14.093
19957,-11.694,-19.044
19969,-12.239,-22.863
19980,-12.632,-17.966
19992,-13.087,-15.65
20004,-10.911,-12.973
20016,-11.854,-14.748
20027,-14.791,-18.769
20039,-15.762,-22.35
20051,-13.944,-20.789
20063,-11.85,-19.444
20074,-12.402,-19.714
20086,-12.59,-17.927
20098,-13.123,-17.189
20109,-13.697,-16.437
20121,-13.429,-16.64
20133,-11.658,-19.449
20145,-13.503,-18.769
20156,-13.881,-18.174
20168,-11.133,-17.549
20180,-12.917,-19.983
20191,-13.615,-19.515
20203,-15.254,-17.856
20215,-14.571,-17.273
20227,-13.24,-18.846
20238,-15.347,-20.792
20250,-12.655,-19.673
20262,-13.48,-17.065
20273,-15.965,-18.704
20285,-13.755,-17.937
20297,-12.574,-19.371
20309,-15.297,-20.606
20320,-14.152,-18.324
20332,-15.368,-18.142
20344,-16.781,-17.165
20355,-14.159,-18.154
20367,-14.728,-17.36
20379,-12.65,-16.006
20391,-11.272,-15.321
20402,-12.841,-17.754
20414,-14.115,-17.427
20426,-12.962,-17.815
20438,-11.771,-19.623
20449,-11.237,-18.873
20461,-12.919,-17.251
20473,-14.241,-15.345
20484,-14.501,-16.009
20496,-13.973,-19.271
20508,-12.696,-20.225
20520,-13.091,-20.894
20531,-14.566,-19.405
20543,-12.951,-17.731
20555,-13.843,-16.904
20566,-15.73,-17.649
20578,-13.495,-15.003
20590,-14.323,-14.981
20602,-15.892,-19.162
20613,-15.86,-19.069
20625,-13.722,-15.828
20637,-12.238,-15.859
20648,-13.362,-16.295
20660,-14.705,-15.246
20672,-13.488,-15.449
20684,-11.276,-17.2
20695,-11.384,-18.714
20707,-13.639,-20.603
20719,-13.43,-18.713
20730,-15.278,-18.004
20742,-13.135,-20.208
20754,-11.667,-18.447
20766,-13.506,-20.266
20777,-12.204,-19.785
20789,-15.756,-19.615
20801,-19.739,-19.984
20813,-14.182,-19.596
20824,-14.481,-18.823
20836,-13.064,-17.736
20848,-12.88,-17.847
20859,-15.027,-19.867
20871,-13.694,-19.242
20883,-10.184,-15.002
20895,-12.105,-17.584
20906,-14.134,-18.362
20918,-14.186,-17.65
20930,-14.502,-18.134
20941,-14.827,-17.291
20953,-14.996,-17.262
20965,-12.895,-18.728
20977,-14.104,-20.803
20988,-17.149,-18.365
21000,-16.074,-16.72
21012,-14.612,-18.589
21023,-15.911,-18.403
21035,-15.131,-17.264
21047,-14.661,-18.68
21059,-15.98,-19.332
21070,-17.084,-15.348
21082,-18.564,-14.695
21094,-13.255,-17.347
21105,-13.416,-18.009
21117,-13.067,-17.538
21129,-16.93,-18.794
21141,-14.858,-17.546
21152,-13.821,-14.194
21164,-14.733,-17.261
21176,-14.232,-20.519
21188,-15.823,-14.915
21199,-16.613,-14.298
21211,-16.379,-17.22
21223,-17.307,-20.414
21234,-16.888,-18.708
21246,-18.409,-18.671
21258,-15.478,-20.769
21270,-18.449,-21.61
21281,-14.605,-17.786
21293,-14.342,-16.223
21305,-18.731,-16.283
21316,-17.71,-17.947
21328,-17.237,-20.346
21340,-17.771,-20.319
21352,-18.506,-20.647
21363,-19.213,-23.375
21375,-16.558,-20.236
21387,-14.924,-19.1
21398,-15.611,-18.929
21410,-18.284,-19.692
21422,-17.311,-19.424
21434,-16.181,-19.531
21445,-15.132,-19.627
21457,-14.627,-19.146
21469,-12.816,-21.439
21480,-15.042,-20.538
21492,-16.075,-18.64
21504,-13.126,-20.042
21516,-12.348,-22.815
21527,-16.783,-20.963
21539,-18.065,-18.683
21551,-16.69,-20.033
21563,-16.048,-20.254
21574,-12.411,-18.444
21586,-12.747,-18.327
21598,-13.592,-19.76
21609,-14.187,-19.448
21621,-16.111,-17.472
21633,-15.971,-18.096
21645,-16.851,-19.176
21656,-19.047,-20.263
21668,-16.137,-20.673
21680,-15.678,-20.827
21691,-14.922,-20.888
21703,-17.912,-19.069
21715,-15.209,-16.756
21727,-15.123,-18.637
21738,-15.58,-18.346
21750,-15.474,-20.95
21762,-15.35,-20.471
21773,-13.511,-21.395
21785,-13.97,-20.169
21797,-13.685,-20.214
21809,-12.102,-22.743
21820,-12.663,-21.787
21832,-14.328,-20.682
21844,-15.038,-21.098
21855,-16.199,-21.421
21867,-14.431,-18.423
21879,-14.477,-19.417
21891,-15.481,-22.357
21902,-16.114,-20.545
21914,-17.391,-20.669
21926,-15.982,-21.944
21938,-13.881,-21.666
21949,-14.867,-19.537
21961,-15.776,-17.908
21973,-14.743,-15.876
21984,-14.523,-17.979
21996,-13.916,-19.153
22008,-17.626,-17.795
22020,-16.608,-18.813
22031,-18.414,-17.396
22043,-18.064,-16.247
22055,-17.767,-20.406
22066,-15.939,-21.769
22078,-16.551,-22.524
22090,-15.878,-22.118
22102,-15.397,-22.34
22113,-14.257,-17.152
22125,-16.212,-17.209
22137,-16.636,-21.274
22148,-17.326,-20.723
22160,-14.874,-21.581
22172,-15.527,-22.547
22184,-17.264,-21.264
22195,-15.76,-20.38
22207,-16.69,-21.255
22219,-16.881,-23.379
22230,-20.026,-18.872
22242,-17.079,-17.67
22254,-16.226,-17.379
22266,-18.027,-19.748
22277,-18.76,-20.018
22289,-19.048,-19.542
22301,-16.698,-19.628
22313,-16.916,-17.448
22324,-18.366,-18.869
22336,-14.464,-21.49
22348,-12.76,-22.542
22359,-12.553,-23.282
22371,-15.182,-21.749
22383,-17.399,-20.294
22395,-18.081,-18.086
22406,-18.168,-19.679
22418,-16.583,-22.127
22430,-15.875,-21.321
22441,-16.679,-18.479
22453,-16.347,-20.161
22465,-13.392,-20.587
22477,-14.835,-18.839
22488,-19.02,-19.365
22500,-18.903,-18.025
22512,-16.553,-16.031
22523,-15.484,-17.585
22535,-15.235,-19.995
22547,-14.302,-20.102
22559,-15.221,-21.143
22570,-15.554,-18.284
22582,-17.698,-18.365
22594,-19.438,-18.839
22605,-17.184,-20.028
22617,-14.241,-20.271
22629,-15.993,-23.2
22641,-14.798,-21.394
22652,-13.919,-21.013
22664,-15.248,-20
22676,-16.476,-20.989
22688,-13.794,-20.574
22699,-14.082,-18.27
22711,-15.73,-18.37
22723,-18.318,-18.536
22734,-17.395,-21.298
22746,-17.356,-21.006
22758,-17.769,-20.369
22770,-19.31,-18.667
22781,-19.841,-16.985
22793,-18.665,-19.161
22805,-17.551,-19.924
22816,-16.568,-18.174
22828,-15.991,-19.427
22840,-14.442,-20.644
22852,-16.559,-21.034
22863,-19.006,-21.585
22875,-18.701,-24.842
22887,-17.605,-20.766
22898,-17.504,-20.553
22910,-15.033,-18.357
22922,-13.809,-19.524
22934,-17.167,-18.626
22945,-17.831,-18.123
22957,-15.123,-17.95
22969,-16.332,-21.02
22980,-17.829,-18.782
22992,-18.776,-18.79
23004,-18.313,-16.812
23016,-17.763,-20.127
23027,-16.819,-19.647
23039,-19.564,-18.658
23051,-20.052,-17.639
23063,-21.479,-16.165
23074,-20.794,-16.03
23086,-17.592,-18.272
23098,-16.389,-20.704
23109,-14.854,-20.127
23121,-15.432,-21.557
23133,-18.814,-20.844
23145,-16.215,-23.307
23156,-16.575,-24.351
23168,-19.22,-19.038
23180,-19.224,-20.542
23191,-19.086,-21.46
23203,-21.429,-20.385
23215,-17.227,-21.565
23227,-14.804,-18.349
23238,-15.525,-17.922
23250,-17.994,-18.258
23262,-18.167,-19.563
23273,-17.477,-21.61
23285,-18.434,-20.087
23297,-18.584,-19.723
23309,-18.96,-21.103
23320,-19.564,-21.373
23332,-15.234,-21.262
23344,-15.769,-22.255
23355,-14.529,-25.553
23367,-16.761,-22.653
23379,-19.977,-19.618
23391,-20.159,-19.772
23402,-19.696,-22.731
23414,-19.507,-19.491
23426,-16.42,-19.543
23438,-18.015,-20.509
23449,-18.75,-22.092
23461,-19.578,-20.782
23473,-20.665,-19.598
23484,-19.925,-19.683
23496,-20.273,-18.598
23508,-17.654,-20.001
23520,-17.247,-21.238
23531,-18.127,-21.169
23543,-19.445,-21.886
23555,-18.616,-23.285
23566,-19.124,-21.508
23578,-15.483,-21.02
23590,-18.113,-22.814
23602,-15.311,-23.513
23613,-16.228,-22.768
23625,-15.57,-19.756
23637,-16.171,-18.483
23648,-18.764,-21.567
23660,-18.378,-18.303
23672,-19.598,-19.881
23684,-17.95,-20.435
23695,-16.717,-18.157
23707,-16.591,-20.774
23719,-19.231,-25.387
23730,-19.564,-27.263
23742,-16.121,-22.778
23754,-15.131,-20.282
23766,-16.768,-19.803
23777,-17.207,-22.103
23789,-18.369,-22.335
23801,-21.729,-20.964
23813,-22.808,-20.767
23824,-18.829,-18.603
23836,-18.428,-19.111
23848,-17.228,-18.55
23859,-14.965,-20.096
23871,-16.543,-22.279
23883,-17.816,-22.356
23895,-20.034,-21.022
23906,-20.147,-20.19
23918,-18.563,-21.086
23930,-19.005,-19.969
23941,-21.453,-23.045
23953,-19.29,-21.744
23965,-16.952,-19.922
23977,-17.127,-21.758
23988,-16.779,-19.982
