FFT,Power Spectrum
Frequency[Hz],Level-L[dB],Level-R[dB]
11.719,-4.2144,-63.369
23.438,15.129,-54.062
35.156,10.453,-40.585
46.875,16.382,-27.372
58.594,18.138,-27.035
70.313,16.743,-31.831
82.031,17.665,-26.265
93.75,21.744,-25.307
105.47,19.835,-22
117.19,16.344,-18.554
128.91,17.145,-17.822
140.63,20.809,-17.74
152.34,17.228,-13.554
164.06,14.691,-17.619
175.78,15.861,-18.297
187.5,17.589,-18.714
199.22,19.669,-18.376
210.94,17.427,-16.472
222.66,20.313,-16.401
234.38,22.153,-16.581
246.09,18.308,-17.194
257.81,14.656,-15.826
269.53,15.687,-15.565
281.25,18.594,-15.774
292.97,19.229,-15.739
304.69,17.297,-17.129
316.41,14.167,-15.064
328.13,16.186,-14.762
339.84,16.501,-14.891
351.56,14.924,-13.323
363.28,16.06,-16.519
375,17.495,-14.084
386.72,17.347,-12.095
398.44,17.104,-13.063
410.16,16.526,-13.611
421.88,18.233,-16.899
433.59,16.346,-15.785
445.31,18.624,-15.302
457.03,19.556,-11.885
468.75,17.835,-10.039
480.47,16.181,-13.613
492.19,18.082,-11.35
503.91,17.806,-10.228
515.63,16.571,-10.282
527.34,14.928,-12.69
539.06,13.797,-12.53
550.78,14.726,-9.5944
562.5,19.021,-10.42
574.22,21.692,-10.13
585.94,18.552,-11.496
597.66,19.838,-11.328
609.38,21.12,-10.707
621.09,21.151,-9.1828
632.81,20.124,-12.923
644.53,15.802,-10.28
656.25,18.301,-10.457
667.97,19.456,-10.522
679.69,18.285,-9.8777
691.41,15.008,-11.474
703.13,12.623,-10.033
714.84,14.695,-8.3037
726.56,15.339,-11.283
738.28,14.344,-11.69
750,13.909,-12.308
761.72,15.414,-9.1856
773.44,16.019,-5.97
785.16,19.678,-8.6335
796.88,18.639,-8.7151
808.59,15.838,-7.2659
820.31,16.643,-6.3979
832.03,17.221,-7.3938
843.75,14.968,-6.6592
855.47,15.079,-9.3266
867.19,15.665,-11.351
878.91,15.391,-7.2643
890.63,13.1,-7.8783
902.34,16.158,-6.4681
914.06,19.85,-7.6545
925.78,20.851,-8.8838
937.5,19.951,-8.3108
949.22,18.976,-6.4053
960.94,16.938,-6.7942
972.66,16.136,-7.6208
984.38,15.533,-5.5952
996.09,15.762,-5.2765
1007.8,15.038,-6.2042
1019.5,14.266,-10.503
1031.3,15.367,-8.7104
1043,14.764,-8.0366
1054.7,12.686,-8.7668
1066.4,14.444,-9.6343
1078.1,15.125,-11.809
1089.8,14.446,-9.1601
1101.6,18.011,-10.062
1113.3,19.343,-10.716
1125,16.693,-9.3744
1136.7,18.13,-9.0799
1148.4,20.024,-5.9544
1160.2,20.31,-6.2606
1171.9,17.855,-9.9593
1183.6,15.428,-8.5371
1195.3,17.327,-9.2524
1207,18.413,-7.816
1218.8,18.382,-5.414
1230.5,17.718,-5.0968
1242.2,19.194,-8.5744
1253.9,16.881,-8.0746
1265.6,17.368,-6.8703
1277.3,18.438,-10.99
1289.1,17.016,-9.28
1300.8,15.24,-8.2716
1312.5,16.665,-10.657
1324.2,15.082,-9.1381
1335.9,15.198,-9.672
1347.7,16.664,-7.6528
1359.4,15.908,-9.5328
1371.1,15,-7.5117
1382.8,16.581,-9.4499
1394.5,20.26,-8.9822
1406.3,20.564,-7.9323
1418,19.199,-9.6236
1429.7,17.595,-7.34
1441.4,16.466,-5.5106
1453.1,18.252,-4.9697
1464.8,15.535,-6.7333
1476.6,12.688,-6.2121
1488.3,12.299,-5.2015
1500,16.147,-7.0847
1511.7,15.847,-6.238
1523.4,15.588,-4.5786
1535.2,16.568,-5.5482
1546.9,18.305,-10.144
1558.6,16.094,-7.1952
1570.3,15.071,-3.9855
1582,14.739,-3.1698
1593.8,19.308,-4.3511
1605.5,21.971,-6.9304
1617.2,16.844,-5.0969
1628.9,13.164,-5.0764
1640.6,15.164,-6.1928
1652.3,13.983,-7.8738
1664.1,16.168,-11.757
1675.8,17.654,-12.532
1687.5,18.165,-10.639
1699.2,20.324,-8.9202
1710.9,18.301,-8.0729
1722.7,12.25,-7.0965
1734.4,13.699,-6.8986
1746.1,14.621,-7.0355
1757.8,14.415,-8.6027
1769.5,15.54,-8.2653
1781.3,18.009,-6.9715
1793,19.784,-10.052
1804.7,16.835,-6.9955
1816.4,19.238,-7.9195
1828.1,15.681,-9.2687
1839.8,14.739,-6.966
1851.6,13.232,-7.1668
1863.3,12.486,-7.5338
1875,14.923,-5.847
1886.7,15.247,-3.002
1898.4,14.15,-3.9853
1910.2,12.335,-5.3858
1921.9,12.168,-6.9841
1933.6,15.03,-6.8844
1945.3,15.519,-5.9934
1957,15.211,-7.6518
1968.8,14.422,-8.7801
1980.5,13.898,-6.8142
1992.2,14.725,-5.4789
2003.9,12.658,-7.5907
2015.6,12.77,-11.63
2027.3,15.077,-10.306
2039.1,12.186,-6.866
2050.8,9.8487,-5.5182
2062.5,11.076,-6.9675
2074.2,14.211,-7.8834
2085.9,11.491,-7.8586
2097.7,11.318,-8.2909
2109.4,12.361,-7.3958
2121.1,11.832,-8.3258
2132.8,11.766,-7.4145
2144.5,11.929,-6.2702
2156.3,11.315,-7.6627
2168,9.7866,-5.6975
2179.7,14.211,-7.7104
2191.4,14.643,-7.0443
2203.1,13.297,-5.3777
2214.8,11.169,-5.7716
2226.6,10.1,-3.6306
2238.3,8.4535,-5.2084
2250,8.7783,-7.3358
2261.7,12.486,-6.4237
2273.4,11.615,-8.554
2285.2,12.898,-7.2056
2296.9,13.14,-5.0193
2308.6,11.123,-6.5565
2320.3,14.302,-9.4714
2332,13.519,-10.188
2343.8,10.697,-7.6779
2355.5,12.159,-6.43
2367.2,15.46,-9.5708
2378.9,15.298,-7.311
2390.6,17.531,-4.5045
2402.3,17.13,-7.1197
2414.1,12.987,-9.7728
2425.8,9.8378,-8.8311
2437.5,8.3375,-10.014
2449.2,13.134,-10.516
2460.9,15.057,-10.219
2472.7,15.181,-8.757
2484.4,15.599,-7.7247
2496.1,14.324,-9.0422
2507.8,14.542,-7.4111
2519.5,13.144,-7.1708
2531.3,14.599,-8.0599
2543,15.26,-6.0248
2554.7,13.324,-7.143
2566.4,13.204,-6.8791
2578.1,13.083,-5.3928
2589.8,11.304,-6.7929
2601.6,11.28,-6.8949
2613.3,12.101,-7.6635
2625,12.989,-6.8467
2636.7,12.082,-9.2732
2648.4,10.367,-9.3919
2660.2,9.232,-5.9195
2671.9,10.716,-4.0183
2683.6,10.953,-4.7299
2695.3,7.0488,-7.7505
2707,12.36,-9.6374
2718.8,13.096,-9.0111
2730.5,11.582,-9.3866
2742.2,9.2476,-8.4508
2753.9,11.345,-4.3853
2765.6,13.089,-5.6556
2777.3,13.76,-6.0535
2789.1,11.136,-7.798
2800.8,9.6887,-8.3101
2812.5,10.296,-9.056
2824.2,10.506,-3.6553
2835.9,11.431,-5.0631
2847.7,9.4762,-6.3465
2859.4,9.8565,-5.2749
2871.1,9.5166,-8.5053
2882.8,10.481,-7.9442
2894.5,11.964,-9.8379
2906.3,11.584,-6.1869
2918,11.506,-5.6101
2929.7,9.7631,-9.4239
2941.4,10.354,-8.5805
2953.1,12.229,-7.0447
2964.8,11.925,-7.6377
2976.6,9.2154,-6.6664
2988.3,12.7,-8.5881
3000,10.062,-9.1203
3011.7,6.4474,-7.3729
3023.4,10.197,-7.7224
3035.2,9.2318,-7.8669
3046.9,9.6047,-5.2174
3058.6,11.59,-5.3632
3070.3,7.6129,-8.433
3082,9.3387,-10.688
3093.8,12.002,-11.264
3105.5,10.071,-8.9398
3117.2,8.4187,-5.7039
3128.9,9.4007,-4.3459
3140.6,9.0526,-6.4285
3152.3,7.2827,-4.8627
3164.1,7.3714,-3.6705
3175.8,8.7073,-6.6199
3187.5,10.62,-7.8549
3199.2,12.001,-4.8721
3210.9,11.017,-7.8856
3222.7,9.6374,-8.0107
3234.4,8.4558,-9.2747
3246.1,11.379,-8.154
3257.8,10.505,-7.1007
3269.5,10.267,-7.9744
3281.3,10.579,-11.179
3293,12.017,-7.5938
3304.7,12.767,-5.4266
3316.4,9.4477,-5.3836
3328.1,6.9129,-6.27
3339.8,10.093,-8.2353
3351.6,9.5058,-5.55
3363.3,10.209,-5.9259
3375,10.22,-8.6584
3386.7,11.327,-10.89
3398.4,10.217,-8.4737
3410.2,10.249,-7.9304
3421.9,11.535,-6.6639
3433.6,10.78,-5.6407
3445.3,9.9273,-8.2785
3457,9.6228,-6.355
3468.8,10.08,-6.5818
3480.5,9.9633,-7.6635
3492.2,9.9322,-7.9831
3503.9,10.881,-8.8152
3515.6,11.589,-7.3093
3527.3,10.953,-8.3917
3539.1,9.2718,-5.9756
3550.8,9.8826,-7.5314
3562.5,12.589,-7.2369
3574.2,11.282,-8.3985
3585.9,10.263,-8.6446
3597.7,11.211,-5.7195
3609.4,11.205,-6.258
3621.1,11.668,-9.5655
3632.8,12.546,-6.6548
3644.5,11.224,-7.0575
3656.3,8.7612,-8.6317
3668,9.4815,-7.1151
3679.7,8.683,-5.9264
3691.4,8.7743,-4.5298
3703.1,10.24,-6.414
3714.8,12.757,-4.5021
3726.6,11.151,-5.6983
3738.3,8.9819,-6.4701
3750,9.6379,-9.6506
3761.7,7.9959,-6.5877
3773.4,6.5787,-6.7463
3785.2,8.9914,-6.0416
3796.9,8.7023,-8.3581
3808.6,8.6917,-8.208
3820.3,11.836,-5.8384
3832,11.593,-7.9602
3843.8,9.089,-6.7088
3855.5,9.701,-7.7503
3867.2,10.996,-10.339
3878.9,9.1586,-9.4016
3890.6,10.556,-7.1581
3902.3,10.806,-10.173
3914.1,10.383,-10.611
3925.8,10.288,-9.5133
3937.5,12.253,-8.4685
3949.2,10.816,-7.6035
3960.9,8.8382,-6.9796
3972.7,8.6051,-7.2796
3984.4,6.734,-7.2525
3996.1,6.5389,-9.0813
4007.8,8.1388,-5.7462
4019.5,8.9137,-4.4382
4031.3,10.356,-8.0865
4043,11.206,-9.3045
4054.7,10.753,-10.386
4066.4,6.7959,-8.5128
4078.1,3.8943,-8.6899
4089.8,3.5151,-6.5057
4101.6,5.9121,-7.2735
4113.3,8.8645,-8.1364
4125,5.3973,-9.2172
4136.7,4.9057,-7.1871
4148.4,8.467,-6.2764
4160.2,9.9055,-6.3201
4171.9,8.6469,-7.5202
4183.6,8.8434,-10.688
4195.3,9.295,-14.23
4207,7.9606,-12.747
4218.8,9.1533,-11.565
4230.5,9.4486,-8.948
4242.2,7.0773,-6.0821
4253.9,3.3951,-4.7488
4265.6,5.2233,-5.2736
4277.3,5.5399,-6.0208
4289.1,7.7318,-5.7591
4300.8,8.9948,-6.4691
4312.5,6.4231,-6.2476
4324.2,11.241,-5.9361
4335.9,12.799,-6.8286
4347.7,7.6682,-11.036
4359.4,10.647,-8.891
4371.1,11.133,-6.2683
4382.8,8.8413,-6.4866
4394.5,6.3176,-4.504
4406.3,11.043,-3.3594
4418,18.542,-9.2547
4429.7,14.995,-6.4378
4441.4,10.315,-7.6062
4453.1,10.285,-9.8839
4464.8,10.593,-12.086
4476.6,10.992,-10.923
4488.3,9.6322,-6.5198
4500,4.381,-6.3878
4511.7,7.0127,-7.9502
4523.4,9.2161,-5.7282
4535.2,9.9929,-6.1792
4546.9,8.6852,-8.7553
4558.6,9.319,-7.7445
4570.3,7.5174,-8.5905
4582,5.1782,-8.071
4593.8,7.3308,-8.2524
4605.5,8.5087,-10.658
4617.2,7.4036,-9.248
4628.9,9.0187,-8.6878
4640.6,9.1143,-8.6915
4652.3,9.7876,-7.5389
4664.1,9.2367,-9.1607
4675.8,9.7185,-10.601
4687.5,11.086,-6.2197
4699.2,9.1961,-5.9489
4710.9,6.2024,-10.162
4722.7,5.8896,-7.4554
4734.4,7.6641,-8.1089
4746.1,9.0597,-8.5313
4757.8,7.4824,-10.761
4769.5,7.1306,-13.461
4781.3,6.3847,-12.952
4793,4.2118,-8.1758
4804.7,6.2458,-7.7104
4816.4,7.5295,-7.9602
4828.1,8.7441,-7.9636
4839.8,7.001,-10.228
4851.6,6.1332,-9.5216
4863.3,4.9562,-8.6521
4875,6.0316,-8.2094
4886.7,6.6567,-11.444
4898.4,8.226,-9.0608
4910.2,7.4239,-8.1174
4921.9,10.08,-7.2037
4933.6,9.4192,-7.8496
4945.3,8.2171,-10.259
4957,5.9183,-9.5527
4968.8,7.9009,-10.02
4980.5,7.8033,-9.0061
4992.2,7.8584,-7.9959
5003.9,5.903,-6.4923
5015.6,5.9916,-6.1947
5027.3,6.7801,-5.4256
5039.1,7.4003,-4.4404
5050.8,8.6841,-5.227
5062.5,9.8261,-5.5787
5074.2,9.9969,-9.9483
5085.9,7.636,-8.5495
5097.7,7.164,-6.6812
5109.4,7.1942,-7.275
5121.1,5.0558,-8.5635
5132.8,6.2707,-8.6958
5144.5,6.7768,-9.1017
5156.3,4.3139,-5.5881
5168,6.6021,-5.9722
5179.7,10.459,-8.7711
5191.4,10.567,-10.469
5203.1,9.0729,-10.287
5214.8,6.8246,-11.158
5226.6,3.0244,-11.059
5238.3,5.0213,-7.2461
5250,6.4518,-6.5368
5261.7,7.1856,-7.2411
5273.4,6.2569,-7.4594
5285.2,4.628,-11.473
5296.9,6.3002,-10.977
5308.6,6.2949,-7.1015
5320.3,7.2991,-8.2997
5332,7.9407,-6.9988
5343.8,8.5521,-8.1944
5355.5,7.178,-9.7958
5367.2,5.7067,-12.11
5378.9,7.5798,-11.484
5390.6,9.4451,-7.7674
5402.3,8.0616,-7.2486
5414.1,5.4256,-7.9806
5425.8,3.5528,-9.8142
5437.5,2.7578,-11.42
5449.2,3.4896,-11.675
5460.9,4.4431,-8.2796
5472.7,3.9727,-6.5212
5484.4,5.8938,-6.8408
5496.1,6.6254,-6.6735
5507.8,4.9673,-7.4121
5519.5,6.1814,-7.6401
5531.3,7.4191,-5.753
5543,8.3847,-6.0495
5554.7,7.4373,-6.8404
5566.4,3.8795,-6.9918
5578.1,3.5439,-6.1518
5589.8,5.2493,-8.4747
5601.6,5.8979,-11.095
5613.3,5.9019,-9.8191
5625,6.2092,-8.4296
5636.7,4.3795,-9.2859
5648.4,5.4903,-7.5508
5660.2,7.3205,-6.9705
5671.9,8.015,-9.6049
5683.6,7.5406,-10.332
5695.3,7.0775,-9.1983
5707,7.4329,-6.5128
5718.8,4.6419,-7.5439
5730.5,6.8876,-7.2409
5742.2,7.1678,-6.0353
5753.9,6.9138,-7.0289
5765.6,8.6246,-10.665
5777.3,8.5537,-10.695
5789.1,5.7538,-6.7238
5800.8,7.1876,-7.1421
5812.5,8.1664,-6.7413
5824.2,5.0614,-6.7483
5835.9,7.2179,-9.3783
5847.7,8.4143,-9.6278
5859.4,6.5366,-7.7987
5871.1,3.9618,-8.9229
5882.8,4.8497,-9.4727
5894.5,7.2195,-7.8488
5906.3,7.0939,-8.0449
5918,6.7237,-8.9871
5929.7,7.4154,-11.507
5941.4,5.2258,-9.2565
5953.1,5.4349,-7.3974
5964.8,2.7234,-6.5922
5976.6,4.8795,-7.575
5988.3,7.6077,-7.5102
6000,8.2593,-7.4092
6011.7,7.2555,-8.7019
6023.4,6.2933,-9.2669
6035.2,7.3719,-8.5879
6046.9,7.5772,-4.4584
6058.6,5.4108,-5.8021
6070.3,4.5842,-10.296
6082,6.0466,-10.391
6093.8,7.4949,-8.1473
6105.5,9.1131,-7.2553
6117.2,7.858,-9.0814
6128.9,4.1147,-11.116
6140.6,5.5975,-8.0974
6152.3,4.5132,-9.0225
6164.1,6.6379,-9.5439
6175.8,6.8523,-10.32
6187.5,5.9896,-11.324
6199.2,6.8831,-9.2306
6210.9,5.9997,-7.2415
6222.7,2.4959,-6.9839
6234.4,4.9096,-12.243
6246.1,5.0899,-5.921
6257.8,5.1865,-4.9641
6269.5,4.46,-5.2044
6281.3,5.1987,-8.9124
6293,3.6705,-6.2008
6304.7,1.8503,-4.8319
6316.4,2.4271,-8.82
6328.1,3.0235,-12.783
6339.8,7.4178,-10.837
6351.6,6.7709,-10.237
6363.3,5.2852,-12.001
6375,3.912,-11.8
6386.7,2.5773,-8.9306
6398.4,6.4522,-6.6146
6410.2,5.0786,-7.3812
6421.9,4.8474,-8.3809
6433.6,4.3463,-7.8451
6445.3,3.9925,-7.6151
6457,4.4256,-9.6712
6468.8,5.8403,-8.7459
6480.5,4.6365,-7.5216
6492.2,3.3975,-6.627
6503.9,1.5717,-7.3648
6515.6,3.3308,-7.2742
6527.3,4.5326,-6.0934
6539.1,0.28075,-8.1322
6550.8,5.6823,-12.43
6562.5,6.0762,-10.184
6574.2,4.953,-6.1391
6585.9,5.1443,-6.6855
6597.7,3.1677,-8.511
6609.4,6.3517,-8.4128
6621.1,5.7122,-8.9073
6632.8,5.7652,-12.003
6644.5,5.6056,-11.501
6656.3,6.9519,-10.149
6668,5.505,-8.8832
6679.7,5.1515,-9.5068
6691.4,3.4961,-7.0218
6703.1,3.6311,-5.7372
6714.8,4.3502,-9.816
6726.6,5.6905,-11.796
6738.3,6.4073,-8.9651
6750,3.0176,-8.7398
6761.7,6.0189,-8.8358
6773.4,4.7842,-8.4625
6785.2,2.0554,-8.1493
6796.9,0.64087,-9.481
6808.6,0.14478,-10.314
6820.3,2.2759,-10.077
6832,3.9877,-12.646
6843.8,3.8843,-11.3
6855.5,6.0341,-7.6962
6867.2,5.5302,-7.6674
6878.9,4.3948,-9.3289
6890.6,4.7873,-9.0036
6902.3,3.0702,-9.8985
6914.1,3.2307,-11.322
6925.8,4.3803,-12.216
6937.5,2.9144,-11.311
6949.2,3.1839,-11.252
6960.9,4.0887,-13.101
6972.7,1.459,-10.144
6984.4,4.3966,-10.762
6996.1,1.3431,-8.1237
7007.8,3.0999,-8.0436
7019.5,3.4386,-7.7935
7031.3,2.6882,-8.8554
7043,2.6752,-6.1934
7054.7,2.3812,-6.3311
7066.4,4.077,-7.9827
7078.1,3.8109,-10.477
7089.8,2.259,-10.186
7101.6,1.1368,-10.01
7113.3,1.8263,-8.0632
7125,3.1107,-7.4603
7136.7,1.1555,-9.2475
7148.4,4.8005,-9.8964
7160.2,3.1223,-7.3493
7171.9,2.5454,-6.9798
7183.6,1.4787,-7.4421
7195.3,3.0313,-7.2877
7207,5.5126,-5.8151
7218.8,4.0327,-7.1699
7230.5,4.458,-11.609
7242.2,5.9636,-12.471
7253.9,4.8411,-8.2384
7265.6,4.3401,-8.9487
7277.3,2.1265,-11.197
7289.1,3.151,-11.665
7300.8,3.0331,-7.6703
7312.5,1.6852,-6.8208
7324.2,3.3066,-7.6902
7335.9,4.3293,-5.5476
7347.7,3.6408,-7.7484
7359.4,4.1297,-8.5008
7371.1,0.92225,-8.5161
7382.8,2.8965,-5.2057
7394.5,4.9379,-8.3581
7406.3,3.4406,-10.588
7418,3.2098,-11.336
7429.7,2.7901,-8.1497
7441.4,0.97076,-6.2082
7453.1,-0.63041,-9.1478
7464.8,2.9699,-10.728
7476.6,4.9241,-10.707
7488.3,3.4961,-11.223
7500,0.14711,-11.041
7511.7,0.83928,-9.6571
7523.4,2.9143,-9.7523
7535.2,2.2532,-9.2363
7546.9,2.1891,-9.6655
7558.6,2.0177,-9.3535
7570.3,1.938,-9.5861
7582,0.79614,-9.3927
7593.8,2.5763,-6.0213
7605.5,1.8477,-6.4866
7617.2,2.4853,-10.488
7628.9,1.5661,-9.8936
7640.6,0.71595,-4.9187
7652.3,-2.5516,-8.3509
7664.1,1.4624,-9.3004
7675.8,2.4978,-8.9361
7687.5,3.7443,-4.9197
7699.2,5.2235,-5.0899
7710.9,0.84941,-8.0019
7722.7,1.8729,-6.4276
7734.4,2.0517,-5.4902
7746.1,3.0283,-8.3502
7757.8,5.6391,-11.849
7769.5,5.9061,-10.883
7781.3,5.4427,-8.2895
7793,6.5662,-9.5251
7804.7,9.1901,-8.969
7816.4,6.6831,-10.94
7828.1,11.399,-12.139
7839.8,12.724,-11.82
7851.6,13.637,-10.481
7863.3,16.422,-9.9662
7875,18.639,-12.57
7886.7,20.576,-11.347
7898.4,23.876,-8.7112
7910.2,26.898,-12.469
7921.9,30.769,-9.8493
7933.6,34.892,-9.4967
7945.3,40.138,-10.246
7957,46.659,-9.9037
7968.8,55.595,-8.3417
7980.5,70.381,-8.9232
7992.2,88.442,1.1616
8003.9,90.379,3.3881
8015.6,79.508,-6.6054
8027.3,59.476,-11.025
8039.1,49.233,-13.145
8050.8,42.009,-10.504
8062.5,36.426,-10.142
8074.2,31.926,-9.6551
8085.9,28.085,-14.681
8097.7,24.417,-10.176
8109.4,21.558,-10.827
8121.1,19.179,-11.459
8132.8,16.4,-9.8943
8144.5,14.704,-7.157
8156.3,13.218,-6.1931
8168,10.341,-6.3616
8179.7,9.5069,-7.5523
8191.4,8.3442,-8.3448
8203.1,6.4899,-7.3539
8214.8,5.1256,-6.7507
8226.6,5.1252,-7.0381
8238.3,2.5081,-10.827
8250,2.5553,-13.532
8261.7,3.9389,-6.5015
8273.4,4.1248,-8.5951
8285.2,2.3796,-11.189
8296.9,3.0477,-10.739
8308.6,-1.136,-7.7397
8320.3,2.4006,-8.3911
8332,0.75733,-10.95
8343.8,3.5312,-10.418
8355.5,1.0633,-9.7134
8367.2,-0.95319,-9.2551
8378.9,-0.73724,-10.837
8390.6,0.17057,-9.35
8402.3,1.9593,-8.572
8414.1,2.2031,-9.484
8425.8,2.2689,-10.117
8437.5,3.3717,-11.207
8449.2,3.857,-11.525
8460.9,2.6344,-10.11
8472.7,0.72168,-11.766
8484.4,0.878,-9.7255
8496.1,0.99444,-7.3035
8507.8,0.51793,-6.2889
8519.5,1.2741,-9.9401
8531.3,0.32568,-14.718
8543,1.0634,-12.676
8554.7,-0.2772,-11.015
8566.4,2.1825,-9.4165
8578.1,3.4985,-11.153
8589.8,2.8442,-8.1853
8601.6,1.7422,-9.3309
8613.3,-0.80834,-11.301
8625,1.0099,-13.294
8636.7,0.79056,-11.399
8648.4,2.511,-11.126
8660.2,0.15495,-9.8748
8671.9,0.57036,-8.9898
8683.6,4.7866,-7.3221
8695.3,4.3286,-10.05
8707,0.29845,-10.679
8718.8,1.5579,-9.8495
8730.5,4.3483,-12.59
8742.2,1.7678,-11.547
8753.9,1.4756,-10.513
8765.6,2.5894,-10.751
8777.3,2.3458,-10.926
8789.1,2.2526,-11.482
8800.8,0.4516,-11.956
8812.5,2.7736,-9.6141
8824.2,2.7974,-9.8993
8835.9,-0.70804,-12.899
8847.7,-1.3445,-11.692
8859.4,-0.56078,-9.7548
8871.1,1.6077,-7.0933
8882.8,2.9126,-9.7154
8894.5,2.6164,-10.459
8906.3,0.45463,-8.8349
8918,3.3187,-8.089
8929.7,2.088,-10.221
8941.4,1.6308,-10.454
8953.1,2.518,-10.66
8964.8,1.6825,-11.975
8976.6,-1.7646,-9.6585
8988.3,2.8744,-9.1461
9000,5.6762,-8.8933
9011.7,4.6581,-8.9312
9023.4,3.1414,-7.7867
9035.2,4.6512,-10.223
9046.9,2.3165,-9.5919
9058.6,2.0177,-11.036
9070.3,3.5233,-8.8181
9082,1.2829,-8.7518
9093.8,-1.5385,-13.4
9105.5,-0.80882,-12.274
9117.2,-1.1192,-12.04
9128.9,-1.4228,-11.07
9140.6,0.56744,-9.6209
9152.3,1.4746,-10.477
9164.1,2.8524,-10.739
9175.8,2.3243,-9.7359
9187.5,-2.0307,-11.267
9199.2,2.3726,-11.181
9210.9,1.5587,-10.956
9222.7,-0.1995,-12.016
9234.4,-1.2142,-12.426
9246.1,1.3355,-11.422
9257.8,3.5255,-8.1203
9269.5,2.1332,-7.5298
9281.3,2.3366,-6.6659
9293,0.14763,-7.3309
9304.7,0.38399,-11.636
9316.4,1.0566,-13.419
9328.1,2.0467,-13.592
9339.8,1.3407,-12.346
9351.6,1.2963,-12.871
9363.3,-0.23723,-10.198
9375,0.31218,-10.036
9386.7,-0.046467,-11.745
9398.4,3.6039,-10.173
9410.2,3.2529,-10.514
9421.9,1.4224,-10.075
9433.6,-1.1796,-10.336
9445.3,-0.91533,-10.592
9457,-0.89927,-11.943
9468.8,-2.141,-14.348
9480.5,-1.3053,-11.423
9492.2,1.239,-7.9499
9503.9,-1.4379,-8.5863
9515.6,-1.9211,-7.9444
9527.3,-0.55481,-8.4538
9539.1,0.72238,-13.848
9550.8,-0.086359,-9.246
9562.5,1.1145,-9.3777
9574.2,1.0354,-10.42
9585.9,0.68642,-8.0622
9597.7,-0.73059,-9.4271
9609.4,1.316,-12.159
9621.1,1.4052,-10.879
9632.8,-0.13395,-9.5846
9644.5,2.7933,-9.2487
9656.3,2.6075,-12.359
9668,1.607,-13.067
9679.7,-3.7415,-11.834
9691.4,-2.8544,-14.602
9703.1,-1.0772,-13.737
9714.8,-0.13668,-10.649
9726.6,-1.4399,-12.068
9738.3,0.72505,-12.54
9750,0.92723,-11.364
9761.7,1.4446,-12.999
9773.4,-1.4508,-12.591
9785.2,-2.5414,-13.128
9796.9,-1.6901,-11.621
9808.6,1.5262,-10.707
9820.3,0.64714,-10.832
9832,0.81741,-9.7427
9843.8,-0.40736,-11.842
9855.5,0.14571,-12.621
9867.2,0.56845,-14.421
9878.9,2.5189,-12.939
9890.6,-1.8598,-12.083
9902.3,-0.27173,-13.295
9914.1,-2.1295,-12.497
9925.8,-3.8463,-13.426
9937.5,-4.7586,-9.8038
9949.2,-5.7512,-9.604
9960.9,-1.5719,-11.407
9972.7,-2.4886,-14.165
9984.4,-1.0493,-11.863
9996.1,-0.12175,-8.8179
10008,0.55492,-7.9767
10020,0.84149,-9.2322
10031,-0.86217,-9.5361
10043,0.14731,-11.928
10055,0.64722,-11.946
10066,0.36338,-10.211
10078,2.8452,-9.8024
10090,2.9281,-12.377
10102,1.56,-11.291
10113,-1.605,-9.9229
10125,-1.7569,-10.848
10137,-2.0335,-11.786
10148,-1.2585,-13.489
10160,2.0544,-13.945
10172,2.0559,-13.88
10184,0.40963,-11.594
10195,-0.048778,-12.137
10207,1.5817,-10.915
10219,2.4779,-10.975
10230,-1.3492,-9.9013
10242,-4.3584,-11.916
10254,-2.6267,-12.019
10266,-1.5904,-9.8341
10277,0.4366,-10.398
10289,0.92714,-11.335
10301,1.1928,-12.159
10313,-0.36536,-12.812
10324,-0.48758,-8.8391
10336,-2.411,-7.9671
10348,-3.7637,-9.415
10359,-0.74774,-8.1508
10371,0.78602,-10.512
10383,-0.52729,-11.856
10395,-2.1397,-11.524
10406,-2.5356,-11.7
10418,-0.69015,-11.477
10430,0.23704,-8.9593
10441,-1.0543,-10.987
10453,0.5473,-10.053
10465,-1.6517,-8.5463
10477,-0.55457,-12.758
10488,1.0911,-13.522
10500,-3.2801,-14.298
10512,0.50649,-10.417
10523,-0.28585,-10.39
10535,-3.8824,-13.129
10547,-1.9182,-12.36
10559,-3.7252,-12.075
10570,-2.6568,-13.27
10582,-1.5665,-13.563
10594,-1.7126,-12.815
10605,0.97814,-12.756
10617,-0.88895,-11.04
10629,-5.0597,-10.321
10641,-3.3038,-13.977
10652,-1.0695,-13.539
10664,-0.69055,-14.418
10676,-0.019456,-13.977
10688,-1.8707,-11.387
10699,-2.6416,-11.494
10711,0.45194,-11.904
10723,3.2022,-11.431
10734,3.6432,-13.274
10746,0.8374,-9.0998
10758,-1.4458,-11.62
10770,-1.4959,-10.796
10781,0.61911,-11.638
10793,1.1225,-12.632
10805,-0.042067,-9.538
10816,-1.1338,-11.672
10828,-1.7778,-13.942
10840,-0.22737,-14.734
10852,-5.3902,-15.28
10863,-2.9928,-14.26
10875,-0.8534,-11.742
10887,0.054236,-10.939
10898,-1.3687,-11.364
10910,-2.5722,-12.312
10922,-0.32582,-16.655
10934,-1.7208,-13.325
10945,-2.3999,-10.622
10957,-1.5455,-13.329
10969,0.30413,-15.304
10980,0.77887,-15.235
10992,1.7247,-11.715
11004,-0.031949,-10.651
11016,-1.4999,-13.041
11027,-0.66181,-12.319
11039,-0.8856,-10.162
11051,-3.3036,-12.825
11063,-0.45866,-13.363
11074,-0.03433,-11.802
11086,-2.293,-14.012
11098,-1.4993,-12.629
11109,0.3435,-14.298
11121,-2.7561,-14.558
11133,-3.7898,-11.022
11145,-1.5005,-8.7273
11156,-2.9933,-11.245
11168,-3.548,-11.784
11180,-0.48443,-11.146
11191,-0.76375,-11.016
11203,-4.5266,-9.8103
11215,-2.2228,-11.613
11227,-2.281,-11.164
11238,-6.2096,-12.993
11250,-2.3795,-14.644
11262,-0.84436,-12.274
11273,-1.7258,-13.286
11285,-1.8346,-15.676
11297,-1.0036,-11.71
11309,1.4506,-11.189
11320,-0.25287,-12.315
11332,-0.47379,-13.009
11344,-1.2561,-17.517
11355,1.2567,-15.468
11367,1.41,-15.846
11379,-0.38637,-10.91
11391,-1.577,-12.593
11402,-0.3545,-12.759
11414,-3.9098,-10.597
11426,-2.6938,-11.228
11438,-5.7561,-12.322
11449,-1.595,-10.697
11461,0.46727,-11.305
11473,-0.69231,-13.337
11484,-1.1503,-13.054
11496,-2.5567,-13.654
11508,-1.7665,-13.908
11520,-0.83604,-14.108
11531,0.46918,-16.636
11543,-3.6357,-13.895
11555,-2.8296,-12.847
11566,-3.9068,-10.935
11578,-2.3582,-10.175
11590,-4.3892,-13.529
11602,-4.1636,-12.808
11613,-2.0059,-11.176
11625,-3.9763,-11.604
11637,-3.8947,-11.838
11648,-4.2975,-14.106
11660,-2.2718,-11.593
11672,-2.0104,-12.017
11684,1.6891,-17.155
11695,-1.8869,-15.628
11707,-4.9454,-12.543
11719,-3.1972,-12.463
11730,-5.3352,-14.04
11742,-4.2161,-15.44
11754,-5.7905,-15.24
11766,-3.8423,-11.81
11777,-3.4478,-9.349
11789,-0.79568,-12.233
11801,0.11888,-13.238
11813,-1.2581,-12.646
11824,-1.5246,-13.683
11836,-1.7154,-15.229
11848,-1.4213,-14.277
11859,-1.2584,-12.371
11871,0.68436,-10.862
11883,0.095849,-12.995
11895,-2.0666,-9.5961
11906,-2.0788,-8.2148
11918,-5.1971,-9.3149
11930,-4.7067,-11.36
11941,-3.3607,-13.09
11953,-4.4998,-9.9438
11965,-4.2349,-9.179
11977,-3.9451,-12.344
11988,-1.963,-11.423
12000,-3.7342,-10.492
12012,-4.3343,-10.857
12023,-5.0804,-10.256
12035,-2.1255,-11.811
12047,-0.68225,-14.232
12059,-2.0332,-12.568
12070,-0.87819,-11.275
12082,1.5637,-11.916
12094,2.5463,-13.335
12105,-0.15705,-13.551
12117,-1.811,-15.493
12129,-1.9698,-14.954
12141,0.34207,-10.209
12152,0.21333,-8.5242
12164,-0.62987,-9.3808
12176,-4.707,-12.485
12188,-3.1634,-10.308
12199,-4.2091,-9.944
12211,-5.6467,-12.711
12223,-2.9644,-12.815
12234,0.34799,-12.112
12246,-2.1352,-10.397
12258,-1.1554,-11.182
12270,0.99346,-14.056
12281,-0.80264,-12.728
12293,-3.4117,-11.541
12305,-1.2189,-11.72
12316,-3.2387,-13.053
12328,-6.4007,-12.921
12340,-3.7826,-13.772
12352,-0.95598,-16.25
12363,-1.9096,-15.716
12375,-2.794,-15.477
12387,-0.99114,-12.28
12398,0.39097,-11.266
12410,-0.78498,-12.339
12422,-1.5494,-12.244
12434,-5.8346,-12.286
12445,-8.5435,-12.538
12457,-2.857,-12.452
12469,-3.4187,-12.096
12480,-5.5021,-15.4
12492,-3.2454,-15.888
12504,-4.209,-17.24
12516,-4.0607,-14.606
12527,-1.866,-15.472
12539,-3.1045,-12.652
12551,-3.9807,-11.465
12563,-3.8232,-11.491
12574,-4.6685,-12.994
12586,-1.7249,-13.137
12598,-5.0172,-13.27
12609,-6.382,-11.399
12621,-3.4994,-13.459
12633,-3.2839,-13.785
12645,-3.3206,-12.981
12656,-2.609,-14.52
12668,-2.8164,-15.123
12680,-2.4401,-13.025
12691,-1.7424,-12.277
12703,-0.99545,-13.867
12715,-0.92347,-14.2
12727,-0.57592,-15.62
12738,-2.1076,-13.776
12750,-2.9673,-13.123
12762,-2.8298,-14.264
12773,-2.4654,-15.582
12785,-1.8981,-14.06
12797,-2.5298,-13.693
12809,-5.86,-15.21
12820,-7.9539,-13.869
12832,-5.0067,-12.48
12844,-2.8626,-12.265
12855,-3.2249,-12.414
12867,-3.5176,-12.481
12879,-2.7206,-14.8
12891,-2.7695,-14.216
12902,-4.0465,-14.205
12914,-2.7999,-12.629
12926,-5.4065,-11.317
12938,-6.2253,-10.746
12949,-4.6294,-12.303
12961,-5.9828,-13.773
12973,-6.6981,-15.359
12984,-5.9482,-12.183
12996,-2.9354,-10.643
13008,-3.5285,-11.015
13020,-4.1153,-12.572
13031,-4.7143,-13.347
13043,-3.8454,-13.507
13055,-2.0785,-13.466
13066,-3.9186,-14.676
13078,-3.3422,-15.356
13090,-4.5258,-11.519
13102,-3.397,-13.233
13113,-2.9894,-16.658
13125,-4.1345,-15.123
13137,-7.2466,-14.927
13148,-2.9536,-12.829
13160,-0.98115,-11.032
13172,-0.67198,-8.8523
13184,-2.3266,-11.373
13195,-3.0368,-12.676
13207,-3.5715,-11.855
13219,-5.9108,-10.917
13230,-5.2137,-10.662
13242,-4.0007,-12.044
13254,-4.0361,-12.886
13266,-3.3968,-12.165
13277,-2.1832,-14.253
13289,-2.6826,-12.991
13301,0.2585,-12.88
13313,-0.13182,-11.194
13324,-2.4543,-12.447
13336,-4.3316,-12.465
13348,-3.9406,-14.625
13359,-4.2028,-14.796
13371,-3.962,-14.872
13383,-0.5671,-14.552
13395,-0.48127,-14.074
13406,-2.2401,-14.559
13418,-4.2651,-14.695
13430,-3.7352,-14.923
13441,-2.8765,-13.391
13453,-2.9581,-13.332
13465,-2.3948,-13.012
13477,-0.92764,-14.628
13488,-1.2585,-13.21
13500,-3.9112,-14.206
13512,-4.6567,-13.481
13523,-5.5106,-13.777
13535,-4.4263,-12.113
13547,-1.7049,-12.89
13559,-3.1162,-16.271
13570,-1.1741,-15.535
13582,-1.6541,-14.563
13594,-3.4415,-13.971
13605,-1.8337,-12.223
13617,-2.8307,-12.623
13629,-3.4403,-11.687
13641,-4.3834,-12.059
13652,-7.3289,-12.801
13664,-4.2113,-15.473
13676,-4.654,-14.589
13688,-8.2376,-15.07
13699,-4.7914,-12.65
13711,-4.6893,-13.567
13723,-3.0107,-16.411
13734,-2.9717,-15.041
13746,-3.2451,-14.117
13758,-3.9319,-13.189
13770,-6.5351,-14.163
13781,-5.7472,-15.412
13793,-4.9188,-14.93
13805,-3.2114,-12.735
13816,-4.5522,-11.041
13828,-6.6478,-8.9531
13840,-4.88,-9.9275
13852,-1.4364,-13.156
13863,0.095698,-14.356
13875,-3.5342,-13.679
13887,-3.69,-14.275
13898,-2.9958,-12.029
13910,-1.22,-13.046
13922,-2.5709,-18.342
13934,-3.5308,-14.619
13945,-6.4957,-15.761
13957,-6.8208,-15.241
13969,-4.5097,-13.765
13980,-6.4365,-16.12
13992,-5.5364,-13.374
14004,-1.7624,-9.8425
14016,-5.3358,-11.731
14027,-4.2708,-12.344
14039,-4.7403,-13.165
14051,-6.247,-16.159
14063,-4.422,-17.672
14074,-5.7596,-16.327
14086,-5.3712,-15.23
14098,-5.6408,-14.775
14109,-5.9259,-14.632
14121,-2.6433,-10.789
14133,-1.0787,-10.471
14145,-2.3608,-11.788
14156,-3.7065,-14.129
14168,-6.0747,-15.534
14180,-6.4059,-12.56
14191,-3.4032,-13.332
14203,-5.325,-16.094
14215,-2.4485,-15.836
14227,-0.89522,-17.701
14238,-2.2008,-17.878
14250,-1.3575,-16.022
14262,-1.2813,-12.808
14273,-2.8102,-13.184
14285,-2.83,-13.378
14297,-2.2411,-13.334
14309,-3.3668,-11.512
14320,-3.6522,-10.618
14332,-4.4751,-10.987
14344,-5.0234,-11.431
14355,-4.1939,-11.171
14367,-3.2731,-13.567
14379,-3.6809,-12.081
14391,-4.737,-11.32
14402,0.42031,-14.338
14414,-3.0607,-16.58
14426,-8.6214,-14.219
14438,-5.0097,-10.921
14449,-7.9103,-13.826
14461,-6.7083,-15.645
14473,-3.5116,-14.585
14484,-2.3453,-15.697
14496,-4.749,-13.952
14508,-3.2786,-13.984
14520,-6.342,-15.082
14531,-6.6988,-15.374
14543,-6.449,-15.188
14555,-8.7686,-13.368
14566,-6.9439,-13.449
14578,-6.4547,-13.745
14590,-6.1181,-11.468
14602,-6.2219,-10.054
14613,-5.1831,-12.134
14625,-5.8732,-13.91
14637,-6.9327,-16.059
14648,-6.2894,-14.431
14660,-5.4065,-12.584
14672,-5.3752,-12.725
14684,-4.7286,-14.014
14695,-3.3568,-14.525
14707,-3.4472,-15.277
14719,-3.5769,-12.598
14730,-5.0632,-12.473
14742,-4.8776,-15.687
14754,-6.4871,-14.922
14766,-4.0723,-13.487
14777,-2.5491,-10.824
14789,-5.7704,-10.486
14801,-9.2812,-13.432
14813,-6.6091,-13.066
14824,-7.0564,-14.258
14836,-6.8906,-15.161
14848,-2.7557,-13.451
14859,-0.14537,-13.977
14871,-0.28153,-15.382
14883,-3.6004,-14.442
14895,-6.1558,-12.144
14906,-5.0344,-12.704
14918,-5.2212,-15.123
14930,-7.9468,-16.163
14941,-5.6449,-17.075
14953,-8.2568,-18.437
14965,-7.8475,-15.117
14977,-5.2021,-14.644
14988,-4.9457,-15.96
15000,-7.0667,-12.277
15012,-5.8792,-13.176
15023,-3.7178,-15.659
15035,-5.3364,-14.115
15047,-4.3923,-16.474
15059,-4.2252,-15.557
15070,-5.4258,-13.391
15082,-4.5507,-13.432
15094,-6.1978,-15.062
15105,-5.6774,-11.711
15117,-4.8898,-13.604
15129,-7.4378,-15.777
15141,-7.0891,-15.142
15152,-5.8594,-15.506
15164,-5.9982,-13.844
15176,-5.5556,-12.609
15188,-6.5745,-16.462
15199,-8.1447,-12.725
15211,-8.8168,-15.553
15223,-6.2409,-15.521
15234,-4.395,-13.394
15246,-5.9638,-13.696
15258,-7.2998,-15.25
15270,-6.6433,-13.962
15281,-4.3028,-12.724
15293,-6.1903,-15.474
15305,-7.0093,-18.567
15316,-5.4143,-20.476
15328,-4.8468,-17.192
15340,-5.8721,-15.744
15352,-5.0938,-16.307
15363,-3.5733,-15.459
15375,-4.2363,-16.756
15387,-4.1271,-16.135
15398,-6.6643,-14.947
15410,-6.5034,-16.249
15422,-6.3897,-14.844
15434,-5.7621,-14.944
15445,-4.6288,-16.25
15457,-9.474,-16.614
15469,-10.145,-15.922
15480,-8.1372,-17.168
15492,-8.8035,-17.843
15504,-8.0816,-17.492
15516,-5.8707,-17.022
15527,-6.9144,-21.266
15539,-9.0536,-13.549
15551,-7.4418,-11.609
15563,-8.2197,-12.962
15574,-10.34,-13.768
15586,-11.824,-15.215
15598,-10.161,-14.42
15609,-8.8095,-14.296
15621,-6.5266,-15.048
15633,-7.2378,-16.363
15645,-7.6546,-16.436
15656,-7.4273,-16.694
15668,-5.6415,-18.185
15680,-8.6125,-14.31
15691,-7.3989,-15.448
15703,-5.8351,-15.226
15715,-5.0986,-15.702
15727,-9.5814,-15.514
15738,-6.1514,-13.598
15750,-5.5923,-12.697
15762,-9.3869,-14.701
15773,-9.3918,-16.737
15785,-8.9835,-13.923
15797,-10.336,-15.138
15809,-7.3158,-13.949
15820,-7.5838,-14.795
15832,-9.1292,-17.069
15844,-7.0111,-15.755
15855,-4.7887,-14.509
15867,-6.1509,-17.803
15879,-8.9173,-18.089
15891,-5.7263,-15.578
15902,-5.7885,-16.015
15914,-6.7762,-17.042
15926,-9.2781,-16.288
15938,-7.0098,-16.952
15949,-2.8013,-18.573
15961,1.9204,-18.344
15973,12.886,-15.231
15984,32.824,-12.724
15996,43.693,-10.288
16008,41.767,-10.698
16020,23.878,-13.701
16031,8.5716,-15.121
16043,0.62319,-15.422
16055,-4.2621,-14.631
16066,-4.7428,-13.522
16078,-7.6608,-14.994
16090,-6.1255,-14.699
16102,-6.1419,-16.048
16113,-7.8565,-18.951
16125,-12.26,-20.741
16137,-7.7458,-17.405
16148,-8.6092,-14.463
16160,-6.2368,-14.308
16172,-8.3409,-14.535
16184,-7.9715,-16.783
16195,-6.8476,-15.416
16207,-10.821,-14.84
16219,-9.3527,-18.409
16230,-10.182,-15.491
16242,-8.7285,-16.09
16254,-6.9163,-15.385
16266,-8.725,-15.463
16277,-7.4139,-13.618
16289,-8.3189,-15.193
16301,-10.447,-15.59
16313,-10.369,-14.971
16324,-10.48,-14.867
16336,-7.2643,-16.155
16348,-8.0257,-15.927
16359,-8.7841,-15.696
16371,-10.186,-15.548
16383,-9.037,-16.298
16395,-10.107,-14.533
16406,-10.324,-15.329
16418,-10.907,-16.682
16430,-12.166,-17.255
16441,-8.7165,-14.288
16453,-10.192,-13.47
16465,-12.943,-14.757
16477,-9.2399,-13.359
16488,-5.1822,-14.984
16500,-6.2054,-16.302
16512,-9.0779,-16.182
16523,-10.304,-15.213
16535,-9.1525,-14.771
16547,-7.4008,-14.285
16559,-7.207,-15.804
16570,-8.9633,-14.764
16582,-8.5147,-14.499
16594,-7.2225,-15.41
16605,-11.42,-16.883
16617,-7.9971,-18.194
16629,-6.244,-20.318
16641,-7.4982,-19.18
16652,-11.021,-16.526
16664,-11.611,-17.88
16676,-10.244,-20.551
16688,-11.412,-16.197
16699,-10.083,-16.822
16711,-11.07,-16.554
16723,-9.955,-18.989
16734,-9.6467,-17.112
16746,-8.6615,-16.314
16758,-7.9402,-14.125
16770,-8.0314,-14.386
16781,-7.8508,-16.297
16793,-8.665,-18.888
16805,-10.122,-20.837
16816,-10.003,-19.323
16828,-7.4782,-18.213
16840,-4.2796,-16.898
16852,-8.3188,-15.401
16863,-6.4389,-15.155
16875,-8.6712,-19.238
16887,-9.1615,-17.28
16898,-9.3931,-14.842
16910,-8.4366,-18.511
16922,-9.5514,-17.934
16934,-10.126,-18.093
16945,-8.5527,-18.401
16957,-8.5265,-17.085
16969,-9.8093,-17.083
16980,-7.9362,-17.587
16992,-7.681,-17.268
17004,-8.7051,-15.773
17016,-9.5467,-14.388
17027,-9.5123,-15.111
17039,-11.367,-16.784
17051,-11.583,-16.308
17063,-9.3779,-19.072
17074,-7.3814,-20.128
17086,-7.2755,-18.115
17098,-7.1602,-16.339
17109,-6.5079,-17.32
17121,-9.4779,-17.376
17133,-8.5968,-20.945
17145,-8.6057,-14.495
17156,-8.5709,-13.347
17168,-8.7609,-16.114
17180,-9.1984,-14.275
17191,-8.978,-16.484
17203,-8.8778,-16.584
17215,-8.4636,-13.941
17227,-9.18,-14.776
17238,-11.413,-19.757
17250,-12.686,-16.105
17262,-10.641,-18.502
17273,-5.663,-15.871
17285,-5.929,-15.866
17297,-11.333,-12.582
17309,-9.5279,-12.32
17320,-10.172,-13.234
17332,-10.249,-14.001
17344,-11.245,-14.369
17355,-11.888,-13.728
17367,-14.081,-16.908
17379,-12.033,-17.237
17391,-9.8789,-14.851
17402,-7.7022,-15.781
17414,-8.7028,-19.31
17426,-13.6,-19.593
17438,-13.274,-16.897
17449,-11.213,-17.142
17461,-9.7083,-18.898
17473,-10.25,-18.683
17484,-8.9199,-18.084
17496,-7.7043,-15.873
17508,-10.778,-16.987
17520,-9.5471,-16.994
17531,-10.611,-19.386
17543,-12.843,-16.894
17555,-12.445,-16.031
17566,-10.811,-16.027
17578,-8.4217,-15.281
17590,-7.7835,-16.022
17602,-9.187,-14.379
17613,-12.523,-12.829
17625,-14.41,-16.428
17637,-9.8797,-17.356
17648,-9.8528,-15.125
17660,-11.052,-15.528
17672,-11.277,-14.494
17684,-13.08,-15.014
17695,-13.495,-16.382
17707,-11.924,-13.081
17719,-11.796,-15.2
17730,-13.618,-16.438
17742,-12.727,-17.558
17754,-11.879,-16.825
17766,-12.805,-14.947
17777,-13.082,-15.823
17789,-11.242,-14.54
17801,-12.793,-16.727
17813,-12.31,-18.749
17824,-9.7445,-16.467
17836,-8.2314,-13.161
17848,-8.4414,-14.929
17859,-9.1032,-17.179
17871,-10.24,-21.244
17883,-10.52,-16.556
17895,-8.7157,-15.6
17906,-11.117,-17.556
17918,-11.786,-17.866
17930,-10.634,-19.563
17941,-12.272,-15.9
17953,-10.771,-16.377
17965,-12.898,-16.918
17977,-13.729,-16.546
17988,-10.828,-13.953
18000,-10.834,-12.715
18012,-9.7313,-13.826
18023,-8.8649,-13.219
18035,-9.4938,-17.473
18047,-10.428,-18.224
18059,-11.388,-14.602
18070,-12.83,-16.602
18082,-13.421,-19.526
18094,-12.501,-17.8
18105,-11.671,-16.368
18117,-12.585,-14.282
18129,-11.525,-15.842
18141,-8.7808,-19.508
18152,-11.061,-16.984
18164,-11.869,-14.805
18176,-10.351,-14.346
18188,-10.064,-14.784
18199,-14.738,-15.203
18211,-13.467,-18.076
18223,-13.724,-20.479
18234,-14.053,-19.44
18246,-14.462,-17.573
18258,-13.573,-16.831
18270,-13.541,-17.493
18281,-10.375,-17.49
18293,-12.045,-16.301
18305,-10.389,-15.082
18316,-8.8827,-17.369
18328,-11.188,-18.38
18340,-11.068,-18.156
18352,-10.304,-17.944
18363,-12.286,-19.183
18375,-12.435,-17.796
18387,-12.93,-17.104
18398,-13.776,-18.654
18410,-15.747,-19.232
18422,-14.048,-15.984
18434,-10.493,-17.804
18445,-12.083,-16.484
18457,-15.977,-17.959
18469,-13.493,-16.257
18480,-11.99,-15.762
18492,-10.851,-16.834
18504,-9.964,-17.245
18516,-12.352,-18.891
18527,-13.195,-17.108
18539,-13.522,-14.97
18551,-10.395,-14.287
18563,-9.1001,-16.969
18574,-10.401,-13.989
18586,-10.8,-16.512
18598,-12.466,-16.421
18609,-11.519,-15.374
18621,-10.493,-17.051
18633,-11.918,-17.639
18645,-11.662,-19.709
18656,-11.768,-14.779
18668,-10.693,-18.204
18680,-9.4022,-17.378
18691,-10.275,-17.337
18703,-14.394,-16.099
18715,-12.463,-17.924
18727,-12.134,-16.469
18738,-9.2384,-19.373
18750,-10.05,-19.864
18762,-13.986,-18.671
18773,-10.719,-21.145
18785,-11.968,-19.446
18797,-12.715,-16.355
18809,-12.576,-15.077
18820,-13.168,-17.69
18832,-12.551,-17.467
18844,-9.8939,-16.344
18855,-10.944,-15.648
18867,-13.394,-17.519
18879,-10.249,-21.042
18891,-10.552,-19.151
18902,-12.002,-15.824
18914,-12.767,-17.066
18926,-12.703,-17.89
18938,-12.431,-16.131
18949,-13.322,-15.707
18961,-11.804,-18.543
18973,-14.541,-17.364
18984,-14.299,-17.151
18996,-14.219,-14.436
19008,-14.736,-13.078
19020,-12.153,-15.01
19031,-13.833,-18.825
19043,-12.388,-16.556
19055,-12.884,-17.651
19066,-13.479,-14.908
19078,-12.772,-13.265
19090,-13.622,-17.447
19102,-11.812,-19.624
19113,-11.448,-16.837
19125,-9.889,-16.181
19137,-9.7908,-17.259
19148,-12.438,-15.429
19160,-14.208,-17.587
19172,-17.585,-18.27
19184,-16.254,-17.869
19195,-15.682,-16.011
19207,-13.35,-18.441
19219,-12.503,-18.851
19230,-14.476,-18.727
19242,-12.495,-17.987
19254,-12.679,-18.024
19266,-11.972,-19.924
19277,-11.221,-19.93
19289,-11.329,-18.657
19301,-10.731,-20.443
19313,-11.517,-18.367
19324,-12.924,-18.742
19336,-12.595,-19.143
19348,-13.471,-18.064
19359,-12.753,-17.335
19371,-11.546,-18.717
19383,-12.621,-19.823
19395,-12.998,-20.006
19406,-12.476,-15.863
19418,-14.777,-12.863
19430,-11.703,-15.578
19441,-10.707,-20.59
19453,-11.614,-20.919
19465,-10.51,-18.636
19477,-10.512,-18.58
19488,-12.729,-18.013
19500,-15.985,-16.571
19512,-12.192,-14.863
19523,-12.015,-18.759
19535,-13.311,-14.627
19547,-13.009,-14.514
19559,-15.49,-18.253
19570,-12.545,-17.24
19582,-11.598,-18.067
19594,-9.6562,-22.198
19605,-13.456,-18.428
19617,-13.625,-17.84
19629,-12.803,-19.908
19641,-11.979,-19.072
19652,-13.393,-18.924
19664,-15.155,-17.963
19676,-14.967,-18.435
19688,-14.855,-18.524
19699,-15.149,-19.684
19711,-12.669,-19.657
19723,-10.725,-19.54
19734,-12.315,-18.535
19746,-14.687,-18.526
19758,-12.867,-18.158
19770,-12.427,-17.488
19781,-14.818,-17.762
19793,-16.013,-18.267
19805,-12.617,-18.504
19816,-12.584,-20.542
19828,-14.299,-19.404
19840,-14.078,-17.855
19852,-12.89,-17.18
19863,-14.05,-17.678
19875,-14.324,-18.589
19887,-15.57,-19.728
19898,-15.214,-16.714
19910,-18.663,-16.652
19922,-13.384,-19.511
19934,-11.504,-20.028
19945,-13.564,-16.31
19957,-14.618,-20.127
19969,-14.48,-17.796
19980,-14.701,-15.344
19992,-13.457,-15.166
20004,-16.935,-15.56
20016,-14.007,-18.059
20027,-12.583,-17.266
20039,-14.398,-17.689
20051,-15.194,-17.231
20063,-11.259,-16.204
20074,-12.577,-16.699
20086,-16.906,-15.732
20098,-13.792,-15.207
20109,-11.187,-16.797
20121,-12.656,-18.165
20133,-13.363,-16.081
20145,-15.128,-15.478
20156,-14.676,-14.873
20168,-14.964,-15.757
20180,-14.028,-18.257
20191,-12.09,-21.299
20203,-12.254,-22.84
20215,-13.928,-19.216
20227,-12.205,-15.61
20238,-13.614,-15.245
20250,-15.578,-18.724
20262,-15.95,-19.137
20273,-16.434,-18.431
20285,-14.23,-18.338
20297,-15.178,-18.754
20309,-14.254,-17.269
20320,-10.842,-17.85
20332,-9.9395,-17.226
20344,-15.548,-17.944
20355,-14.13,-18.12
20367,-14.307,-20.242
20379,-14.832,-20.784
20391,-14.027,-20.993
20402,-12.836,-20.315
20414,-2.1123,-19.068
20426,-1.743,-17.921
20438,-10.783,-16.897
20449,-14.454,-16.747
20461,-15.37,-17.8
20473,-11.789,-21.264
20484,-15.389,-19.063
20496,-16.542,-18.159
20508,-15.056,-20.431
20520,-14.544,-21.032
20531,-12.524,-19.39
20543,-11.056,-20.468
20555,-10.614,-20.751
20566,-10.636,-17.291
20578,-11.465,-18.07
20590,-15.518,-17.196
20602,-18.355,-17.723
20613,-14.116,-18.903
20625,-12.703,-16.931
20637,-11.71,-16.856
20648,-12.278,-17.988
20660,-13.126,-18.592
20672,-11.695,-18.683
20684,-12.355,-18.452
20695,-13.094,-19.48
20707,-14.886,-19.267
20719,-16.891,-18.197
20730,-16.402,-21.117
20742,-14.652,-19.704
20754,-12.515,-19.493
20766,-12.246,-19.135
20777,-11.883,-17.515
20789,-13.434,-21.918
20801,-14.683,-19.589
20813,-15.894,-18.263
20824,-17.536,-19.818
20836,-13.764,-17.842
20848,-11.904,-17.563
20859,-13.667,-18.485
20871,-13.431,-17.675
20883,-14.676,-17.956
20895,-16.995,-19.524
20906,-16.541,-19.679
20918,-17.645,-19.338
20930,-14.531,-18.266
20941,-12.405,-18.29
20953,-12.966,-19.924
20965,-17.266,-18.003
20977,-15.626,-19.015
20988,-15.454,-15.511
21000,-16.92,-16.804
21012,-16.271,-18.519
21023,-15.865,-17.45
21035,-15.452,-19.214
21047,-14.64,-20.375
21059,-13.581,-21.652
21070,-12.794,-17.596
21082,-14.635,-17.453
21094,-13.941,-19.044
21105,-14.757,-19.938
21117,-17.241,-21.007
21129,-14.512,-17.998
21141,-14.249,-17.798
21152,-15.942,-16.502
21164,-14.844,-14.9
21176,-16.169,-15.173
21188,-11.894,-16.597
21199,-10.688,-17.882
21211,-15.181,-16.525
21223,-18.645,-14.716
21234,-16.963,-17.169
21246,-13.991,-19.79
21258,-15.706,-18.121
21270,-17.748,-18.526
21281,-14.778,-19.921
21293,-12.52,-22.233
21305,-12.922,-20.682
21316,-14.752,-18.835
21328,-12.59,-21.526
21340,-12.799,-18.351
21352,-13.663,-18.5
21363,-15.041,-19.797
21375,-14.189,-19.943
21387,-17.662,-19.788
21398,-14.006,-17.818
21410,-14.628,-18.145
21422,-15.434,-19.753
21434,-14.896,-20.756
21445,-16.859,-22.013
21457,-15.031,-20.937
21469,-13.199,-20.084
21480,-13.279,-20.379
21492,-14.444,-22.06
21504,-17.136,-22.403
21516,-13.567,-18.93
21527,-16.119,-19.605
21539,-17.428,-18.839
21551,-16.435,-20.144
21563,-17.704,-22.595
21574,-17.329,-21.273
21586,-16.486,-17.666
21598,-15.716,-15.124
21609,-16.836,-14.786
21621,-15.141,-17.016
21633,-15.933,-22.116
21645,-18.053,-19.97
21656,-15.932,-18.623
21668,-16.296,-23.02
21680,-18.144,-22.876
21691,-16.663,-17.669
21703,-14.233,-18.302
21715,-13.436,-19.864
21727,-19.87,-19.253
21738,-16.801,-17.936
21750,-18.161,-16.311
21762,-18.268,-19.173
21773,-15.806,-18.672
21785,-13.361,-20.55
21797,-14.097,-17.427
21809,-12,-17.331
21820,-14.808,-20.26
21832,-16.841,-20.333
21844,-14.11,-18.344
21855,-13.361,-19.95
21867,-15.504,-21.239
21879,-13.844,-19.295
21891,-14.479,-17.952
21902,-17.45,-22.245
21914,-16.317,-17.554
21926,-14.55,-15.854
21938,-16.646,-19.034
21949,-17.92,-18.642
21961,-16.682,-17.453
21973,-19.067,-20.306
21984,-17.773,-18.453
21996,-16.692,-16.032
22008,-15.54,-17.795
22020,-16.481,-22.01
22031,-16.85,-22.675
22043,-15.799,-19.843
22055,-13.168,-16.612
22066,-13.548,-18.304
22078,-16.972,-21.312
22090,-18.426,-19.981
22102,-15.231,-17.877
22113,-16.107,-18.978
22125,-16.629,-18.173
22137,-16.981,-19.331
22148,-13.746,-17.127
22160,-13.756,-15.994
22172,-14.687,-18.603
22184,-14.996,-21.236
22195,-15.093,-19.356
22207,-16.404,-17.288
22219,-16.009,-18.504
22230,-17.793,-19.447
22242,-14.691,-19.11
22254,-12.07,-21.732
22266,-12.032,-20.036
22277,-14.859,-17.921
22289,-14.462,-17.848
22301,-13.93,-18.449
22313,-17.389,-21.169
22324,-17.832,-19.974
22336,-19.74,-19.991
22348,-17.561,-21.341
22359,-16.945,-23.313
22371,-16.484,-21.159
22383,-15.042,-20.141
22395,-15.946,-21.381
22406,-15.748,-20.761
22418,-14.788,-20.42
22430,-16.984,-19.296
22441,-18.172,-17.481
22453,-16.801,-16.926
22465,-18.326,-19.712
22477,-17.171,-17.569
22488,-16.004,-16.531
22500,-16.851,-21.047
22512,-13.148,-21.381
22523,-14.652,-23.259
22535,-18.076,-21.628
22547,-15.27,-21.147
22559,-18.021,-21.505
22570,-17.296,-21.8
22582,-14.949,-22.838
22594,-17.711,-21.669
22605,-17.107,-21.743
22617,-17.657,-20.776
22629,-20.439,-22.197
22641,-19.525,-22.869
22652,-17.39,-22.081
22664,-16.647,-19.879
22676,-19.754,-19.487
22688,-17.092,-21.793
22699,-14.365,-22.988
22711,-12.875,-19.636
22723,-14.059,-19.471
22734,-15.657,-22.207
22746,-16.815,-19.798
22758,-18.199,-22.172
22770,-17.258,-20.109
22781,-17.882,-17.858
22793,-16.807,-18.683
22805,-15.31,-19.359
22816,-16.321,-21.903
22828,-15.287,-19.375
22840,-15.914,-17.015
22852,-17.76,-15.937
22863,-15.01,-18.277
22875,-13.999,-20.273
22887,-15.385,-22.711
22898,-17.492,-16.921
22910,-16.478,-18.434
22922,-11.406,-16.859
22934,-11.832,-16.395
22945,-17.664,-20.568
22957,-18.775,-19.732
22969,-15.784,-17.776
22980,-17.579,-20.055
22992,-19.277,-20.912
23004,-18.281,-19.706
23016,-18.137,-22.429
23027,-18.266,-19.423
23039,-16.061,-17.629
23051,-13.278,-18.742
23063,-14.706,-18.664
23074,-18.896,-19.245
23086,-16.219,-19.722
23098,-16.527,-20.066
23109,-16.39,-20.086
23121,-14.632,-18.808
23133,-16.482,-19.233
23145,-17.138,-19.675
23156,-17.933,-18.458
23168,-18.308,-22.435
23180,-18.027,-21.54
23191,-19.287,-25.017
23203,-18.208,-19.37
23215,-15.512,-19.586
23227,-15.676,-18.877
23238,-14.979,-20.962
23250,-15.635,-22.446
23262,-13.752,-20.841
23273,-12.957,-18.509
23285,-13.372,-21.805
23297,-15.652,-24.379
23309,-17.647,-21.359
23320,-16.755,-19.861
23332,-16.633,-21.832
23344,-19.072,-21.891
23355,-17.551,-20.691
23367,-16.105,-17.166
23379,-15.228,-19.302
23391,-15.125,-24.716
23402,-16.402,-18.937
23414,-16.002,-16.683
23426,-17.816,-18.289
23438,-19.673,-21.276
23449,-20.691,-22.188
23461,-18.715,-22.907
23473,-18.477,-20.884
23484,-20.831,-21.065
23496,-19.203,-20.415
23508,-19.068,-23.313
23520,-19.996,-24.332
23531,-18.356,-22.523
23543,-19.097,-24.651
23555,-19.279,-21.311
23566,-17.687,-22.722
23578,-18.828,-23.045
23590,-16.586,-19.659
23602,-19.29,-21.618
23613,-17.821,-23.987
23625,-18.275,-19.809
23637,-14.771,-19.245
23648,-14.428,-18.614
23660,-16.284,-22.557
23672,-19.136,-20.638
23684,-19.25,-20.866
23695,-17.391,-23.286
23707,-14.666,-16.401
23719,-14.642,-14.818
23730,-15.118,-19.339
23742,-16.928,-20.323
23754,-18.461,-20.853
23766,-15.292,-20.377
23777,-15.368,-19.425
23789,-18.207,-17.065
23801,-15.068,-17.285
23813,-18.105,-20.016
23824,-17.177,-23.373
23836,-20.366,-23.274
23848,-18.169,-19.726
23859,-18.378,-17.919
23871,-19.912,-19.472
23883,-18.821,-21.245
23895,-17.493,-21.711
23906,-18.435,-19.412
23918,-18.469,-16.583
23930,-18.454,-18.164
23941,-18.106,-23.025
23953,-20.245,-21.527
23965,-20.62,-22.267
23977,-20.275,-18.797
23988,-11.151,-16.915
