FFT,Power Spectrum
Frequency[Hz],Level-L[dB],Level-R[dB]
11.719,-4.1969,-62.864
23.438,15.683,-55.413
35.156,12.928,-41.089
46.875,14.283,-27.614
58.594,15.156,-26.364
70.313,14.915,-29.955
82.031,18.234,-27.172
93.75,20.274,-22.994
105.47,17.561,-21.161
117.19,18.482,-20.736
128.91,19.861,-20.475
140.63,22.156,-14.718
152.34,19.326,-11.749
164.06,15.387,-14.577
175.78,20.449,-17.965
187.5,19.184,-16.312
199.22,19.182,-16.551
210.94,15.804,-17.712
222.66,18.639,-16.15
234.38,22.858,-14.835
246.09,19.946,-15.288
257.81,15.076,-16.053
269.53,16.084,-15.891
281.25,18.513,-14.064
292.97,15.904,-14.701
304.69,17.324,-13.664
316.41,15.57,-14.877
328.13,17.363,-13.858
339.84,17.955,-13.642
351.56,16.226,-11.458
363.28,15.706,-13.05
375,18.258,-11.489
386.72,19.662,-12.543
398.44,19.823,-14.653
410.16,21.854,-10.095
421.88,22.241,-11.438
433.59,21.768,-13.506
445.31,21.022,-13.34
457.03,18.048,-13.001
468.75,16.951,-11.48
480.47,16.984,-9.0147
492.19,15.614,-10.797
503.91,13.05,-14.405
515.63,14.578,-11.842
527.34,19.267,-9.1786
539.06,18.443,-9.393
550.78,16.596,-12.096
562.5,17.735,-10.631
574.22,20.245,-11.559
585.94,19.727,-11.209
597.66,21.168,-10.659
609.38,22.276,-13.079
621.09,27.55,-13.506
632.81,24.785,-10.136
644.53,14.867,-8.9748
656.25,17.29,-10.081
667.97,20.631,-8.7802
679.69,20.57,-7.2778
691.41,16.19,-7.7761
703.13,14.803,-9.951
714.84,19.284,-9.3675
726.56,19.328,-8.72
738.28,18.594,-11.214
750,16.415,-9.6686
761.72,16.204,-8.0464
773.44,18.832,-8.0142
785.16,20.627,-7.5714
796.88,16.9,-9.1858
808.59,16.54,-8.3862
820.31,19.975,-11.37
832.03,19.881,-9.5836
843.75,17.999,-10.94
855.47,14.684,-9.6611
867.19,17.511,-8.7105
878.91,15.233,-8.2885
890.63,13.714,-8.6851
902.34,17.831,-12.448
914.06,20.6,-9.5208
925.78,19.543,-9.4474
937.5,19.832,-7.4368
949.22,18.244,-8.0698
960.94,17.399,-9.4941
972.66,17.494,-10.116
984.38,17.045,-10.203
996.09,15.471,-10.496
1007.8,12.632,-6.9648
1019.5,12.826,-8.0763
1031.3,13.99,-9.649
1043,14.186,-10.635
1054.7,16.292,-8.2021
1066.4,16.276,-7.7177
1078.1,15.644,-9.9223
1089.8,16.556,-11.366
1101.6,15.368,-9.5227
1113.3,14.441,-7.9312
1125,16.035,-8.4261
1136.7,16.938,-10.473
1148.4,15.926,-9.6896
1160.2,15.613,-6.4562
1171.9,16.177,-4.7388
1183.6,16.148,-6.2617
1195.3,13.463,-10.815
1207,17.359,-10.11
1218.8,18.505,-10.577
1230.5,14.575,-9.686
1242.2,15.359,-7.0749
1253.9,17.323,-7.7483
1265.6,16.039,-3.6683
1277.3,14.868,-4.0957
1289.1,14.382,-5.0692
1300.8,13.946,-10.822
1312.5,17.016,-8.6218
1324.2,17.825,-7.7186
1335.9,16.596,-8.4384
1347.7,13.735,-8.1358
1359.4,14.652,-8.5902
1371.1,14.746,-7.0822
1382.8,14.593,-7.2584
1394.5,16.009,-5.9779
1406.3,15.938,-7.6812
1418,13.904,-10.271
1429.7,17.52,-8.0695
1441.4,17.76,-6.8975
1453.1,20.042,-3.3625
1464.8,17.538,-4.4099
1476.6,18.09,-6.0655
1488.3,20.166,-8.0682
1500,22.104,-11.432
1511.7,23.163,-8.7855
1523.4,20.519,-8.5094
1535.2,15.409,-5.8429
1546.9,16.225,-5.6914
1558.6,16.717,-5.0559
1570.3,15.429,-6.147
1582,15.993,-5.3308
1593.8,18.592,-5.3411
1605.5,19.322,-5.3035
1617.2,20.001,-6.5707
1628.9,19.353,-6.5787
1640.6,15.62,-9.1282
1652.3,17.222,-8.4283
1664.1,15.283,-10.389
1675.8,15.385,-8.5992
1687.5,15.099,-3.6776
1699.2,12.921,-3.5024
1710.9,10.069,-10.874
1722.7,16.105,-7.2205
1734.4,18.609,-5.8003
1746.1,17.456,-7.1449
1757.8,15.312,-7.2497
1769.5,15.356,-6.7546
1781.3,17.199,-9.02
1793,17.214,-9.7515
1804.7,16.131,-11.565
1816.4,15.408,-7.43
1828.1,14.249,-5.2888
1839.8,13.426,-5.7774
1851.6,13.14,-8.5353
1863.3,14.828,-7.5053
1875,15.485,-5.3726
1886.7,16.127,-10.098
1898.4,15.964,-5.9284
1910.2,16.846,-6.5591
1921.9,15.622,-6.2641
1933.6,10.498,-3.8566
1945.3,15.681,-7.3227
1957,20.18,-5.1434
1968.8,28.796,-3.8373
1980.5,43.388,-6.5188
1992.2,61.427,-5.5797
2003.9,63.367,-3.7304
2015.6,52.492,-4.9921
2027.3,32.541,-6.2493
2039.1,22.558,-5.7824
2050.8,18.639,-6.0452
2062.5,16.486,-7.2581
2074.2,12.716,-7.7516
2085.9,12.217,-8.1326
2097.7,15.873,-4.7396
2109.4,15.25,-2.4148
2121.1,14.387,-4.6615
2132.8,13.08,-7.3093
2144.5,13.922,-5.6369
2156.3,13.36,-8.1
2168,13.301,-7.4628
2179.7,11.548,-3.4763
2191.4,12.046,-2.813
2203.1,12.127,-4.897
2214.8,9.2668,-5.6677
2226.6,7.7492,-4.8143
2238.3,11.834,-6.4304
2250,13.785,-7.615
2261.7,12.641,-7.575
2273.4,13.286,-7.7757
2285.2,10.314,-9.3645
2296.9,9.8276,-6.2262
2308.6,11.958,-5.9133
2320.3,11.366,-4.921
2332,12.454,-3.9935
2343.8,11.196,-8.7018
2355.5,10.384,-10.972
2367.2,12.487,-6.0556
2378.9,13.063,-4.8473
2390.6,15.799,-8.0254
2402.3,15.526,-8.3314
2414.1,12.617,-9.1865
2425.8,10.548,-8.4834
2437.5,9.2,-6.0545
2449.2,8.929,-6.5691
2460.9,9.0295,-6.1965
2472.7,9.3361,-6.5487
2484.4,9.6606,-6.8596
2496.1,11.123,-6.3241
2507.8,10.155,-7.3333
2519.5,13.132,-5.8869
2531.3,12.624,-5.3805
2543,14.105,-6.1843
2554.7,14.536,-4.1697
2566.4,12.284,-6.9259
2578.1,11.709,-8.6365
2589.8,10.08,-5.7408
2601.6,8.6995,-4.2356
2613.3,11.355,-5.2857
2625,9.967,-7.1553
2636.7,13.016,-6.7074
2648.4,13.852,-6.6514
2660.2,12.52,-6.1222
2671.9,9.5101,-6.3398
2683.6,10.443,-8.6621
2695.3,13.61,-12.028
2707,11.821,-6.9331
2718.8,8.7692,-5.799
2730.5,9.6878,-8.273
2742.2,13.934,-9.5232
2753.9,14.696,-8.8856
2765.6,11.87,-11.591
2777.3,12.576,-8.6855
2789.1,11.351,-6.0801
2800.8,10.094,-8.3681
2812.5,11.67,-8.5518
2824.2,10.056,-5.2567
2835.9,10.518,-8.8864
2847.7,12.919,-9.0698
2859.4,12.256,-7.0056
2871.1,9.7722,-4.4153
2882.8,8.6272,-9.8989
2894.5,8.3073,-10.983
2906.3,10.965,-8.5527
2918,7.2953,-7.9167
2929.7,10.252,-6.9541
2941.4,11.477,-7.6954
2953.1,10.925,-6.6303
2964.8,11.284,-7.4836
2976.6,10.128,-8.4032
2988.3,8.1442,-8.087
3000,11.357,-9.442
3011.7,14.375,-12.537
3023.4,14.989,-10.32
3035.2,11.348,-7.4458
3046.9,10.728,-6.8223
3058.6,13.361,-7.2092
3070.3,10.732,-7.5424
3082,11.616,-8.6353
3093.8,11.622,-6.7721
3105.5,11.024,-8.1493
3117.2,10.59,-8.5349
3128.9,6.8542,-6.1271
3140.6,9.3694,-8.1097
3152.3,10.945,-10.285
3164.1,9.1153,-9.2261
3175.8,9.7936,-10.832
3187.5,10.778,-12.128
3199.2,10.344,-9.7476
3210.9,9.4835,-4.5652
3222.7,9.8338,-3.6852
3234.4,11.726,-8.3884
3246.1,13.449,-6.9596
3257.8,13.868,-5.8343
3269.5,10.835,-5.6226
3281.3,11.584,-7.1033
3293,12.387,-7.6738
3304.7,10.549,-7.6023
3316.4,8.2112,-4.7924
3328.1,7.748,-4.8952
3339.8,8.904,-7.7271
3351.6,10.456,-7.028
3363.3,10.569,-7.5894
3375,8.4197,-10.299
3386.7,8.2888,-8.0633
3398.4,7.4875,-7.5607
3410.2,6.3863,-7.6204
3421.9,9.4269,-7.3962
3433.6,10.227,-7.8545
3445.3,9.1903,-8.0679
3457,11.619,-9.9458
3468.8,11.568,-7.428
3480.5,11.122,-6.2977
3492.2,9.51,-7.0343
3503.9,11.157,-5.6878
3515.6,10.072,-8.2231
3527.3,8.5301,-9.6067
3539.1,10.115,-9.2111
3550.8,11.45,-7.7115
3562.5,9.9841,-7.3455
3574.2,8.2727,-8.3022
3585.9,6.2297,-7.3494
3597.7,10.671,-6.1522
3609.4,10.997,-6.5764
3621.1,9.7282,-9.0438
3632.8,10.615,-8.5481
3644.5,10.657,-8.3993
3656.3,11.199,-8.1498
3668,12.189,-6.4699
3679.7,11.333,-7.4962
3691.4,10.208,-8.8833
3703.1,7.4174,-9.048
3714.8,9.0687,-7.5692
3726.6,11.493,-10.27
3738.3,10.188,-8.5214
3750,8.1393,-8.1303
3761.7,8.7193,-9.7395
3773.4,7.1492,-8.0703
3785.2,6.8944,-5.4776
3796.9,7.2386,-3.9313
3808.6,9.3147,-4.1849
3820.3,11.194,-6.5215
3832,11.328,-6.1676
3843.8,9.3609,-6.8207
3855.5,10.839,-7.444
3867.2,7.5324,-8.196
3878.9,8.0879,-9.0864
3890.6,8.4762,-5.977
3902.3,9.1182,-6.4255
3914.1,7.9243,-7.7076
3925.8,8.0547,-6.7803
3937.5,8.3998,-6.1734
3949.2,11.318,-7.3095
3960.9,10.621,-7.8024
3972.7,7.7968,-9.4153
3984.4,8.2081,-8.8275
3996.1,10.956,-6.762
4007.8,9.7188,-6.9324
4019.5,11.752,-3.8474
4031.3,10.304,-4.3117
4043,10.262,-5.6124
4054.7,9.0031,-7.6631
4066.4,7.0315,-5.6684
4078.1,7.2235,-6.832
4089.8,8.6242,-6.221
4101.6,10.149,-5.363
4113.3,10.674,-5.5491
4125,9.5544,-9.1913
4136.7,7.8089,-8.0677
4148.4,8.9916,-9.9217
4160.2,10.895,-8.1967
4171.9,9.7037,-8.142
4183.6,9.0793,-5.1234
4195.3,7.1931,-3.3004
4207,7.8456,-6.052
4218.8,6.4656,-9.3765
4230.5,6.5203,-9.2503
4242.2,6.3733,-7.1676
4253.9,8.2653,-7.7924
4265.6,10.273,-7.0103
4277.3,10.1,-5.2214
4289.1,7.9873,-6.4805
4300.8,7.4353,-8.7332
4312.5,6.2065,-7.4551
4324.2,5.2798,-9.2958
4335.9,6.0401,-8.3743
4347.7,8.4883,-8.4094
4359.4,10.316,-8.1708
4371.1,9.6471,-6.7582
4382.8,6.2286,-7.6553
4394.5,6.6509,-7.423
4406.3,7.1887,-5.8727
4418,8.4858,-9.4793
4429.7,9.3683,-10.602
4441.4,8.4347,-9.2732
4453.1,5.7871,-6.6504
4464.8,4.3871,-4.4213
4476.6,4.3904,-5.7869
4488.3,6.5238,-7.8514
4500,6.5561,-6.445
4511.7,6.3496,-5.1735
4523.4,7.7974,-7.0931
4535.2,5.7812,-9.483
4546.9,7.2728,-9.7517
4558.6,9.4933,-9.7269
4570.3,7.4556,-7.8868
4582,7.8632,-9.1338
4593.8,9.03,-7.6767
4605.5,10.528,-6.5469
4617.2,10.355,-5.8232
4628.9,9.0932,-7.9655
4640.6,9.5982,-9.5592
4652.3,9.6626,-9.4993
4664.1,8.9646,-9.4288
4675.8,8.9478,-8.0567
4687.5,9.0599,-9.5469
4699.2,9.4826,-8.8316
4710.9,8.0064,-8.5075
4722.7,4.8403,-7.261
4734.4,8.7145,-8.2441
4746.1,8.8193,-9.9678
4757.8,8.9438,-8.2766
4769.5,8.4264,-7.7246
4781.3,8.7373,-8.3973
4793,8.1437,-7.0773
4804.7,9.5468,-9.6575
4816.4,6.6495,-8.5906
4828.1,8.8972,-7.7359
4839.8,8.4591,-11.484
4851.6,8.8816,-8.1043
4863.3,6.7946,-6.9391
4875,8.561,-8.3082
4886.7,8.0365,-8.3035
4898.4,7.6189,-10.093
4910.2,8.0317,-6.631
4921.9,9.5164,-8.6429
4933.6,9.532,-10.789
4945.3,6.9149,-7.9934
4957,8.5184,-5.6523
4968.8,8.4428,-3.6684
4980.5,6.3112,-8.439
4992.2,6.0611,-6.9053
5003.9,5.0475,-7.9874
5015.6,10.245,-9.4823
5027.3,10.727,-11.343
5039.1,7.9066,-11.107
5050.8,8.1154,-7.0257
5062.5,6.4295,-8.5263
5074.2,4.167,-8.4536
5085.9,4.4831,-9.3961
5097.7,0.215,-8.3959
5109.4,3.6307,-7.4682
5121.1,5.6553,-7.548
5132.8,4.233,-10.238
5144.5,2.7379,-10.841
5156.3,6.8096,-11.314
5168,6.7526,-9.5394
5179.7,6.5098,-8.3042
5191.4,8.5268,-7.9356
5203.1,9.2325,-8.8288
5214.8,8.6727,-6.8038
5226.6,6.4656,-7.6117
5238.3,4.91,-7.9372
5250,6.114,-6.4217
5261.7,6.531,-5.6991
5273.4,6.3031,-7.607
5285.2,5.4613,-6.6971
5296.9,8.3483,-6.5921
5308.6,8.2535,-6.1657
5320.3,7.8933,-5.3673
5332,8.7034,-7.9767
5343.8,8.7587,-8.4284
5355.5,8.795,-7.802
5367.2,7.8492,-7.5344
5378.9,6.2322,-9.7339
5390.6,6.1265,-8.9985
5402.3,8.544,-8.1252
5414.1,7.5681,-10.724
5425.8,4.6488,-7.6033
5437.5,7.7249,-8.6244
5449.2,5.6845,-9.5318
5460.9,6.7477,-8.7704
5472.7,7.1287,-6.9991
5484.4,7.5855,-5.7507
5496.1,7.9335,-5.8651
5507.8,5.7689,-7.685
5519.5,5.8726,-8.9595
5531.3,7.4575,-9.2278
5543,5.6919,-12.992
5554.7,4.9383,-5.9884
5566.4,4.9255,-7.3827
5578.1,5.5835,-8.9845
5589.8,6.0444,-7.2751
5601.6,5.9369,-4.609
5613.3,6.3688,-8.1081
5625,5.2673,-8.7923
5636.7,5.4981,-9.033
5648.4,5.9862,-7.9859
5660.2,6.3099,-10.127
5671.9,6.3585,-10.856
5683.6,5.0371,-7.206
5695.3,7.1263,-8.7895
5707,7.8586,-10.88
5718.8,7.7916,-9.3649
5730.5,4.9226,-7.8092
5742.2,5.4859,-9.7166
5753.9,5.2414,-12.461
5765.6,6.9316,-10.175
5777.3,8.0575,-9.1299
5789.1,8.0276,-9.3157
5800.8,6.5988,-10.063
5812.5,1.6697,-10.389
5824.2,3.7426,-11.17
5835.9,5.0134,-11.771
5847.7,6.4505,-8.6016
5859.4,7.9192,-8.5591
5871.1,7.1126,-11.801
5882.8,5.7257,-12.949
5894.5,6.6373,-9.5619
5906.3,6.6652,-8.6021
5918,4.9591,-9.7555
5929.7,6.9093,-9.2627
5941.4,8.487,-9.1793
5953.1,6.4692,-8.0507
5964.8,6.7575,-9.9136
5976.6,6.0603,-10.024
5988.3,4.9233,-8.4559
6000,5.9172,-7.0138
6011.7,5.1822,-7.8834
6023.4,3.2932,-8.5564
6035.2,5.3562,-8.792
6046.9,6.5195,-9.4248
6058.6,6.3482,-9.9428
6070.3,5.4811,-10.364
6082,5.8285,-9.8357
6093.8,5.0119,-8.4198
6105.5,5.258,-7.9194
6117.2,6.9772,-9.5774
6128.9,6.7577,-12.47
6140.6,2.4555,-8.0887
6152.3,5.4626,-9.6176
6164.1,8.1116,-8.7922
6175.8,4.8484,-8.8496
6187.5,3.518,-7.6722
6199.2,6.6556,-6.0172
6210.9,5.9116,-7.2516
6222.7,4.1583,-7.55
6234.4,4.0228,-8.5018
6246.1,5.6556,-6.7529
6257.8,3.5249,-7.8815
6269.5,5.3143,-8.9206
6281.3,7.1068,-7.4256
6293,7.2638,-10.15
6304.7,5.9705,-7.7319
6316.4,4.8628,-6.3047
6328.1,4.0636,-6.2929
6339.8,5.9266,-9.0085
6351.6,5.2435,-10.185
6363.3,4.6092,-7.2813
6375,5.9833,-5.526
6386.7,4.1774,-8.1237
6398.4,4.7693,-9.7263
6410.2,5.0434,-11.252
6421.9,4.1259,-9.2382
6433.6,5.0009,-7.0009
6445.3,3.5362,-8.9332
6457,3.5183,-12.017
6468.8,2.5789,-9.0438
6480.5,4.1348,-10.313
6492.2,5.9155,-8.6771
6503.9,5.1884,-10.415
6515.6,4.2143,-9.5039
6527.3,5.3185,-7.8495
6539.1,5.7545,-8.1899
6550.8,5.0755,-7.1568
6562.5,3.8975,-7.9189
6574.2,5.0974,-10.725
6585.9,6.0076,-7.079
6597.7,5.4336,-8.2468
6609.4,5.2682,-6.8624
6621.1,6.9334,-5.8479
6632.8,3.9175,-7.3114
6644.5,6.1384,-10.617
6656.3,6.5823,-7.9868
6668,2.065,-8.1466
6679.7,3.7058,-3.5997
6691.4,6.2529,-4.5285
6703.1,4.2992,-4.2392
6714.8,1.6463,-7.0672
6726.6,0.47726,-11.083
6738.3,2.9169,-11.476
6750,4.7997,-12.871
6761.7,4.6216,-6.178
6773.4,2.3554,-6.6024
6785.2,3.1397,-10.38
6796.9,4.8224,-10.726
6808.6,4.0791,-11.909
6820.3,3.2694,-8.6502
6832,5.3744,-6.4422
6843.8,3.9002,-11.816
6855.5,3.8706,-13.042
6867.2,3.5588,-11.987
6878.9,5.355,-9.9764
6890.6,7.2912,-9.5374
6902.3,2.3026,-10.746
6914.1,1.0341,-9.9757
6925.8,1.3136,-7.3464
6937.5,1.1027,-7.1934
6949.2,1.7246,-9.2986
6960.9,3.8661,-8.8681
6972.7,3.5365,-9.0917
6984.4,3.495,-9.3984
6996.1,4.079,-9.0978
7007.8,3.0277,-5.9833
7019.5,4.2714,-6.221
7031.3,2.3078,-7.8539
7043,5.3136,-8.3182
7054.7,4.2185,-7.343
7066.4,1.7754,-7.8353
7078.1,3.451,-9.3914
7089.8,5.2565,-8.9679
7101.6,5.4397,-11.037
7113.3,4.4767,-7.1164
7125,5.6974,-8.5877
7136.7,5.0427,-10.293
7148.4,6.1363,-12.284
7160.2,7.5673,-10.105
7171.9,8.3572,-10.31
7183.6,3.8659,-11.532
7195.3,4.2473,-9.1146
7207,3.5121,-9.6718
7218.8,1.4635,-10.013
7230.5,1.7152,-9.0412
7242.2,1.3422,-7.0527
7253.9,4.0434,-7.4828
7265.6,4.5472,-8.0345
7277.3,5.0611,-7.6171
7289.1,3.1404,-8.4214
7300.8,3.4296,-7.5745
7312.5,3.7741,-6.6517
7324.2,-1.282,-7.5952
7335.9,2.9972,-10.275
7347.7,2.7779,-10.194
7359.4,2.497,-7.5163
7371.1,2.7869,-5.8393
7382.8,1.8159,-5.7835
7394.5,1.6567,-8.2662
7406.3,3.1725,-11.072
7418,2.3385,-9.9762
7429.7,-2.0482,-8.8623
7441.4,-1.5121,-13.237
7453.1,0.71013,-10.534
7464.8,6.6284,-9.6335
7476.6,5.025,-8.062
7488.3,4.1438,-9.8468
7500,4.3649,-10.737
7511.7,3.6342,-10.904
7523.4,0.013575,-8.6579
7535.2,2.8536,-8.884
7546.9,5.6021,-6.0981
7558.6,2.8334,-7.9782
7570.3,-0.24304,-9.2077
7582,2.9896,-8.7176
7593.8,2.4378,-10.724
7605.5,3.1455,-11.709
7617.2,4.3327,-10.155
7628.9,5.1149,-8.7049
7640.6,5.2035,-9.4337
7652.3,4.3797,-11.617
7664.1,4.4001,-13.085
7675.8,-0.014736,-13.102
7687.5,-1.5553,-8.2728
7699.2,0.88136,-7.2932
7710.9,-1.0698,-11.922
7722.7,1.002,-10.657
7734.4,-0.050913,-9.227
7746.1,0.59914,-9.5763
7757.8,2.2318,-9.5897
7769.5,1.3743,-10.956
7781.3,1.2793,-12.245
7793,2.3177,-12.424
7804.7,3.5129,-7.7174
7816.4,5.0673,-6.6056
7828.1,4.0784,-7.4599
7839.8,5.2813,-12.568
7851.6,4.2785,-12.184
7863.3,2.189,-10.716
7875,5.3197,-9.9451
7886.7,4.4108,-10.301
7898.4,1.8459,-11.073
7910.2,3.3153,-10.428
7921.9,4.2442,-9.7824
7933.6,2.3814,-10.082
7945.3,4.2496,-8.1108
7957,3.1396,-9.8614
7968.8,0.17723,-6.3533
7980.5,0.86154,-7.2617
7992.2,3.2196,-9.1749
8003.9,1.9809,-9.1234
8015.6,4.6727,-12.346
8027.3,4.6798,-10.03
8039.1,4.972,-10.244
8050.8,4.646,-10.558
8062.5,3.3902,-8.0801
8074.2,-0.62861,-9.4624
8085.9,-3.1984,-10.644
8097.7,-1.2024,-9.2217
8109.4,2.0108,-9.3113
8121.1,1.2616,-7.1483
8132.8,0.16032,-6.2734
8144.5,2.6915,-8.5554
8156.3,1.5832,-10.145
8168,2.8489,-10.1
8179.7,4.2828,-11.138
8191.4,-1.2105,-7.7388
8203.1,-1.5507,-7.5177
8214.8,-1.0553,-11.209
8226.6,-3.3748,-10.293
8238.3,-0.41536,-10.033
8250,-0.64279,-11.468
8261.7,2.3719,-9.9158
8273.4,1.8653,-9.6606
8285.2,-0.62863,-10.168
8296.9,1.1506,-10.55
8308.6,1.9647,-9.9445
8320.3,-2.2706,-9.2884
8332,1.4694,-8.844
8343.8,0.12385,-14.145
8355.5,1.0517,-10.31
8367.2,1.1158,-9.2632
8378.9,3.5228,-9.534
8390.6,3.0164,-7.049
8402.3,3.6507,-10.222
8414.1,2.3668,-14.488
8425.8,-0.11585,-11.69
8437.5,-0.30273,-12.361
8449.2,1.8769,-14.037
8460.9,2.4803,-12.029
8472.7,1.0098,-9.6084
8484.4,1.2589,-11.123
8496.1,2.6138,-11.724
8507.8,3.1364,-12.003
8519.5,2.7744,-10.373
8531.3,3.3959,-9.3107
8543,2.607,-10.575
8554.7,-0.47821,-10.288
8566.4,0.28116,-10.358
8578.1,2.173,-9.0563
8589.8,2.0891,-8.2677
8601.6,2.8002,-8.8564
8613.3,1.0279,-9.5924
8625,-2.1363,-7.8288
8636.7,-0.1456,-7.4033
8648.4,3.4286,-7.4142
8660.2,2.8493,-7.5443
8671.9,2.0339,-9.063
8683.6,1.2079,-9.7949
8695.3,-1.8419,-8.5084
8707,1.5254,-9.1041
8718.8,1.1999,-10.478
8730.5,4.1422,-8.8004
8742.2,3.8003,-8.2984
8753.9,2.8043,-8.888
8765.6,2.0058,-8.266
8777.3,3.3649,-8.131
8789.1,2.4704,-8.2923
8800.8,0.55972,-8.7534
8812.5,0.35316,-6.0534
8824.2,2.2431,-6.9503
8835.9,0.86828,-9.6173
8847.7,2.6974,-10.92
8859.4,2.0315,-10.833
8871.1,-0.73606,-11.018
8882.8,0.018149,-6.6622
8894.5,-1.2887,-7.9734
8906.3,1.6901,-11.259
8918,-0.54257,-8.5767
8929.7,-1.222,-11.405
8941.4,4.6544,-13.482
8953.1,1.2988,-13.238
8964.8,2.0904,-11.991
8976.6,3.2305,-12.621
8988.3,1.1675,-10.709
9000,-0.0090953,-11.393
9011.7,-1.942,-11.951
9023.4,-0.51051,-12.305
9035.2,1.3368,-11.201
9046.9,2.4102,-11.487
9058.6,2.41,-13.626
9070.3,0.80869,-11.312
9082,1.3305,-10.22
9093.8,0.57194,-10.837
9105.5,0.91259,-10.972
9117.2,1.2657,-9.5617
9128.9,-1.5393,-11.392
9140.6,-1.3091,-11.734
9152.3,-0.1547,-9.6762
9164.1,0.35392,-13.211
9175.8,-1.6348,-10.294
9187.5,-1.7928,-10.587
9199.2,-2.201,-7.3837
9210.9,-1.8594,-8.6596
9222.7,-0.70397,-11.719
9234.4,1.3844,-7.9784
9246.1,-0.18248,-8.8482
9257.8,1.8042,-9.3146
9269.5,2.4527,-8.2028
9281.3,-0.8771,-9.1204
9293,-3.3435,-11.104
9304.7,-2.9611,-11.062
9316.4,-3.2581,-13.575
9328.1,-3.576,-12.483
9339.8,2.4905,-11.08
9351.6,2.2766,-9.0066
9363.3,-0.8551,-10.465
9375,-1.5538,-13.116
9386.7,-0.35767,-10.608
9398.4,-1.2135,-10.632
9410.2,-0.9623,-12.056
9421.9,-2.4512,-14.257
9433.6,1.3852,-12.52
9445.3,2.7684,-10.65
9457,2.5836,-10.645
9468.8,1.9681,-12.301
9480.5,-0.0083987,-12.145
9492.2,0.50353,-7.5407
9503.9,0.79339,-7.663
9515.6,-0.2419,-11.554
9527.3,-1.3022,-13.76
9539.1,-3.4841,-11.041
9550.8,-2.2813,-10.286
9562.5,2.5157,-11.728
9574.2,3.6072,-12.48
9585.9,0.5296,-11.991
9597.7,-0.0038293,-12.669
9609.4,-1.08,-12.007
9621.1,-0.53214,-11.35
9632.8,-1.0902,-11.373
9644.5,2.3617,-10.645
9656.3,2.2263,-10.592
9668,0.27964,-9.0611
9679.7,1.7273,-10.271
9691.4,1.1275,-12.647
9703.1,1.5848,-13.777
9714.8,-0.39429,-12.144
9726.6,-1.6701,-10.199
9738.3,-2.7112,-9.4681
9750,1.2125,-9.9616
9761.7,3.6261,-8.5222
9773.4,4.3558,-9.4695
9785.2,1.3145,-10.881
9796.9,-1.8259,-9.5179
9808.6,1.0419,-8.8328
9820.3,1.5579,-12.132
9832,1.2881,-11.112
9843.8,-0.23212,-14.315
9855.5,-0.68947,-13.703
9867.2,-1.7667,-9.7544
9878.9,-2.9578,-12.882
9890.6,-1.1858,-9.9081
9902.3,1.0778,-11.896
9914.1,-2.9056,-13.66
9925.8,-2.5466,-11.653
9937.5,-3.0559,-12.988
9949.2,-3.1378,-11.269
9960.9,-3.3267,-10.669
9972.7,-1.4319,-11.654
9984.4,-0.4902,-11.932
9996.1,-0.89428,-14.364
10008,0.027881,-11.002
10020,-1.4062,-10.048
10031,-1.4735,-8.8284
10043,2.6254,-10.587
10055,1.7805,-14.013
10066,1.0378,-12.696
10078,-3.0155,-11.172
10090,-4.7566,-9.4854
10102,-1.4931,-7.2701
10113,0.6502,-8.9648
10125,-1.7819,-11.583
10137,-3.4293,-11.347
10148,-1.5721,-12.85
10160,-0.5729,-11.962
10172,1.0041,-11.077
10184,0.45189,-12.06
10195,-0.67932,-13.184
10207,2.387,-11.256
10219,2.7288,-10.534
10230,-5.2672,-11.6
10242,-2.009,-9.9019
10254,0.65851,-10.826
10266,3.1893,-15.202
10277,3.1913,-11.988
10289,0.20684,-8.5221
10301,-0.89623,-9.4398
10313,1.0582,-9.3798
10324,0.31316,-11.514
10336,-1.0375,-13.127
10348,0.19323,-11.102
10359,-0.69235,-10.82
10371,-3.0964,-10.556
10383,-3.2505,-12.359
10395,-0.76847,-14.677
10406,0.14594,-13.818
10418,-0.30097,-13.487
10430,0.493,-12.91
10441,1.6865,-9.7962
10453,2.1166,-10.531
10465,2.3447,-10.611
10477,-0.62119,-10.8
10488,-1.4619,-10.443
10500,-1.1554,-11.749
10512,0.69774,-12.291
10523,-0.63845,-13.97
10535,-2.6622,-13.154
10547,0.49165,-13.85
10559,-1.6635,-12.392
10570,-0.47118,-11.175
10582,-0.87612,-10.747
10594,-2.6824,-11.883
10605,-0.67146,-9.4616
10617,1.1649,-10.117
10629,0.84734,-12.356
10641,0.085924,-12.423
10652,-1.6034,-14.063
10664,-2.2795,-14.716
10676,-0.46487,-15.175
10688,-0.086344,-12.921
10699,-0.037694,-9.0039
10711,0.094545,-7.7021
10723,-1.5995,-9.721
10734,0.40238,-10.944
10746,0.59801,-11.178
10758,-3.2596,-11.344
10770,-2.8163,-12.221
10781,-0.38936,-10.874
10793,-0.39989,-12.95
10805,-2.0795,-11.17
10816,-1.3142,-11.398
10828,-0.61699,-13.314
10840,-3.2193,-11.904
10852,-0.041777,-13.131
10863,0.1615,-12.647
10875,-2.2033,-11.957
10887,-1.8247,-13.548
10898,0.11831,-13.42
10910,2.173,-14.311
10922,0.4708,-14.006
10934,-3.2744,-9.5917
10945,-1.3803,-11.972
10957,0.0024859,-15.264
10969,-1.5509,-14.578
10980,-2.8283,-12.58
10992,-1.7003,-10.269
11004,-3.9012,-8.246
11016,-1.7878,-9.4057
11027,-0.92856,-10.309
11039,0.64897,-10.026
11051,-1.0759,-11.652
11063,-1.2602,-15.209
11074,-2.1779,-16.559
11086,-2.2173,-14.019
11098,-3.4928,-13.574
11109,-2.6488,-13.028
11121,-2.8475,-13.864
11133,0.067014,-13.081
11145,-0.34689,-8.3769
11156,-2.7542,-10.871
11168,-1.6788,-14.947
11180,-2.0864,-12.341
11191,-3.1368,-11.758
11203,-1.473,-12.149
11215,-2.9171,-13.093
11227,-1.4175,-11.507
11238,0.48942,-13.558
11250,-0.91265,-12.978
11262,-1.0712,-9.9769
11273,-0.34054,-10.835
11285,-2.2608,-11.916
11297,-5.5,-16.528
11309,-3.7625,-11.462
11320,0.5263,-10.595
11332,-1.0114,-11.752
11344,-3.21,-11.859
11355,-2.5037,-10.614
11367,-0.43435,-11.426
11379,-1.2885,-11.561
11391,0.16621,-10.508
11402,-0.27594,-11.323
11414,-0.22005,-11.565
11426,-2.1879,-14.337
11438,-1.1286,-11.75
11449,-4.3238,-14.658
11461,-4.9029,-14.088
11473,-1.6582,-12.84
11484,-0.49257,-12.881
11496,1.6953,-15.569
11508,0.44607,-16.46
11520,-3.7441,-15.011
11531,-2.3862,-14.882
11543,-2.0578,-11.849
11555,0.87151,-9.2588
11566,0.016472,-10.271
11578,-2.4138,-11.913
11590,-2.2537,-9.13
11602,-1.1232,-11.129
11613,-1.8022,-13.067
11625,-2.4812,-11.7
11637,-2.3658,-9.7053
11648,0.45465,-9.8992
11660,0.84562,-12.147
11672,-3.3663,-13.296
11684,-0.10638,-14.69
11695,-3.0013,-13.665
11707,-7.8604,-13.289
11719,-1.6143,-9.8256
11730,-1.2563,-8.7327
11742,-3.6475,-11.055
11754,-5.4409,-13.96
11766,-2.7018,-13.2
11777,-0.13409,-13.741
11789,-0.39308,-12.625
11801,-0.67582,-13.029
11813,-1.4881,-12.481
11824,-3.4211,-16.281
11836,-5.1523,-15.733
11848,-1.4203,-14.027
11859,-5.6867,-11.929
11871,-3.8255,-13.592
11883,-4.1264,-14.101
11895,-2.9062,-13.976
11906,-2.9505,-12.128
11918,-2.1598,-12.914
11930,-2.4042,-11.711
11941,-1.4183,-12.584
11953,-3.9511,-15.181
11965,-2.7491,-13.239
11977,-2.7905,-11.803
11988,-2.9506,-11.892
12000,-2.8855,-11.796
12012,-2.2322,-10.402
12023,-2.5738,-10.006
12035,-0.14084,-9.9456
12047,0.10365,-10.416
12059,-2.9076,-12.53
12070,-1.8808,-16.042
12082,-0.85375,-12.471
12094,-2.7328,-13.455
12105,-4.8836,-12.943
12117,-2.5656,-12.978
12129,-1.4438,-13.295
12141,-2.4585,-14.763
12152,-2.775,-13.633
12164,-1.6861,-17.169
12176,-2.9112,-16.306
12188,-4.3576,-13.769
12199,-2.3902,-13.834
12211,-2.873,-13.837
12223,-3.0737,-16.167
12234,-0.72758,-15.287
12246,1.3537,-12.427
12258,-3.9108,-12.973
12270,-2.1321,-15.322
12281,-4.4073,-15.526
12293,-3.4983,-13.193
12305,-1.3971,-10.25
12316,-2.5164,-9.903
12328,-2.0629,-12.357
12340,-2.112,-13.33
12352,-3.5244,-11.281
12363,-0.51778,-14.781
12375,0.62671,-13.29
12387,-2.2554,-13.182
12398,-5.6058,-13.301
12410,-1.7755,-13.542
12422,-2.2518,-15.72
12434,-2.603,-12.402
12445,-0.47699,-11.554
12457,-0.54078,-10.113
12469,-4.5364,-12.092
12480,-3.0433,-11.431
12492,-3.4786,-13.197
12504,-3.1788,-14.737
12516,-4.6873,-12.756
12527,-4.1633,-10.586
12539,-1.8351,-10.616
12551,-5.2914,-11.801
12563,-4.6753,-14.168
12574,-5.3338,-17.574
12586,-3.0109,-13.466
12598,-3.7767,-12.256
12609,-2.5083,-14.195
12621,-1.4134,-16.852
12633,-0.53175,-13.355
12645,1.2416,-9.6608
12656,-1.5803,-12.387
12668,-5.2737,-15.662
12680,-6.1436,-13.191
12691,-4.6686,-12.244
12703,-2.8385,-16.745
12715,-1.6461,-15.863
12727,-3.8113,-14.278
12738,-7.0725,-13.363
12750,-4.3608,-14.556
12762,-2.9173,-17.053
12773,-0.259,-16.147
12785,1.0076,-12.696
12797,-0.98616,-12.025
12809,-2.3374,-13.373
12820,0.23307,-12.798
12832,-2.0939,-9.6499
12844,-3.3899,-8.5572
12855,-2.5933,-11.497
12867,-5.3675,-14.68
12879,-5.1539,-13.307
12891,-2.9079,-12.854
12902,-2.6728,-13.852
12914,-3.85,-14.623
12926,-4.1044,-13.03
12938,-1.0033,-12.432
12949,-2.7068,-12.002
12961,-4.5241,-12.274
12973,-4.9,-12.69
12984,-3.8069,-13.002
12996,-2.329,-10.77
13008,-2.8212,-11.389
13020,-3.9652,-12.179
13031,-5.2439,-13.185
13043,-3.1802,-11.112
13055,-2.0864,-11.453
13066,-5.7697,-13.639
13078,-3.5298,-12.818
13090,-0.87324,-13.695
13102,-2.5823,-16.329
13113,-6.4338,-15.539
13125,-4.3016,-12.834
13137,-5.8698,-12.945
13148,-5.0629,-14.422
13160,-1.1054,-14.189
13172,1.0247,-11.664
13184,-2.8631,-12.764
13195,-5.4471,-16.616
13207,-4.1089,-17.133
13219,-3.0893,-13.964
13230,-6.2459,-12.387
13242,-3.4275,-13.502
13254,-0.53837,-11.199
13266,-2.727,-10.844
13277,-5.909,-11.188
13289,-2.9879,-14.361
13301,-5.2867,-11.561
13313,-3.2663,-11.256
13324,0.4194,-12.007
13336,-0.77208,-15.384
13348,-1.7668,-15.913
13359,-6.7337,-13.477
13371,-4.2956,-13.654
13383,-2.9333,-13.874
13395,-5.6067,-11.241
13406,-4.4636,-10.709
13418,-2.2784,-12.418
13430,-0.59595,-12.905
13441,-1.9775,-11.432
13453,-5.9801,-12.97
13465,-6.922,-12.51
13477,-3.0526,-12.162
13488,-6.2732,-13.687
13500,-3.3808,-13.503
13512,-1.6891,-12.549
13523,-3.2909,-14.186
13535,-5.2334,-15.114
13547,-3.3123,-12.399
13559,-5.5186,-13.32
13570,-5.6112,-14.798
13582,-3.06,-13.868
13594,-3.0675,-11.689
13605,-4.4635,-13.587
13617,-4.285,-14.216
13629,-4.8531,-12.607
13641,-6.5394,-12.234
13652,-4.1559,-14.98
13664,-5.6301,-13.748
13676,-4.4505,-12.955
13688,-2.858,-12.003
13699,-0.31684,-11.125
13711,-0.98797,-11.958
13723,-2.88,-15.725
13734,-1.6428,-15.717
13746,-2.5301,-13.464
13758,-4.4641,-14.067
13770,-5.5911,-16.243
13781,-4.6108,-13.587
13793,-3.2123,-11.81
13805,-2.6343,-12.74
13816,-3.1412,-12.363
13828,-2.7881,-14.253
13840,-3.8649,-15.614
13852,-6.9724,-16.447
13863,-9.0841,-15.104
13875,-2.8459,-14.265
13887,-1.1216,-14.864
13898,-3.919,-15.611
13910,-4.8727,-17.174
13922,-1.1505,-16.66
13934,-3.8739,-13.439
13945,-4.1037,-13.733
13957,-3.9881,-15.131
13969,-4.6745,-14.986
13980,-6.4209,-14.937
13992,-2.5958,-13.302
14004,-1.1865,-14.578
14016,-7.5633,-15.346
14027,-6.5983,-12.397
14039,-5.2031,-14.645
14051,-4.1658,-14.451
14063,-5.2878,-16.387
14074,-3.5118,-15.478
14086,-2.7845,-14.895
14098,-5.7688,-13.914
14109,-6.589,-14.463
14121,-4.2682,-15.56
14133,-6.6314,-14.568
14145,-6.1387,-13.135
14156,-9.1641,-14.238
14168,-7.7853,-14.394
14180,-4.0986,-13.802
14191,-4.0657,-15.65
14203,-4.4938,-16.493
14215,-3.5521,-13.934
14227,-7.221,-14.06
14238,-7.1812,-14.932
14250,-4.7357,-14.25
14262,-2.6553,-14.322
14273,-5.2095,-14.608
14285,-3.9091,-14.802
14297,-3.9465,-15.007
14309,-5.7033,-15.801
14320,-3.924,-15.319
14332,-7.6543,-15.15
14344,-4.6553,-17.31
14355,-4.3168,-15.154
14367,-2.824,-15.334
14379,-5.3494,-15.475
14391,-7.5859,-17.952
14402,-5.2108,-17.498
14414,-3.1985,-13.12
14426,-1.4158,-14.583
14438,-0.92694,-15.949
14449,-5.3609,-13.986
14461,-4.1199,-13.455
14473,-3.1323,-11.391
14484,-2.7663,-11.566
14496,-3.1409,-13.917
14508,-5.6663,-13.345
14520,-6.0593,-13.7
14531,-5.0401,-15.022
14543,-2.0121,-16.651
14555,-1.4649,-16.88
14566,-4.4293,-14.964
14578,-3.0285,-12.922
14590,-3.8867,-11.643
14602,-4.7957,-11.694
14613,-6.1467,-13.43
14625,-2.805,-12.985
14637,-2.4933,-17.718
14648,-5.2662,-13.618
14660,-4.7443,-14.944
14672,-3.9033,-16.949
14684,-1.4594,-13.809
14695,-1.0285,-13.907
14707,-4.2781,-14.627
14719,-4.4414,-13.513
14730,-4.9962,-13.065
14742,-9.2151,-13.271
14754,-4.7915,-14.969
14766,-5.325,-14.725
14777,-8.0602,-17.015
14789,-5.8562,-14.71
14801,-5.2508,-11.757
14813,-3.0109,-12.42
14824,-5.2373,-14.746
14836,-3.2566,-12.881
14848,-6.0449,-14.997
14859,-5.2733,-18.037
14871,-5.8624,-18.037
14883,-5.2229,-17.015
14895,-3.5071,-18.49
14906,-3.064,-13.312
14918,-3.7526,-12.543
14930,-3.4953,-14.094
14941,-4.3044,-16.306
14953,-4.2744,-14.57
14965,-2.0679,-14.259
14977,-0.59158,-14.491
14988,-4.6659,-13.579
15000,-6.554,-14.714
15012,-7.3237,-14.927
15023,-7.3132,-15.184
15035,-6.764,-15.287
15047,-6.5093,-12.91
15059,-10.61,-13.042
15070,-8.3661,-16.006
15082,-5.173,-15.418
15094,-3.6677,-13.853
15105,-3.6299,-14.257
15117,-3.9704,-14.412
15129,-6.0513,-15.552
15141,-7.0257,-17.223
15152,-8.7541,-15.967
15164,-8.2808,-16.733
15176,-3.9613,-15.03
15188,-6.454,-14.908
15199,-6.3718,-15.052
15211,-4.0156,-18.507
15223,-4.4888,-17.881
15234,-4.6197,-16.914
15246,-4.462,-15.861
15258,-9.0022,-13.839
15270,-8.5919,-12.981
15281,-8.3848,-13.242
15293,-7.2228,-13.602
15305,-7.9488,-12.635
15316,-5.3856,-13.707
15328,-4.6934,-13.85
15340,-9.1564,-14.102
15352,-9.3157,-15.76
15363,-10.416,-15.381
15375,-6.9683,-15.026
15387,-2.9105,-14.556
15398,-3.5137,-17.293
15410,-6.4826,-15.865
15422,-7.1153,-14.051
15434,-5.2753,-13.239
15445,-5.5728,-13.116
15457,-7.0306,-12.249
15469,-5.956,-12.827
15480,-6.7339,-17.257
15492,-10.762,-17.42
15504,-5.6187,-18.612
15516,-3.5425,-16.538
15527,-4.8026,-14.601
15539,-4.2096,-15.071
15551,-5.593,-16.334
15563,-9.907,-15.479
15574,-8.6026,-17.218
15586,-6.9411,-14.34
15598,-6.1708,-15.152
15609,-9.7164,-19.374
15621,-9.2703,-18.413
15633,-7.8946,-15.483
15645,-7.6412,-15.394
15656,-8.1949,-13.786
15668,-6.1815,-13.05
15680,-6.6266,-15.129
15691,-9.9295,-15.147
15703,-9.4055,-14.458
15715,-9.7496,-13.517
15727,-8.9426,-15.645
15738,-10.526,-14.859
15750,-10.551,-15.062
15762,-8.2559,-15.234
15773,-7.2771,-12.455
15785,-8.2411,-13.337
15797,-7.1842,-15.762
15809,-7.3515,-16.33
15820,-7.5553,-17.351
15832,-5.4815,-20.042
15844,-5.9393,-19.017
15855,-8.9777,-18.512
15867,-7.7203,-15.503
15879,-7.7486,-12.298
15891,-6.0863,-13.936
15902,-7.3394,-16.453
15914,-6.3354,-13.13
15926,-7.1546,-12.888
15938,-9.5245,-12.695
15949,-8.5155,-11.816
15961,-7.7365,-15.319
15973,-7.0669,-13.245
15984,-6.8736,-14.581
15996,-5.7735,-16.742
16008,-7.0669,-14.951
16020,-5.7433,-14.765
16031,-4.406,-15.015
16043,-6.466,-13.803
16055,-8.0989,-14.299
16066,-6.4835,-15.457
16078,-11.864,-17.92
16090,-14.522,-14.706
16102,-12.98,-14.988
16113,-9.1186,-17.898
16125,-8.3012,-13.756
16137,-9.9353,-11.924
16148,-9.8259,-13.886
16160,-8.4375,-12.753
16172,-9.0231,-13.235
16184,-8.2583,-16.046
16195,-8.8747,-18.017
16207,-6.5843,-17.914
16219,-5.9054,-17.17
16230,-8.9736,-16.898
16242,-7.2191,-16.644
16254,-6.7015,-15.725
16266,-8.1787,-18.047
16277,-7.8555,-16.448
16289,-7.017,-16.756
16301,-8.3841,-17.479
16313,-7.0285,-15.41
16324,-6.84,-14.84
16336,-8.7687,-14.832
16348,-9.3663,-14.812
16359,-6.3297,-16.737
16371,-6.813,-17.487
16383,-7.0969,-16.518
16395,-8.3219,-15.408
16406,-9.5841,-14.182
16418,-9.6307,-14.593
16430,-8.8107,-14.529
16441,-11.875,-17.984
16453,-9.5016,-20.794
16465,-7.1419,-15.698
16477,-7.9636,-14.452
16488,-9.7152,-14.927
16500,-10.859,-17.103
16512,-11.441,-18.099
16523,-9.8815,-15.493
16535,-8.2819,-16.007
16547,-7.5484,-17.841
16559,-7.4585,-14.79
16570,-9.815,-16.885
16582,-10.439,-19.258
16594,-10.78,-17.66
16605,-12.176,-17.09
16617,-10.593,-17.929
16629,-8.3462,-19.206
16641,-6.7514,-17.952
16652,-7.92,-15.51
16664,-7.5803,-13.242
16676,-8.1083,-14.167
16688,-8.5504,-14.296
16699,-10.179,-15.769
16711,-11.475,-17.191
16723,-6.172,-16.935
16734,-7.111,-17.02
16746,-8.5059,-17.663
16758,-9.0624,-15.116
16770,-7.5009,-13.165
16781,-8.9802,-13.524
16793,-6.5612,-16.029
16805,-4.8512,-16.26
16816,-7.3036,-14.979
16828,-8.286,-19.953
16840,-10.17,-16.643
16852,-6.9577,-14.066
16863,-12.387,-15.393
16875,-10.157,-15.85
16887,-11.015,-15.107
16898,-11.529,-15.62
16910,-8.5721,-17.423
16922,-8.8918,-14.375
16934,-10.48,-13.392
16945,-11.05,-16.054
16957,-11.978,-16.615
16969,-11.481,-15.101
16980,-11.249,-18.162
16992,-9.5657,-15.485
17004,-8.514,-15.689
17016,-10.816,-20.367
17027,-11.589,-17.46
17039,-10.156,-13.141
17051,-8.8995,-13.582
17063,-8.8153,-15.049
17074,-10,-12.423
17086,-13.53,-12.103
17098,-9.1031,-18.372
17109,-10.171,-14.528
17121,-12.826,-13.87
17133,-10.971,-14.657
17145,-7.5312,-17.133
17156,-7.124,-16.598
17168,-10.17,-16.795
17180,-9.8602,-15.882
17191,-10.917,-17.823
17203,-11.771,-19.986
17215,-13.455,-16.942
17227,-9.957,-15.384
17238,-11.584,-16.11
17250,-8.7726,-14.219
17262,-10.111,-15.794
17273,-11.951,-17.463
17285,-12.347,-16.63
17297,-11.265,-13.44
17309,-12.447,-11.741
17320,-14.019,-13.164
17332,-10.974,-16.694
17344,-8.9215,-16.789
17355,-10.008,-19.425
17367,-12.746,-17.536
17379,-11.024,-16.468
17391,-7.2268,-17.183
17402,-5.8958,-18.645
17414,-9.0347,-16.656
17426,-11.056,-16.543
17438,-8.6915,-15.585
17449,-9.47,-13.884
17461,-10.59,-13.216
17473,-11.197,-14.931
17484,-11.141,-15.119
17496,-12.461,-14.787
17508,-14.209,-17.094
17520,-10.342,-16.942
17531,-8.7493,-17.763
17543,-11.501,-17.217
17555,-9.8683,-19.327
17566,-10.171,-14.646
17578,-8.8178,-15.287
17590,-7.8449,-19.064
17602,-12.252,-14.911
17613,-11.116,-14.858
17625,-8.3837,-15.154
17637,-6.9663,-16.04
17648,-7.4012,-17.029
17660,-9.8305,-16.266
17672,-9.8638,-13.057
17684,-10.232,-16.296
17695,-10.926,-17.696
17707,-9.7417,-17.427
17719,-9.1792,-15.362
17730,-11.25,-16.928
17742,-10.589,-14.599
17754,-10.427,-16.839
17766,-12.469,-16.632
17777,-11.236,-15.591
17789,-8.3693,-17.82
17801,-9.2407,-19.014
17813,-11.83,-20.068
17824,-13.752,-18.431
17836,-8.9835,-15.972
17848,-6.7162,-16.14
17859,-8.413,-18.687
17871,-11.254,-20.456
17883,-13.75,-16.489
17895,-12.163,-14.319
17906,-12.012,-16.604
17918,-11.008,-18.003
17930,-10.966,-16.045
17941,-12.561,-16.366
17953,-12.566,-14.702
17965,-10.728,-12.469
17977,-9.3788,-13.15
17988,-10.452,-13.215
18000,-9.6268,-11.822
18012,-10.463,-13.462
18023,-9.4192,-15.461
18035,-10.354,-20.098
18047,-13.187,-15.764
18059,-11.463,-12.94
18070,-11.014,-16.275
18082,-12.64,-21.16
18094,-13.102,-20.983
18105,-12.281,-19.644
18117,-11.013,-16.324
18129,-11.094,-17.464
18141,-11.906,-18.088
18152,-9.1255,-16.729
18164,-9.4717,-15.725
18176,-8.3289,-15.875
18188,-9.9043,-18.007
18199,-11.6,-15.687
18211,-11.702,-15.464
18223,-9.9598,-18.169
18234,-13.325,-18.773
18246,-10.579,-18.28
18258,-8.2835,-17.554
18270,-8.6064,-19.341
18281,-8.1222,-20.927
18293,-10.133,-17.852
18305,-14.254,-16.335
18316,-12.1,-17.633
18328,-12.063,-17.049
18340,-14.444,-19.795
18352,-12.775,-20.791
18363,-12.647,-19.199
18375,-12.799,-16.562
18387,-9.7892,-13.813
18398,-11.538,-13.912
18410,-12.124,-15.27
18422,-13.634,-18.313
18434,-10.745,-19.343
18445,-12.355,-19.002
18457,-12.823,-19.277
18469,-15.127,-18.182
18480,-13.352,-20.527
18492,-11.481,-15.699
18504,-11.357,-14.063
18516,-9.8653,-19.434
18527,-8.8891,-18.736
18539,-10.051,-16.126
18551,-13.134,-17.813
18563,-14.461,-16.562
18574,-11.957,-19.47
18586,-10.981,-19.181
18598,-10.901,-17.443
18609,-16.359,-18.41
18621,-14.028,-20.004
18633,-11.173,-17.375
18645,-10.041,-16.438
18656,-9.454,-16.551
18668,-11.802,-17.008
18680,-11.86,-18.442
18691,-12.561,-17.614
18703,-11.743,-15.255
18715,-9.4551,-16.789
18727,-10.246,-18.501
18738,-14.493,-17.752
18750,-11.665,-18.23
18762,-12.378,-18.818
18773,-13.403,-17.486
18785,-10.681,-18.471
18797,-7.0296,-18.834
18809,-8.2231,-16.512
18820,-11.376,-17.864
18832,-12.45,-20.95
18844,-10.229,-17.558
18855,-12.451,-17.856
18867,-15.379,-19.27
18879,-14.273,-19.705
18891,-11.301,-17.395
18902,-13.17,-18.891
18914,-14.621,-19.448
18926,-15.106,-17.303
18938,-11.604,-16.063
18949,-10.532,-16.07
18961,-9.8218,-15.086
18973,-10.994,-14.57
18984,-12.621,-14.131
18996,-14.076,-16.772
19008,-14.212,-19.874
19020,-12.33,-18.056
19031,-12.973,-16.756
19043,-16.734,-17.034
19055,-16.402,-18.333
19066,-13.744,-19.376
19078,-13.445,-17.576
19090,-11.933,-17.924
19102,-9.8165,-19.213
19113,-10.336,-17.842
19125,-11.689,-17.08
19137,-14.492,-16.49
19148,-13.126,-19.952
19160,-10.046,-18.638
19172,-10.344,-16.091
19184,-11.83,-15.457
19195,-12.605,-17.907
19207,-16.457,-18.879
19219,-13.026,-17.734
19230,-10.74,-19.588
19242,-11.28,-17.405
19254,-11.805,-16.379
19266,-11.762,-17.359
19277,-13.023,-21.661
19289,-18.973,-21.897
19301,-15.804,-20.794
19313,-12.854,-18.873
19324,-12.011,-17.084
19336,-11.273,-15.867
19348,-17.637,-16.647
19359,-12.142,-17.783
19371,-12.051,-17.94
19383,-13.423,-17.286
19395,-15.528,-19.651
19406,-15.894,-17.475
19418,-13.875,-17.557
19430,-12.065,-19.358
19441,-12.813,-18.032
19453,-13.001,-18.413
19465,-14.491,-17.075
19477,-14.39,-15.068
19488,-15.125,-14.97
19500,-14.393,-18.498
19512,-15.036,-20.457
19523,-12.434,-22.49
19535,-12.251,-18.766
19547,-12.431,-16.024
19559,-12.788,-14.807
19570,-12.705,-13.78
19582,-14.135,-13.018
19594,-15.376,-16.512
19605,-12.115,-18.667
19617,-14.332,-17.494
19629,-15.483,-18.517
19641,-16.089,-20.306
19652,-16.951,-17.891
19664,-14.45,-18.841
19676,-15.524,-18.829
19688,-14.2,-21.137
19699,-15.091,-19.79
19711,-12.536,-19.766
19723,-11.729,-18.641
19734,-11.604,-15.923
19746,-11.676,-15.664
19758,-12.836,-17.627
19770,-12.907,-16.31
19781,-14.417,-16.93
19793,-14.642,-20.338
19805,-14.909,-18.878
19816,-15.006,-16.975
19828,-15.333,-20.307
19840,-16.099,-16.876
19852,-14.658,-16.893
19863,-13.206,-18.422
19875,-12.56,-18.266
19887,-12.952,-16.462
19898,-13.794,-17.794
19910,-15.28,-18.09
19922,-14.387,-18.87
19934,-13.459,-18.521
19945,-14.311,-17.176
19957,-12.351,-17.675
19969,-12.995,-20.262
19980,-17.92,-19.21
19992,-19.737,-16.07
20004,-18.646,-15.256
20016,-18.244,-14.286
20027,-13.567,-16.257
20039,-11.813,-17.374
20051,-11.267,-16.663
20063,-12.98,-18.208
20074,-14.395,-17.617
20086,-11.23,-19.529
20098,-13.233,-20.132
20109,-14.218,-18.52
20121,-14.73,-18.543
20133,-12.545,-18.458
20145,-12.456,-14.535
20156,-13.434,-16.56
20168,-13.629,-21.678
20180,-11.775,-21.435
20191,-15.483,-17.556
20203,-14.155,-16.425
20215,-14.019,-17.418
20227,-14.053,-18.284
20238,-12.282,-17.637
20250,-12.89,-17.939
20262,-13.135,-18.085
20273,-15.656,-18.183
20285,-12.96,-17.864
20297,-11.027,-17.266
20309,-10.459,-18.8
20320,-13.227,-19.712
20332,-13.963,-16.195
20344,-15.981,-15.452
20355,-14.117,-16.933
20367,-12.041,-17.386
20379,-13.939,-17.78
20391,-13.462,-18.58
20402,-13.012,-16.19
20414,-15.381,-15.346
20426,-16.42,-16.804
20438,-18.052,-20.605
20449,-15.838,-20.154
20461,-13.776,-19.405
20473,-11.159,-19.171
20484,-13.963,-18.765
20496,-17.235,-20.179
20508,-15.938,-21.48
20520,-15.419,-20.197
20531,-16.433,-18.883
20543,-14.46,-19.344
20555,-14.058,-19.635
20566,-14.986,-19.893
20578,-16.735,-19.83
20590,-13.769,-19.888
20602,-16.104,-19.821
20613,-15.356,-17.603
20625,-19.853,-20.363
20637,-14.428,-22.329
20648,-14.711,-19.449
20660,-13.468,-20.432
20672,-14.878,-20.608
20684,-16.907,-18.621
20695,-17.411,-16.692
20707,-15.581,-17.251
20719,-11.748,-17.002
20730,-11.744,-18.029
20742,-13.269,-20.678
20754,-13.911,-19.185
20766,-16.122,-18.426
20777,-15.29,-18.994
20789,-16.084,-20.627
20801,-15.459,-17.206
20813,-13.266,-16.555
20824,-12.544,-17.568
20836,-14.557,-16.191
20848,-16.306,-17.503
20859,-14.077,-17.146
20871,-13.548,-16.677
20883,-15.032,-17.014
20895,-16.131,-15.916
20906,-15.956,-16.134
20918,-17.224,-18.3
20930,-17.64,-20.196
20941,-15.768,-19.211
20953,-14.29,-19.241
20965,-15.921,-19.821
20977,-15.994,-21.943
20988,-16.058,-20.079
21000,-12.684,-16.957
21012,-14.831,-18.668
21023,-15.982,-24.707
21035,-14.236,-16.689
21047,-14.962,-15.806
21059,-16.058,-19.169
21070,-17.57,-23.654
21082,-12.838,-20.822
21094,-13.298,-19.444
21105,-12.596,-18.704
21117,-12.995,-16.605
21129,-13.155,-18.664
21141,-15.749,-20.007
21152,-14.903,-17.907
21164,-13.944,-18.469
21176,-14.092,-21.93
21188,-13.387,-20.8
21199,-14.164,-19.659
21211,-13.258,-21.225
21223,-13.477,-19.379
21234,-14.857,-18.399
21246,-16.237,-22.735
21258,-15.958,-21.631
21270,-14.513,-22.371
21281,-14.179,-21.284
21293,-16.245,-19.695
21305,-15.82,-17.875
21316,-13.097,-18.763
21328,-13.399,-20.58
21340,-14.519,-19.872
21352,-12.854,-16.983
21363,-13.927,-17.404
21375,-14.798,-18.488
21387,-14.626,-17.872
21398,-16.704,-16.746
21410,-16.209,-16.178
21422,-17.153,-20.433
21434,-14.648,-20.695
21445,-14.904,-19.396
21457,-13.671,-18.033
21469,-15.35,-18.269
21480,-19.348,-19.531
21492,-17.511,-19.283
21504,-16.291,-18.855
21516,-14.094,-18.376
21527,-14.229,-16.01
21539,-16.558,-19.325
21551,-17.41,-21.149
21563,-18.499,-17.521
21574,-19.616,-17.039
21586,-19.071,-18.999
21598,-19.232,-20.889
21609,-19.246,-20.809
21621,-16.054,-20.363
21633,-15.254,-18.122
21645,-15.267,-18.084
21656,-15.713,-21.389
21668,-18.269,-22.031
21680,-19.817,-21.96
21691,-16.622,-17.991
21703,-14.914,-17.965
21715,-15.749,-18.74
21727,-16.811,-19.665
21738,-18.541,-22.37
21750,-18.222,-19.288
21762,-17.748,-20.71
21773,-13.764,-17.688
21785,-13.815,-18.39
21797,-16.169,-19.248
21809,-17.709,-17.592
21820,-17.693,-18.462
21832,-14.739,-18.438
21844,-15.007,-22.601
21855,-16.279,-20.435
21867,-16.165,-17.448
21879,-16.908,-19.409
21891,-16.755,-19.794
21902,-16.666,-19.895
21914,-16.334,-20.724
21926,-17.105,-19.884
21938,-15.254,-20.134
21949,-15.424,-23.701
21961,-14.908,-22.035
21973,-14.265,-17.927
21984,-16.81,-17.083
21996,-16.063,-13.644
22008,-17.387,-14.611
22020,-16.836,-21.128
22031,-17.744,-22.001
22043,-16.213,-19.685
22055,-17.951,-19.2
22066,-17.994,-19.647
22078,-19.448,-20.67
22090,-18.276,-20.201
22102,-17.289,-21.466
22113,-16.886,-23.681
22125,-12.807,-19.661
22137,-14.748,-18.581
22148,-19.056,-21.096
22160,-18.543,-21.766
22172,-17.296,-21.482
22184,-18.699,-21.277
22195,-18.114,-19.698
22207,-18.515,-20.645
22219,-17.683,-21.971
22230,-16.751,-20.311
22242,-18.481,-20.287
22254,-15.125,-17.064
22266,-15.358,-17.313
22277,-16.853,-19.38
22289,-17.275,-19.794
22301,-16.286,-20.781
22313,-14.573,-21.182
22324,-13.885,-19.811
22336,-14.652,-17.974
22348,-16.746,-18.56
22359,-17.314,-17.44
22371,-14.753,-17.591
22383,-16.941,-19.299
22395,-19.106,-18.638
22406,-19.204,-18.047
22418,-18.226,-17.056
22430,-19.676,-15.733
22441,-19.39,-16.582
22453,-15.178,-19.72
22465,-15.695,-23.781
22477,-18.231,-20.856
22488,-15.627,-20.639
22500,-15.912,-24.173
22512,-13.637,-23.906
22523,-16.911,-18.835
22535,-19.286,-17.406
22547,-16.034,-21.521
22559,-16.181,-19.263
22570,-15.733,-19.763
22582,-14.901,-19.41
22594,-15.188,-20.346
22605,-16.02,-19.068
22617,-14.924,-18.157
22629,-14.282,-20.747
22641,-15.287,-18.324
22652,-14.77,-20.089
22664,-17.625,-18.835
22676,-19.099,-17.464
22688,-15.695,-17.172
22699,-13.78,-19.336
22711,-16.433,-18.996
22723,-18.936,-19.49
22734,-16.618,-20.549
22746,-14.294,-19.43
22758,-15.611,-18.003
22770,-19.561,-19.588
22781,-18.273,-21.59
22793,-17.845,-20.722
22805,-15.875,-19.564
22816,-15.166,-17.645
22828,-15.339,-22.155
22840,-19.78,-21.201
22852,-15.094,-18.369
22863,-16.287,-18.706
22875,-18.639,-21.576
22887,-16.892,-20.764
22898,-15.505,-20.137
22910,-17.629,-22.293
22922,-16.428,-18.923
22934,-14.151,-18.599
22945,-15.587,-18.603
22957,-16.859,-18.535
22969,-17.415,-18.114
22980,-16.755,-18.266
22992,-16.511,-18.257
23004,-15.055,-18.414
23016,-17.316,-21.441
23027,-16.326,-21.293
23039,-15.41,-23.481
23051,-17.721,-21.841
23063,-20.229,-21.859
23074,-15.383,-20.748
23086,-13.256,-21.437
23098,-13.813,-19.855
23109,-14.85,-21.049
23121,-14.677,-17.743
23133,-15.498,-18.464
23145,-20.569,-20.777
23156,-17.216,-18.786
23168,-16.259,-23.38
23180,-17.187,-19.144
23191,-18.103,-19.579
23203,-17.68,-20.746
23215,-17.339,-16.109
23227,-16.67,-16.911
23238,-17.29,-17.704
23250,-17.349,-19.466
23262,-18.67,-19.705
23273,-17.895,-21.595
23285,-17.724,-22.18
23297,-20.241,-22.27
23309,-15.29,-20.5
23320,-16.944,-20.932
23332,-15.341,-20.142
23344,-15.023,-19.715
23355,-16.142,-19.752
23367,-16.29,-19.31
23379,-15.244,-20.156
23391,-14.566,-21.814
23402,-18.949,-21.177
23414,-15.748,-20.516
23426,-15.579,-20.508
23438,-14.843,-23.663
23449,-14.847,-21.699
23461,-15.221,-22.751
23473,-14.637,-22.167
23484,-16.358,-22.177
23496,-19.207,-23.13
23508,-21.552,-20.775
23520,-20.623,-19.812
23531,-21.268,-20.625
23543,-18.533,-21.936
23555,-17.002,-16.651
23566,-16.055,-16.411
23578,-17.955,-17.465
23590,-16.68,-21.926
23602,-16.242,-21.443
23613,-17.433,-21.495
23625,-16.994,-21.172
23637,-19.076,-19.044
23648,-20.313,-18.986
23660,-18.503,-19.196
23672,-16.858,-20.01
23684,-16.554,-23.135
23695,-17.362,-22.942
23707,-15.908,-21.808
23719,-16.208,-22.533
23730,-17.899,-23.185
23742,-19.184,-20.302
23754,-17.057,-22.406
23766,-15.967,-24.667
23777,-17.851,-24.856
23789,-16,-23.91
23801,-17.641,-21.113
23813,-16.001,-18.698
23824,-16.297,-20.774
23836,-18.527,-23.096
23848,-19.146,-20.992
23859,-19.602,-19.181
23871,-18.623,-17.31
23883,-15.594,-19.065
23895,-16.902,-22.586
23906,-18.088,-21.653
23918,-16.588,-21.74
23930,-15.213,-22.654
23941,-20.725,-19.542
23953,-18.906,-18.16
23965,-17.914,-23.247
23977,-17.986,-22.505
23988,-14.96,-24.031
