FFT,Power Spectrum
Frequency[Hz],Level-L[dB],Level-R[dB]
11.719,-23.195,-21.429
23.438,-2.6576,-1.0351
35.156,1.8747,4.0069
46.875,4.9037,5.4815
58.594,2.4311,8.7384
70.313,3.1907,10.529
82.031,4.781,10.561
93.75,14.524,16.81
105.47,19.522,19.746
117.19,15.287,17.486
128.91,14.867,14.992
140.63,15.294,15.848
152.34,9.4611,18.2
164.06,2.9215,18.961
175.78,4.5361,20.09
187.5,8.7908,19.676
199.22,11.358,17.32
210.94,10.54,19.563
222.66,8.412,18.963
234.38,10.815,20.521
246.09,10.498,19.96
257.81,7.3651,18.815
269.53,7.9591,18.301
281.25,8.7745,19.163
292.97,6.1751,21.235
304.69,5.2985,22.214
316.41,6.9561,21.356
328.13,6.2473,20.146
339.84,4.8336,22.691
351.56,4.645,23.748
363.28,4.3764,22.153
375,7.4363,22.198
386.72,8.005,18.677
398.44,6.3902,21.843
410.16,6.6366,25.795
421.88,8.9862,27.416
433.59,7.8137,26.455
445.31,8.086,17.988
457.03,15.001,23.015
468.75,11.369,20.25
480.47,8.0307,19.041
492.19,4.765,21.338
503.91,7.1337,23.205
515.63,8.2481,20.311
527.34,10.275,22.242
539.06,10.4,22.94
550.78,5.6248,18.546
562.5,8.3998,19.779
574.22,6.2782,24.096
585.94,4.3946,24.377
597.66,6.4707,19.86
609.38,4.8926,20.184
621.09,3.5554,24.949
632.81,4.8037,25.169
644.53,6.0372,22.803
656.25,5.6814,18.939
667.97,3.5657,22.965
679.69,1.9584,24.585
691.41,5.4248,21.477
703.13,5.8645,21.917
714.84,7.1035,21.218
726.56,8.0335,19.8
738.28,6.6336,21.792
750,4.9381,20.397
761.72,6.2759,21.802
773.44,7.7096,22.488
785.16,7.7996,23.481
796.88,5.9318,23.026
808.59,9.6631,22.627
820.31,11.131,21.515
832.03,5.6318,20.099
843.75,7.3193,22.983
855.47,9.9061,21.141
867.19,10.212,20.317
878.91,7.8901,21.181
890.63,9.2841,20.213
902.34,8.4555,20.319
914.06,6.163,23.365
925.78,6.1576,22.214
937.5,8.2667,20.695
949.22,9.6796,20.712
960.94,10.584,18.057
972.66,7.3863,20.503
984.38,5.6457,21.376
996.09,7.405,21.015
1007.8,7.5783,21.989
1019.5,5.9534,22.017
1031.3,4.8896,20.742
1043,6.0122,20.251
1054.7,4.268,22.706
1066.4,1.3672,24.725
1078.1,6.1169,22.156
1089.8,7.467,22.064
1101.6,7.3651,20.025
1113.3,9.9296,17.908
1125,10.047,18.164
1136.7,10.5,17.134
1148.4,9.0752,22.952
1160.2,6.1123,23.551
1171.9,8.4081,24.227
1183.6,8.8043,22.348
1195.3,6.6697,21.581
1207,5.3804,19.89
1218.8,5.0944,20.87
1230.5,4.8817,23.251
1242.2,4.3336,22.476
1253.9,4.5585,19.733
1265.6,4.2325,19.955
1277.3,3.9606,20.319
1289.1,4.6803,21.541
1300.8,4.4002,21.399
1312.5,4.2247,21.694
1324.2,4.5227,18.752
1335.9,6.5542,20.297
1347.7,7.6812,22.823
1359.4,6.4178,22.524
1371.1,5.3101,19.923
1382.8,9.2855,19.571
1394.5,9.6166,21.538
1406.3,8.838,24.528
1418,5.2114,22.704
1429.7,6.9639,22.967
1441.4,5.8952,20.303
1453.1,5.2345,17.061
1464.8,5.5017,19.359
1476.6,8.8537,21.844
1488.3,8.1028,21.714
1500,8.7246,22.481
1511.7,9.6044,21.723
1523.4,7.6133,17.951
1535.2,4.7905,19.401
1546.9,5.3419,19.254
1558.6,3.2558,19.839
1570.3,1.5196,20.541
1582,4.7033,24.906
1593.8,3.2142,21.683
1605.5,3.9036,18.786
1617.2,4.4769,18.487
1628.9,2.4158,18.761
1640.6,3.2053,18.838
1652.3,3.8786,21.289
1664.1,6.999,20.659
1675.8,7.0687,21.45
1687.5,4.0712,19.872
1699.2,3.0403,20.491
1710.9,2.176,20.666
1722.7,0.14575,21.228
1734.4,2.7353,22.498
1746.1,2.9475,18.888
1757.8,1.4154,20.305
1769.5,3.2552,19.627
1781.3,3.7117,19.444
1793,4.8232,19.032
1804.7,6.4738,20.114
1816.4,7.0012,22.744
1828.1,4.4153,21.279
1839.8,0.43907,19.755
1851.6,4.0857,21.246
1863.3,7.8306,17.248
1875,5.2602,14.385
1886.7,2.9687,19.975
1898.4,4.8153,18.205
1910.2,5.9872,15.762
1921.9,6.027,16.886
1933.6,3.1515,18.311
1945.3,2.5904,20.863
1957,4.5509,22.499
1968.8,0.71072,20.834
1980.5,4.8061,18.891
1992.2,3.6991,18.944
2003.9,1.5723,19.4
2015.6,0.30187,19.051
2027.3,1.9927,17.97
2039.1,4.3932,19.185
2050.8,5.8626,17.514
2062.5,3.3579,17.877
2074.2,-1.223,19.136
2085.9,0.5879,18.466
2097.7,1.2217,20.189
2109.4,0.86219,21.381
2121.1,2.6845,17.847
2132.8,3.504,19.714
2144.5,2.5299,19.66
2156.3,4.2134,16.532
2168,4.5803,18.264
2179.7,0.79916,21.961
2191.4,1.7706,19.522
2203.1,2.6077,18.065
2214.8,2.9869,19.927
2226.6,2.2095,20.096
2238.3,5.5423,19.644
2250,5.9516,17.208
2261.7,0.66996,13.783
2273.4,2.3873,17.256
2285.2,2.4699,20.747
2296.9,1.5939,17.58
2308.6,2.5895,18.051
2320.3,2.5121,19.912
2332,-1.4656,18.544
2343.8,-2.434,16.234
2355.5,-0.16603,17.476
2367.2,-0.2933,18.889
2378.9,1.2755,16.935
2390.6,2.6435,18.089
2402.3,0.37897,16.895
2414.1,2.6593,17.703
2425.8,2.7419,20.321
2437.5,0.90109,20.687
2449.2,-3.1733,14.086
2460.9,-0.2962,17.738
2472.7,0.62901,18.939
2484.4,1.2296,17.616
2496.1,-0.93455,14.18
2507.8,4.5072,16.71
2519.5,5.6759,18.349
2531.3,3.6475,16.992
2543,4.1923,17.739
2554.7,2.7959,17.845
2566.4,-2.1578,16.559
2578.1,-1.6551,16.051
2589.8,1.0953,15.236
2601.6,0.78952,18.449
2613.3,2.0682,20.925
2625,1.9353,19.76
2636.7,1.1425,15.815
2648.4,1.8666,14.912
2660.2,0.95024,17.878
2671.9,-0.22389,19.387
2683.6,-0.99082,17.788
2695.3,-0.13702,17.826
2707,2.6041,18.118
2718.8,3.1177,17.289
2730.5,-1.202,15.926
2742.2,0.17163,18.383
2753.9,0.90439,20.131
2765.6,2.002,19.544
2777.3,3.5201,18.109
2789.1,1.8213,18.305
2800.8,-0.3282,16.284
2812.5,1.6752,18.422
2824.2,-0.5881,17.993
2835.9,-1.176,18.426
2847.7,1.9338,17.264
2859.4,0.83219,17.805
2871.1,2.3377,16.921
2882.8,2.9248,15.65
2894.5,3.9978,12.926
2906.3,1.7303,16.371
2918,-2.9391,17.753
2929.7,0.28107,15.64
2941.4,1.7862,13.436
2953.1,-1.0625,20.297
2964.8,0.24591,23.091
2976.6,-1.696,20.883
2988.3,-0.73926,17.889
3000,1.7955,18.136
3011.7,1.58,18.078
3023.4,-0.076176,17.599
3035.2,-0.4602,17.432
3046.9,0.031897,20.027
3058.6,-0.44434,20.477
3070.3,0.47942,18.717
3082,2.0144,14.211
3093.8,-1.0756,16.534
3105.5,-4.6025,18.709
3117.2,-3.8611,16.413
3128.9,-1.1233,17.047
3140.6,0.56023,19.172
3152.3,-1.2459,19.426
3164.1,1.1547,16.821
3175.8,-3.1828,16.054
3187.5,-1.402,15.277
3199.2,1.0119,15.943
3210.9,2.3675,16.797
3222.7,4.4019,18.377
3234.4,0.28877,15.255
3246.1,-1.1051,11.866
3257.8,1.1527,11.144
3269.5,2.1589,16.39
3281.3,-3.1365,18.516
3293,-0.72933,15.161
3304.7,2.1129,20.289
3316.4,1.3904,18.397
3328.1,0.95734,13.879
3339.8,-0.14291,14.021
3351.6,-1.2215,16.282
3363.3,-0.96104,17.502
3375,0.84576,16.535
3386.7,-0.39769,12.994
3398.4,0.48312,14.879
3410.2,-0.011301,13.85
3421.9,-3.0922,14.089
3433.6,-1.5736,14.319
3445.3,-0.50714,14.631
3457,1.1526,15.795
3468.8,-1.18,18.793
3480.5,-3.6998,19.213
3492.2,0.36517,14.006
3503.9,0.40841,15.217
3515.6,-1.64,17.378
3527.3,-1.8037,20.366
3539.1,0.19933,18.637
3550.8,0.80312,14.698
3562.5,0.6569,15.992
3574.2,-0.89438,15.433
3585.9,-2.1858,14.651
3597.7,-4.602,14.198
3609.4,-3.6603,13.376
3621.1,-2.4157,15.234
3632.8,-2.864,14.624
3644.5,-5.2618,14.369
3656.3,-5.1316,14.286
3668,-3.9413,11.164
3679.7,-0.80765,13.567
3691.4,-0.77323,15.764
3703.1,-0.56851,16.93
3714.8,1.334,14.722
3726.6,-0.43339,12.824
3738.3,-2.5894,12.833
3750,-1.52,16.082
3761.7,-2.2166,17.368
3773.4,-5.3788,17.404
3785.2,-2.8228,15.832
3796.9,-3.5234,11.643
3808.6,-1.9571,15.455
3820.3,-1.0019,14.558
3832,-2.0682,15.84
3843.8,-3.1647,12.989
3855.5,-1.5073,14.943
3867.2,-0.5309,15.086
3878.9,0.0051258,17.071
3890.6,-1.5306,17.26
3902.3,-3.4081,17.773
3914.1,-2.8167,17.994
3925.8,-0.52978,18.15
3937.5,1.2612,16.935
3949.2,1.7993,17.521
3960.9,1.6371,15.597
3972.7,1.2424,17.28
3984.4,-0.82567,17.135
3996.1,-3.2098,13.678
4007.8,-3.2061,14.644
4019.5,-2.1155,9.8059
4031.3,-1.1558,14.254
4043,-2.082,15.466
4054.7,-1.4064,13.215
4066.4,-2.3507,13.897
4078.1,-2.9333,13.12
4089.8,-1.2909,16.645
4101.6,-3.1734,14.577
4113.3,-2.3658,15.947
4125,-3.7215,16.605
4136.7,-0.25719,17.011
4148.4,0.30971,14.358
4160.2,-2.8888,12.175
4171.9,-2.1656,15.448
4183.6,-0.11779,16.979
4195.3,-1.3001,12.605
4207,-3.147,14.626
4218.8,-4.387,15.04
4230.5,0.094672,15.443
4242.2,-1.5538,15.787
4253.9,-2.9312,14.116
4265.6,-4.3857,14.849
4277.3,-6.3697,15.591
4289.1,-6.0054,12.591
4300.8,-4.3474,14.552
4312.5,-2.9436,13.561
4324.2,-2.6112,15.222
4335.9,-3.1198,17.66
4347.7,-3.2058,14.905
4359.4,-4.1391,11.399
4371.1,-1.6857,13.043
4382.8,0.022086,14.807
4394.5,-1.2132,16.81
4406.3,-4.4303,13.297
4418,-2.2909,11.401
4429.7,0.20691,10.618
4441.4,0.4968,14.16
4453.1,-1.6607,15.425
4464.8,-2.0301,16.083
4476.6,-4.8594,15.067
4488.3,-6.7903,15.045
4500,-4.3293,14.244
4511.7,-1.1814,14.84
4523.4,-3.5926,14.579
4535.2,-4.4681,16
4546.9,-2.9662,15.085
4558.6,-3.5028,14.65
4570.3,-0.63089,15.183
4582,-0.57945,13.398
4593.8,-3.8194,15.636
4605.5,-4.6769,18.647
4617.2,-4.3197,19.323
4628.9,-3.2361,18.301
4640.6,-3.7145,17.715
4652.3,-7.3673,15.972
4664.1,-6.7265,15.13
4675.8,-9.3755,13.963
4687.5,-6.3984,17.107
4699.2,0.22334,16.771
4710.9,-0.19025,14.882
4722.7,-4.6644,15.996
4734.4,-4.2296,14.718
4746.1,-2.3374,13.77
4757.8,-1.6333,15.885
4769.5,-2.811,16.168
4781.3,-3.9241,14.905
4793,-0.73173,13.838
4804.7,-2.7688,14.385
4816.4,-5.1881,15.042
4828.1,-0.59255,15.328
4839.8,-0.89928,12.928
4851.6,-3.07,13.009
4863.3,-5.1068,14.341
4875,-7.3923,13.414
4886.7,-6.6897,14.763
4898.4,-5.7273,13.832
4910.2,-2.9406,12.231
4921.9,-6.1798,15.358
4933.6,-4.18,12.656
4945.3,-6.3101,13.366
4957,-5.0795,14.631
4968.8,-2.4013,12.115
4980.5,-0.70573,11.128
4992.2,-5.2499,13.505
5003.9,-4.7757,15.875
5015.6,-5.6442,13.949
5027.3,-8.9924,12.896
5039.1,-6.0177,13.717
5050.8,-3.5808,12.736
5062.5,-1.5657,12.117
5074.2,-1.4606,13.463
5085.9,-2.0841,12.022
5097.7,-2.5758,12.432
5109.4,-1.9563,11.625
5121.1,-4.4213,14.61
5132.8,-4.2001,16.89
5144.5,-4.5536,15.673
5156.3,-5.3163,15.294
5168,-5.0604,14.644
5179.7,-3.3993,14.952
5191.4,-7.066,15.292
5203.1,-0.81185,15.652
5214.8,-2.5583,12.463
5226.6,-6.2408,12.929
5238.3,-4.9841,12.715
5250,-5.2171,13.534
5261.7,-3.3042,13.301
5273.4,-6.6759,14.25
5285.2,-4.0481,13.164
5296.9,-4.9825,9.8197
5308.6,-5.7893,9.9116
5320.3,-4.59,12.472
5332,-5.1722,14.482
5343.8,-4.7757,10.429
5355.5,-6.8746,12.876
5367.2,-8.0126,15.548
5378.9,-5.1206,15.331
5390.6,-4.2073,11.596
5402.3,-5.347,13.185
5414.1,-1.8386,13.493
5425.8,-4.1521,11.803
5437.5,-3.7189,15.693
5449.2,-6.0186,18.039
5460.9,-6.2148,15.008
5472.7,-1.5286,12.488
5484.4,-2.3041,14.386
5496.1,-4.815,13.087
5507.8,-5.6891,11.476
5519.5,-5.9063,12.945
5531.3,-2.4923,14.768
5543,-2.6069,17.842
5554.7,-3.8089,14.159
5566.4,-5.2528,12.242
5578.1,-5.1358,15.322
5589.8,-5.8993,15.299
5601.6,-4.3077,14.194
5613.3,-5.0493,11.663
5625,-2.975,13.217
5636.7,-2.1322,12.069
5648.4,-2.3459,13.163
5660.2,-4.0487,12.3
5671.9,-5.9034,13.666
5683.6,-6.3539,15.754
5695.3,-6.4722,14.31
5707,-5.0446,13.044
5718.8,-2.7899,12.758
5730.5,-3.8929,12.477
5742.2,-4.6398,12.318
5753.9,-2.369,12.867
5765.6,-1.4058,10.971
5777.3,-0.68957,12.072
5789.1,-1.8991,14.071
5800.8,-4.8161,12.544
5812.5,-6.8302,11.54
5824.2,-5.8769,8.7765
5835.9,-3.6393,12.423
5847.7,-3.0202,13.668
5859.4,-3.9774,14.191
5871.1,-3.6625,13.547
5882.8,-4.109,13.165
5894.5,-6.0746,12.938
5906.3,-6.9179,15.347
5918,-5.4296,13.948
5929.7,-4.6698,12.923
5941.4,-2.3436,14.771
5953.1,-3.6234,12.668
5964.8,-7.2443,12.694
5976.6,0.57125,12.279
5988.3,-0.8093,12.995
6000,-5.5839,14.708
6011.7,-4.8967,14.337
6023.4,-6.4523,13.774
6035.2,-7.8165,11.12
6046.9,-4.737,12.754
6058.6,-4.4077,11.536
6070.3,-3.7071,14.307
6082,-1.2632,13.811
6093.8,-4.3649,10.486
6105.5,-4.6867,10.795
6117.2,-2.5824,9.8398
6128.9,-4.3606,10.98
6140.6,-4.998,10.61
6152.3,-4.2838,8.7217
6164.1,-3.8315,13.246
6175.8,-7.1858,15.999
6187.5,-6.734,14.638
6199.2,-6.6944,11.21
6210.9,-5.3082,12.918
6222.7,-5.4865,13.258
6234.4,-5.2257,12.44
6246.1,-7.1312,14.007
6257.8,-7.2465,12.652
6269.5,-8.3174,14.054
6281.3,-8.6286,17.55
6293,-6.9496,17.406
6304.7,-8.2811,15.442
6316.4,-5.705,13.845
6328.1,-4.1055,13.968
6339.8,-4.714,12.858
6351.6,-5.0507,10.617
6363.3,-6.1554,10.37
6375,-6.3236,10.516
6386.7,-7.9257,10.598
6398.4,-9.4184,9.1396
6410.2,-8.8814,12.189
6421.9,-8.0016,12.654
6433.6,-5.5926,12.21
6445.3,-4.0721,13.619
6457,-3.7348,12.469
6468.8,-7.7064,10.524
6480.5,-7.7815,11.277
6492.2,-6.2766,10.601
6503.9,-6.9974,13.656
6515.6,-7.3753,14.09
6527.3,-3.8331,14.612
6539.1,-3.3998,15.743
6550.8,-7.5774,13.626
6562.5,-9.2362,12.924
6574.2,-6.1924,11.941
6585.9,-5.7757,10.005
6597.7,-5.039,10.688
6609.4,-4.8392,13.258
6621.1,-5.16,10.36
6632.8,-4.0806,10.711
6644.5,-6.8147,10.71
6656.3,-5.2236,11.876
6668,-5.106,12.214
6679.7,-8.4869,10.913
6691.4,-7.3139,13.919
6703.1,-6.1986,15.164
6714.8,-11.087,13.346
6726.6,-7.5235,11.911
6738.3,-5.1709,12.683
6750,-5.6198,11.437
6761.7,-6.3165,13.442
6773.4,-8.8942,13.485
6785.2,-7.6352,10.081
6796.9,-6.3066,10.407
6808.6,-6.5979,11.158
6820.3,-7.74,10.771
6832,-6.8316,9.3241
6843.8,-3.3137,12.15
6855.5,-6.15,11.395
6867.2,-8.7599,10.974
6878.9,-5.528,10.206
6890.6,-2.9814,10.824
6902.3,-1.96,14.081
6914.1,-7.364,12.543
6925.8,-10.673,15.94
6937.5,-10.499,16.515
6949.2,-6.0989,13.078
6960.9,-3.7612,11.436
6972.7,-6.1323,11.004
6984.4,-7.9115,11.77
6996.1,-8.1682,9.8597
7007.8,-5.8746,8.8527
7019.5,-5.6944,11.723
7031.3,-5.2702,12.286
7043,-4.9469,11.801
7054.7,-4.9184,8.7804
7066.4,-8.1121,8.2199
7078.1,-8.4996,8.6561
7089.8,-7.7398,12.382
7101.6,-8.148,10.881
7113.3,-7.185,9.0471
7125,-5.859,9.8406
7136.7,-6.2434,9.6281
7148.4,-8.1366,10.332
7160.2,-7.8875,11.684
7171.9,-5.2917,13.036
7183.6,-4.8566,9.8385
7195.3,-6.5258,8.7045
7207,-6.8125,10.141
7218.8,-4.0992,13.295
7230.5,-6.8831,10.288
7242.2,-10.258,12.261
7253.9,-10.734,10.311
7265.6,-8.0753,10.999
7277.3,-6.0289,11.886
7289.1,-5.7738,13.032
7300.8,-6.1431,11.973
7312.5,-6.0934,10.091
7324.2,-6.7736,11.783
7335.9,-6.2785,13.906
7347.7,-4.5723,14.086
7359.4,-6.3509,14.128
7371.1,-8.2205,14.903
7382.8,-6.7603,12.866
7394.5,-6.4435,6.8784
7406.3,-7.9115,7.0683
7418,-11.316,10.441
7429.7,-8.8588,11.303
7441.4,-7.3971,10.344
7453.1,-6.0678,11.341
7464.8,-4.1419,9.6558
7476.6,-5.0694,12.062
7488.3,-6.1946,12.033
7500,-5.6826,9.4638
7511.7,-6.274,6.5666
7523.4,-9.7366,10.466
7535.2,-14.38,11.67
7546.9,-10.54,13.259
7558.6,-10.79,9.6521
7570.3,-7.0583,10.655
7582,-6.5067,9.5112
7593.8,-6.5189,11.35
7605.5,-7.8841,9.7235
7617.2,-8.7061,11.749
7628.9,-7.605,11.109
7640.6,-6.2457,11.717
7652.3,-7.4899,11.111
7664.1,-6.0411,9.3722
7675.8,-6.5118,7.8968
7687.5,-9.7362,10.522
7699.2,-6.1645,9.4316
7710.9,-5.9004,9.1827
7722.7,-7.8637,12.28
7734.4,-12.043,12.145
7746.1,-9.0011,7.9688
7757.8,-5.9733,9.2335
7769.5,-9.5395,10.515
7781.3,-9.5601,7.1771
7793,-8.5238,10.87
7804.7,-6.2823,13.477
7816.4,-7.7276,11.351
7828.1,-6.9745,8.8372
7839.8,-7.1389,9.4624
7851.6,-10.196,10.204
7863.3,-8.5713,11.681
7875,-6.7537,12.001
7886.7,-7.9619,11.639
7898.4,-8.1851,9.4531
7910.2,-8.2779,9.3985
7921.9,-9.8064,10.445
7933.6,-10.48,11.674
7945.3,-10.302,11.998
7957,-9.8848,8.1626
7968.8,-8.6058,7.8567
7980.5,-8.6469,9.1897
7992.2,-6.7793,10.441
8003.9,-9.6858,10.882
8015.6,-9.8646,12.807
8027.3,-8.526,13.994
8039.1,-9.4428,12.226
8050.8,-10.813,8.6352
8062.5,-8.2325,8.9248
8074.2,-7.0844,8.0343
8085.9,-7.9084,9.3766
8097.7,-7.3318,8.1723
8109.4,-8.5445,10.255
8121.1,-8.4106,10.703
8132.8,-6.078,11.14
8144.5,-7.0668,10.157
8156.3,-9.9978,9.3532
8168,-8.7146,9.1084
8179.7,-11.023,6.7339
8191.4,-8.3717,7.3127
8203.1,-8.4712,12.014
8214.8,-8.2744,12.371
8226.6,-7.4204,10.543
8238.3,-6.9145,9.6531
8250,-6.626,10.532
8261.7,-9.6968,10.302
8273.4,-7.716,10.027
8285.2,-7.0936,10.793
8296.9,-7.6156,9.0855
8308.6,-7.5733,11.272
8320.3,-8.1465,12.697
8332,-12.767,10.976
8343.8,-10.415,13.371
8355.5,-10.669,11.5
8367.2,-8.4451,10.706
8378.9,-8.9048,10.952
8390.6,-10.202,8.281
8402.3,-13.989,9.7322
8414.1,-9.8449,7.4063
8425.8,-8.8843,12.177
8437.5,-9.7126,12.104
8449.2,-11.516,11.585
8460.9,-12.157,9.6426
8472.7,-8.3236,8.132
8484.4,-9.102,7.7101
8496.1,-9.2235,8.0634
8507.8,-8.0895,7.0285
8519.5,-7.7211,8.227
8531.3,-9.0913,9.7471
8543,-7.9253,12.45
8554.7,-7.3917,8.9028
8566.4,-11.223,10.968
8578.1,-10.243,12.277
8589.8,-9.5282,11.526
8601.6,-10.226,10.791
8613.3,-12.504,12.179
8625,-10.55,9.0091
8636.7,-12.719,7.9274
8648.4,-11.827,10.073
8660.2,-9.518,10.192
8671.9,-8.4344,10.432
8683.6,-12.834,11.448
8695.3,-12.483,10.668
8707,-9.2307,8.2926
8718.8,-7.8574,8.3314
8730.5,-6.185,8.4607
8742.2,-6.8134,6.6773
8753.9,-14.203,6.5309
8765.6,-9.8229,8.7896
8777.3,-9.5076,8.7973
8789.1,-10.102,9.5692
8800.8,-10.635,10.158
8812.5,-11.315,8.3667
8824.2,-13.345,9.2653
8835.9,-14.274,12.108
8847.7,-13.12,10.632
8859.4,-10.286,9.5293
8871.1,-11.908,6.2387
8882.8,-9.9323,7.5735
8894.5,-9.0534,8.7479
8906.3,-11.733,9.0299
8918,-12.308,8.5996
8929.7,-10.268,9.4257
8941.4,-12.478,7.8278
8953.1,-11.967,5.1248
8964.8,-12.796,7.3951
8976.6,-6.5773,9.5838
8988.3,-6.5626,8.7705
9000,-9.7774,7.9351
9011.7,-9.1355,8.3004
9023.4,-11.662,10.908
9035.2,-14.016,8.355
9046.9,-11.956,8.6474
9058.6,-8.7539,6.9371
9070.3,-7.7781,6.7228
9082,-11.102,7.0766
9093.8,-12.346,8.8292
9105.5,-10.327,8.2172
9117.2,-11.063,7.264
9128.9,-11.076,9.6459
9140.6,-11.446,10.938
9152.3,-11.874,10.486
9164.1,-9.7331,9.5406
9175.8,-8.2192,9.5479
9187.5,-9.3106,7.8136
9199.2,-11.354,6.4438
9210.9,-9.7142,6.3267
9222.7,-10.14,9.3125
9234.4,-10.157,9.9593
9246.1,-11.211,8.9846
9257.8,-11.169,9.2325
9269.5,-11.215,8.8659
9281.3,-13.789,8.8989
9293,-13.084,10.672
9304.7,-12.229,11.4
9316.4,-11.256,6.9038
9328.1,-10.447,7.108
9339.8,-12.095,8.3774
9351.6,-10.393,8.1639
9363.3,-9.9738,8.2629
9375,-11.141,12.094
9386.7,-9.1696,11.652
9398.4,-9.4661,10.722
9410.2,-10.788,9.8101
9421.9,-11.044,10.216
9433.6,-14.755,7.2537
9445.3,-13.766,8.8861
9457,-11.997,9.5503
9468.8,-10.246,9.6667
9480.5,-10.316,8.1008
9492.2,-11.928,6.9635
9503.9,-11.304,7.7331
9515.6,-11.556,6.5748
9527.3,-8.8764,7.7743
9539.1,-8.6223,8.6268
9550.8,-7.5953,7.9715
9562.5,-11.701,8.4415
9574.2,-8.2547,10.14
9585.9,-8.2218,10.325
9597.7,-11.317,12.774
9609.4,-11.764,12.111
9621.1,-13.55,8.6835
9632.8,-12.046,11.227
9644.5,-12.533,14.224
9656.3,-13.882,12.59
9668,-13.625,9.644
9679.7,-13.305,8.3966
9691.4,-13.023,8.2467
9703.1,-11.246,9.3225
9714.8,-11.694,9.1031
9726.6,-11.717,9.963
9738.3,-7.6186,9.842
9750,-8.4196,12.283
9761.7,-7.3939,11.692
9773.4,-7.6858,9.427
9785.2,-10.107,8.9115
9796.9,-11.618,9.7547
9808.6,-11.05,5.2946
9820.3,-11.805,10.273
9832,-14.317,9.2756
9843.8,-9.8104,7.4596
9855.5,-10.935,8.7537
9867.2,-13.515,9.3332
9878.9,-13.917,7.9661
9890.6,-11.317,7.6468
9902.3,-9.9042,7.0253
9914.1,-12.441,8.3376
9925.8,-10.818,10.84
9937.5,-11.203,9.753
9949.2,-12.58,8.8389
9960.9,-13.66,9.2659
9972.7,-13.527,7.6746
9984.4,-11.704,8.7437
9996.1,-8.6238,11.286
10008,-9.0247,8.4078
10020,-10.771,8.1302
10031,-10.364,9.5269
10043,-12.058,10.804
10055,-13.662,7.266
10066,-14.778,5.3597
10078,-14.75,5.0385
10090,-11.812,6.6047
10102,-11.08,5.1794
10113,-11.795,8.8236
10125,-11.281,8.2013
10137,-9.9319,7.9097
10148,-11.958,5.1872
10160,-9.926,6.8683
10172,-10.047,9.7082
10184,-12.496,9.6317
10195,-14.183,7.8571
10207,-12.401,6.6153
10219,-8.9864,8.5327
10230,-12.634,8.2667
10242,-13.197,7.0636
10254,-12.267,7.2022
10266,-10.279,6.8756
10277,-8.9022,6.9426
10289,-10.177,8.594
10301,-12.141,10.236
10313,-10.313,5.9984
10324,-10.354,6.1113
10336,-10.622,6.6721
10348,-10.494,5.5027
10359,-11.396,6.9427
10371,-12.344,8.3603
10383,-12.493,8.6434
10395,-12.139,7.8264
10406,-12.017,5.8998
10418,-10.411,6.8151
10430,-11.316,4.7119
10441,-12.531,6.4043
10453,-10.834,7.2253
10465,-13.427,4.2176
10477,-12.566,8.8412
10488,-10.499,9.342
10500,-12.537,6.4915
10512,-13.854,4.2444
10523,-14.19,5.6214
10535,-11.487,8.627
10547,-12.253,7.5291
10559,-13.707,9.4455
10570,-9.7631,8.716
10582,-12.103,7.6528
10594,-9.1691,8.4766
10605,-10.996,9.4532
10617,-11.568,8.3952
10629,-13.661,7.7498
10641,-13.026,7.2739
10652,-11.825,10.129
10664,-14.544,7.8389
10676,-15.21,6.512
10688,-15.458,8.075
10699,-14.093,10.284
10711,-13.417,5.5226
10723,-12.938,4.3619
10734,-9.9404,3.1094
10746,-10.911,8.0352
10758,-12.643,6.1922
10770,-11.413,6.2271
10781,-11.99,7.4073
10793,-12.634,9.1704
10805,-11.907,9.9017
10816,-14.345,8.2179
10828,-13.218,7.43
10840,-12.061,12.011
10852,-10.379,11.924
10863,-11.848,5.3978
10875,-13.586,6.8701
10887,-13.299,6.9074
10898,-9.8133,6.7915
10910,-9.7445,7.9758
10922,-12.548,6.8271
10934,-14.33,6.3634
10945,-12.718,6.6661
10957,-12.685,7.4575
10969,-13.215,6.0402
10980,-11.821,4.1342
10992,-10.765,3.2284
11004,-12.16,1.5478
11016,-12.216,3.1562
11027,-14.085,6.8566
11039,-12.68,9.8393
11051,-10.042,8.0647
11063,-12.256,6.5196
11074,-12.865,7.5692
11086,-11.142,4.7906
11098,-11.486,6.3609
11109,-11.52,8.1268
11121,-12.739,8.3796
11133,-17.007,8.5477
11145,-14.1,9.6781
11156,-12.092,9.842
11168,-9.8218,8.5645
11180,-10.238,5.6732
11191,-14.459,4.1639
11203,-15.233,3.852
11215,-14.103,6.3092
11227,-12.366,5.6419
11238,-13.554,6.3929
11250,-11.689,8.2801
11262,-11.248,7.7591
11273,-14.253,5.2181
11285,-10.388,6.3681
11297,-9.5739,4.6502
11309,-11.55,4.4715
11320,-12.111,5.1706
11332,-12.134,5.5076
11344,-11.146,5.9758
11355,-12.332,5.0116
11367,-12.37,5.3404
11379,-16.527,6.8352
11391,-14.936,8.1166
11402,-12.673,8.4897
11414,-11.886,7.609
11426,-10.957,4.8842
11438,-10.933,4.5828
11449,-12.122,4.3861
11461,-11.465,5.2629
11473,-11.143,4.2905
11484,-9.9535,3.8429
11496,-11.281,6.2071
11508,-13.203,7.2434
11520,-15.175,6.9874
11531,-13.54,5.9127
11543,-15.436,5.6417
11555,-11.831,9.5907
11566,-11.805,6.446
11578,-12.636,8.2179
11590,-12.308,8.1992
11602,-9.3529,8.2263
11613,-10.652,2.8289
11625,-13.53,8.6012
11637,-10.173,9.5884
11648,-10.26,9.3528
11660,-11.501,5.682
11672,-12.735,4.9276
11684,-14.259,7.795
11695,-13.141,5.7957
11707,-13.17,6.6068
11719,-14.258,8.1795
11730,-13.069,8.1622
11742,-11.831,8.0898
11754,-12.023,5.6171
11766,-13.627,4.5052
11777,-16.329,6.0529
11789,-13.881,8.8724
11801,-12.835,9.7824
11813,-11.187,8.2827
11824,-10.321,7.0734
11836,-11.64,4.4714
11848,-13.143,5.6999
11859,-11.676,6.3199
11871,-10.967,5.1341
11883,-15.148,4.903
11895,-14.779,4.6733
11906,-10.689,6.1401
11918,-8.6997,6.6151
11930,-10.333,5.3674
11941,-13.417,4.6967
11953,-10.811,3.2459
11965,-13.02,4.0381
11977,-12.128,7.2259
11988,-12.49,5.7798
12000,-13.097,5.3101
12012,-11.353,6.1002
12023,-15.13,4.8572
12035,-16.181,3.196
12047,-16.122,5.7198
12059,-17.113,6.7879
12070,-15.248,6.4099
12082,-13.758,5.6095
12094,-12.716,3.7211
12105,-14.973,4.1782
12117,-13.54,8.2313
12129,-10.531,6.711
12141,-11.084,5.1163
12152,-12.519,6.3188
12164,-11.305,0.62854
12176,-11.555,6.5193
12188,-10.244,10.286
12199,-9.503,8.2958
12211,-10.729,5.7248
12223,-17.877,7.4546
12234,-17.517,5.2381
12246,-13.444,6.9159
12258,-10.934,7.4889
12270,-12.646,5.4913
12281,-17.608,6.8629
12293,-14.272,6.5844
12305,-12.225,3.4018
12316,-13.207,5.8603
12328,-15.345,7.4116
12340,-17.308,6.4788
12352,-14.623,4.6341
12363,-12.056,5.2929
12375,-11.056,8.0696
12387,-11.266,7.6971
12398,-12.7,4.3634
12410,-9.7533,5.5119
12422,-6.3773,8.6148
12434,-8.5386,8.2772
12445,-9.8388,6.956
12457,-12.289,5.5947
12469,-11.332,4.2244
12480,-10.316,7.2709
12492,-12.258,7.038
12504,-11.852,4.8719
12516,-14.11,3.9479
12527,-16.266,3.405
12539,-16.196,1.1268
12551,-13.751,6.2512
12563,-13.942,7.3049
12574,-15.433,4.5758
12586,-15.19,3.9137
12598,-15.143,7.0314
12609,-15.257,6.854
12621,-14.027,5.4481
12633,-15.522,3.453
12645,-13.648,4.0463
12656,-10.494,5.6197
12668,-14.117,7.3507
12680,-15.684,3.8309
12691,-14.697,6.2152
12703,-16.785,6.0364
12715,-14.522,5.2423
12727,-14.121,5.7758
12738,-12.892,7.563
12750,-12.535,7.9904
12762,-12.923,7.0406
12773,-13.666,4.5774
12785,-13.23,5.3317
12797,-12.016,6.9607
12809,-12.245,4.9145
12820,-10.261,4.8355
12832,-9.7757,4.9422
12844,-10.103,5.2209
12855,-11.398,5.4439
12867,-13.192,6.2587
12879,-12.408,5.5446
12891,-13.425,4.6488
12902,-12.045,3.5799
12914,-12.644,3.9775
12926,-13.19,5.8199
12938,-15.528,4.3654
12949,-15.475,2.1625
12961,-13.616,5.1407
12973,-11.711,5.3554
12984,-14.382,4.2036
12996,-13.258,6.3984
13008,-12.683,4.9714
13020,-13.072,1.8021
13031,-13.822,-0.023049
13043,-14.153,2.8372
13055,-15.026,3.1877
13066,-15.047,4.3656
13078,-13.767,6.0616
13090,-12.145,7.2448
13102,-11.048,5.7601
13113,-13.847,4.6952
13125,-11.822,5.5769
13137,-12.409,3.9551
13148,-12.744,5.7161
13160,-15.335,4.1549
13172,-12.618,1.2495
13184,-11.291,1.4584
13195,-14.088,3.2098
13207,-13.808,2.5351
13219,-13.122,1.4723
13230,-15.463,2.0911
13242,-15.788,5.6089
13254,-15.463,3.7008
13266,-14.917,2.5569
13277,-14.601,3.2043
13289,-15.121,5.3914
13301,-13.484,4.7546
13313,-11.874,3.8538
13324,-12.349,1.7717
13336,-10.669,4.692
13348,-10.082,7.8344
13359,-9.7733,3.8893
13371,-11.517,5.1906
13383,-13.939,5.3517
13395,-15.724,6.229
13406,-15.594,3.733
13418,-11.832,2.1941
13430,-14.275,5.1321
13441,-14.521,7.3862
13453,-13.418,4.2332
13465,-13.709,4.4834
13477,-13.727,6.2609
13488,-13.853,5.8317
13500,-11.827,2.3435
13512,-13.266,2.2156
13523,-16.359,5.8652
13535,-16.01,5.1328
13547,-14.997,2.834
13559,-14.207,4.2532
13570,-13.071,2.3199
13582,-14.654,2.7598
13594,-14.533,4.6912
13605,-15.162,4.8306
13617,-14.618,5.2711
13629,-14.927,5.6236
13641,-13.665,4.9308
13652,-11.469,5.9947
13664,-12.503,4.7797
13676,-15.937,4.1702
13688,-15.311,7.9375
13699,-12.811,6.5997
13711,-13.246,4.2
13723,-13.521,5.3743
13734,-18.04,4.9514
13746,-13.836,3.7537
13758,-14.708,5.3811
13770,-18.03,5.543
13781,-15.885,7.2278
13793,-13.639,5.8134
13805,-14.939,3.7795
13816,-16.966,3.1237
13828,-16.654,-0.3877
13840,-15.287,4.3253
13852,-15.867,6.2581
13863,-15.942,6.409
13875,-16.459,4.649
13887,-15.137,5.6973
13898,-14.768,4.8159
13910,-15.246,2.5927
13922,-15.828,3.8858
13934,-13.97,2.9546
13945,-14.509,3.4444
13957,-14.896,5.4791
13969,-15.061,4.5916
13980,-17.711,2.6936
13992,-16.818,5.0554
14004,-17.678,4.0776
14016,-15.422,3.6518
14027,-14.267,0.88913
14039,-15.57,-0.42985
14051,-13.89,3.1668
14063,-12.731,4.2561
14074,-12.993,3.5862
14086,-14.616,0.8086
14098,-16.696,4.289
14109,-15.767,3.357
14121,-14.103,5.046
14133,-13.696,4.7681
14145,-16.447,2.6273
14156,-16.431,2.7861
14168,-16.669,4.2091
14180,-17.443,1.7613
14191,-16.916,1.7479
14203,-15.095,0.92664
14215,-16.719,5.7597
14227,-18.193,5.0011
14238,-16.228,1.8097
14250,-13.445,5.5217
14262,-13.73,6.3839
14273,-14.975,3.9182
14285,-16.071,4.368
14297,-16.539,1.8745
14309,-17.805,0.4983
14320,-14.7,2.6537
14332,-13.547,3.5873
14344,-18.77,2.0954
14355,-14.385,3.198
14367,-16.825,3.2715
14379,-18.751,1.7162
14391,-16.579,4.8072
14402,-17.69,6.2459
14414,-15.209,5.2142
14426,-14.596,3.9221
14438,-13.884,2.499
14449,-16.664,1.1808
14461,-15.905,2.8139
14473,-13.752,3.3407
14484,-14.108,4.5445
14496,-14.585,2.9311
14508,-17.192,2.2842
14520,-16.678,3.8429
14531,-17.542,3.9483
14543,-16.995,3.5058
14555,-16.648,3.1441
14566,-13.172,6.6742
14578,-13.682,5.9621
14590,-18.575,2.1581
14602,-17.089,1.5669
14613,-18.072,1.5162
14625,-17.683,1.0059
14637,-18.46,0.31311
14648,-16.691,2.6501
14660,-15.665,1.8928
14672,-13.985,3.9124
14684,-14.892,3.9884
14695,-15.688,4.4982
14707,-17.121,2.9838
14719,-17.396,0.70376
14730,-17.168,2.4772
14742,-18.263,2.9737
14754,-18.471,2.4161
14766,-17.141,1.9321
14777,-20.794,3.2269
14789,-20.138,4.0398
14801,-16.207,2.1913
14813,-15.147,0.99418
14824,-16.899,4.009
14836,-15.746,2.4557
14848,-14.375,3.1992
14859,-16.369,3.8243
14871,-17.728,2.81
14883,-15.009,3.3545
14895,-14.794,3.1244
14906,-18.3,2.9513
14918,-19.715,2.2987
14930,-18.006,1.7281
14941,-20.46,-2.6732
14953,-18.652,0.35693
14965,-18.024,1.7563
14977,-15.565,-0.25623
14988,-13.918,-0.41569
15000,-12.156,2.4566
15012,-13.842,5.4835
15023,-17.461,5.7721
15035,-19.314,5.3632
15047,-20.022,2.0954
15059,-19.153,1.7267
15070,-18.548,1.6679
15082,-18.731,2.5388
15094,-21.184,4.3828
15105,-19.783,7.537
15117,-17.085,5.135
15129,-15.497,1.2277
15141,-14.987,1.3764
15152,-15.648,4.8048
15164,-15.79,5.7068
15176,-17.207,4.3816
15188,-17.567,2.5447
15199,-15.768,1.4381
15211,-15.655,1.097
15223,-16.45,1.4214
15234,-17.955,3.4408
15246,-16.944,4.1669
15258,-16.487,2.4326
15270,-18.02,1.5214
15281,-16.979,1.1091
15293,-14.84,0.45407
15305,-15.584,0.65969
15316,-20.114,0.4708
15328,-20.186,-0.94539
15340,-18.953,1.4109
15352,-16.813,4.3053
15363,-18.808,5.0313
15375,-22.21,3.4184
15387,-21.613,1.9282
15398,-20.381,0.58366
15410,-20.894,0.36451
15422,-19.906,1.8383
15434,-21.369,2.2368
15445,-17.249,1.8713
15457,-16.182,0.53341
15469,-18.85,2.4156
15480,-16.494,1.3147
15492,-18.79,2.7748
15504,-19.415,2.6495
15516,-17.802,2.4673
15527,-17.223,0.089713
15539,-18.133,1.4386
15551,-22.732,0.78477
15563,-19.577,-0.56051
15574,-20.787,2.3248
15586,-18.512,3.7301
15598,-15.462,1.6426
15609,-16.327,-0.76258
15621,-16.868,3.5366
15633,-17.309,2.1994
15645,-16.312,2.2681
15656,-15.854,1.8907
15668,-18.522,3.3744
15680,-18.655,2.4541
15691,-21.67,0.53218
15703,-20.379,1.2232
15715,-20.15,-1.3282
15727,-19.56,-1.764
15738,-18.132,2.4205
15750,-20.054,0.49849
15762,-20.742,0.48743
15773,-20.906,1.6171
15785,-22.426,1.835
15797,-18.382,2.1878
15809,-17.408,2.4938
15820,-19.905,3.0515
15832,-17.37,-0.40906
15844,-21.253,1.1073
15855,-24.906,0.18861
15867,-20.124,-0.85111
15879,-16.477,-2.0483
15891,-16.713,-0.19864
15902,-22.531,0.97768
15914,-20.403,2.8634
15926,-19.26,-0.0024158
15938,-17.546,-1.2548
15949,-17.232,2.1363
15961,-20.202,2.8203
15973,-18.571,-0.27836
15984,-18.233,0.36428
15996,-18.888,2.2197
16008,-21.178,-1.2712
16020,-21.941,-0.68141
16031,-21.052,0.24871
16043,-16.933,1.6237
16055,-16.005,3.2657
16066,-18.084,0.84992
16078,-20.74,0.2472
16090,-21.795,1.1263
16102,-20.877,4.1855
16113,-18.274,3.8171
16125,-19.354,1.5302
16137,-20.453,1.5435
16148,-20.815,3.0875
16160,-19.526,1.5127
16172,-18.732,3.3168
16184,-18.341,3.7067
16195,-19.402,-0.62542
16207,-20.02,-0.56379
16219,-18.363,-1.2402
16230,-17.921,1.1221
16242,-18.789,1.0539
16254,-20.426,3.0214
16266,-19.916,5.0496
16277,-18.861,4.4564
16289,-20.661,3.0886
16301,-18.136,2.7337
16313,-16.567,1.9691
16324,-18.395,1.3757
16336,-17.109,-0.54331
16348,-18.947,-2.2527
16359,-20.161,-1.7985
16371,-21.403,0.89143
16383,-23.656,-0.24597
16395,-22.567,-1.1867
16406,-18.259,1.1091
16418,-18.235,-0.52858
16430,-19.122,-0.68164
16441,-19.616,2.5075
16453,-23.871,1.8117
16465,-23.787,-1.3847
16477,-20.299,-2.5452
16488,-22.253,-2.1845
16500,-21.907,-0.98913
16512,-21.455,0.4828
16523,-22.009,1.3324
16535,-21.488,1.3131
16547,-18.754,0.33469
16559,-17.708,0.91556
16570,-18.486,1.5097
16582,-17.224,1.732
16594,-20.579,1.2918
16605,-24.383,1.4883
16617,-20.617,2.4006
16629,-18.467,2.659
16641,-19.332,0.83555
16652,-17.797,0.51442
16664,-18.582,2.4141
16676,-19.8,1.4531
16688,-17.286,-3.039
16699,-18.316,2.1393
16711,-18.921,4.3573
16723,-18.882,4.2069
16734,-19.759,1.3462
16746,-22.146,1.7761
16758,-22.261,4.0155
16770,-23.344,3.4791
16781,-22.1,0.93319
16793,-19.322,2.0604
16805,-19.317,2.1407
16816,-16.618,-0.20397
16828,-17.938,-1.71
16840,-23.596,-3.0502
16852,-22.406,-0.52294
16863,-20.201,2.5376
16875,-20.469,0.56576
16887,-23.791,0.11055
16898,-22.129,0.18583
16910,-22.481,1.0559
16922,-22.945,1.4308
16934,-21.565,3.7295
16945,-21.657,1.5689
16957,-24.008,-0.98085
16969,-24.701,0.96092
16980,-21.89,-0.63384
16992,-20.043,1.0166
17004,-20.967,0.55749
17016,-20.239,1.6507
17027,-18.688,2.2719
17039,-20.738,2.5523
17051,-24.539,-0.58999
17063,-19.119,-2.3013
17074,-17.743,-2.3718
17086,-19.025,-1.3781
17098,-18.976,2.2839
17109,-19.71,4.3386
17121,-21.393,3.8278
17133,-23.871,2.184
17145,-25.418,0.88377
17156,-24.106,2.6968
17168,-21.327,3.8926
17180,-22.318,1.4749
17191,-23.916,-0.37085
17203,-22.643,0.67836
17215,-23.724,2.883
17227,-22.316,2.5359
17238,-22.751,1.6305
17250,-23.594,0.82382
17262,-22.654,1.8292
17273,-20.358,1.898
17285,-19.948,1.6419
17297,-20.819,0.74827
17309,-22.794,1.2869
17320,-23.98,-1.2503
17332,-22.847,-2.4492
17344,-25.717,0.4252
17355,-22.754,1.2824
17367,-23.238,0.39781
17379,-22.532,2.9539
17391,-19.445,2.4181
17402,-19.928,0.87748
17414,-22.128,1.1618
17426,-21.127,-2.1282
17438,-22.61,-0.54864
17449,-22.661,1.3089
17461,-23.875,0.38677
17473,-21.591,-3.8604
17484,-19.012,-0.9745
17496,-20.478,2.3789
17508,-24.503,1.1097
17520,-22.578,0.29396
17531,-23.723,0.66882
17543,-23.785,0.055696
17555,-22.678,0.059834
17566,-22.573,-2.1892
17578,-22.976,-2.7044
17590,-18.306,-0.35893
17602,-17.295,-1.0821
17613,-18.85,-1.446
17625,-20.776,-0.0052331
17637,-20.629,-0.43114
17648,-19.699,-2.4243
17660,-21.123,-0.45466
17672,-21.976,2.3027
17684,-22.865,2.0201
17695,-21.43,0.11255
17707,-23.077,-1.8866
17719,-21.438,0.53871
17730,-20.19,1.0741
17742,-21.684,-1.4352
17754,-20.421,-1.0448
17766,-22.795,-2.4443
17777,-23.382,-2.342
17789,-26.03,-2.3951
17801,-24.3,-1.7491
17813,-21.701,-0.24421
17824,-21.847,0.83703
17836,-21.861,-1.0148
17848,-21.87,-1.0397
17859,-23.997,-1.2507
17871,-25.02,-1.6678
17883,-23.54,-0.002217
17895,-21.97,0.59797
17906,-21.983,0.22473
17918,-22.348,-3.2239
17930,-21.253,-2.4781
17941,-24.114,0.28334
17953,-25.862,-1.2695
17965,-23.982,-2.1702
17977,-24.643,-1.12
17988,-23.014,0.14352
18000,-22.759,1.5477
18012,-22.287,1.1779
18023,-22.24,0.059028
18035,-21.955,0.12702
18047,-20.052,-1.7061
18059,-20.554,-1.9555
18070,-21.502,-1.2944
18082,-24.556,0.87749
18094,-25.239,0.74105
18105,-23.669,-1.1988
18117,-23.402,-1.1687
18129,-21.416,-0.61245
18141,-20.419,-1.0489
18152,-20.046,0.18709
18164,-21.675,-1.1936
18176,-25.981,0.79068
18188,-26.564,2.9608
18199,-23.707,-0.93286
18211,-23.495,-2.4998
18223,-22.827,-4.292
18234,-22.467,-3.2674
18246,-26.46,0.21396
18258,-26.435,-2.8913
18270,-23.12,-0.38888
18281,-21.161,1.2332
18293,-20.517,-1.749
18305,-20.786,-3.1979
18316,-21.372,-2.9463
18328,-23.46,-6.6079
18340,-25.37,-2.1632
18352,-20.878,0.83816
18363,-20.106,0.1674
18375,-24.111,-2.4603
18387,-25.053,-3.406
18398,-23.375,-1.6519
18410,-23.133,-0.87405
18422,-22.087,-1.3432
18434,-22.48,-1.2566
18445,-22.687,-2.378
18457,-23.476,0.34641
18469,-22.305,0.11994
18480,-22.646,-1.2795
18492,-24.771,-2.0814
18504,-24.756,-0.75902
18516,-21.674,-1.8112
18527,-23.293,-3.0288
18539,-22.673,-1.5828
18551,-23.159,0.51317
18563,-24.655,0.79617
18574,-21.281,-0.20609
18586,-21.938,-0.19098
18598,-21.262,-2.748
18609,-23.714,-3.2886
18621,-24.97,-3.0136
18633,-24.35,-1.2949
18645,-22.93,-0.23787
18656,-22.228,-0.010409
18668,-23.262,-1.6614
18680,-22.476,-4.0289
18691,-20.003,-4.5892
18703,-20.103,-3.5534
18715,-20.239,-2.1793
18727,-23.64,-0.55023
18738,-23.502,-0.70263
18750,-24.222,-0.31275
18762,-25.622,-0.11797
18773,-21.132,0.26716
18785,-22.808,1.9707
18797,-22.091,-5.1463
18809,-22.069,-3.4325
18820,-23.022,-2.6498
18832,-23.957,-3.7365
18844,-21.689,-1.7751
18855,-24.561,1.2696
18867,-24.537,-0.2551
18879,-26.216,-0.30931
18891,-23.606,-0.72176
18902,-21.471,-2.4005
18914,-23.103,-0.24861
18926,-23.027,2.2804
18938,-20.713,-0.65432
18949,-21.005,-2.1595
18961,-20.973,-1.4652
18973,-23.557,-3.8008
18984,-26.033,-3.5591
18996,-23.911,-1.9015
19008,-22.603,-1.6221
19020,-22.502,-1.0299
19031,-24.231,-1.6536
19043,-26.275,-1.0611
19055,-21.687,-1.9917
19066,-24.701,0.10957
19078,-24.73,-3.0226
19090,-24.36,-1.4839
19102,-24.623,-3.2404
19113,-24.839,-6.3082
19125,-24.35,-1.8882
19137,-25.169,-0.98391
19148,-23.877,0.67782
19160,-23.068,0.55873
19172,-22.625,-2.0656
19184,-22.031,-2.4712
19195,-22.056,-0.76555
19207,-23.114,1.8107
19219,-24.553,-0.015222
19230,-23.787,-1.4851
19242,-24.034,-1.2052
19254,-24.177,-0.71719
19266,-25.516,-0.89616
19277,-27.097,-0.2136
19289,-24.555,-3.213
19301,-24.81,-3.1472
19313,-22.61,-4.0146
19324,-23.365,-2.4754
19336,-23.815,-2.2648
19348,-23.09,-2.2144
19359,-25.46,0.16299
19371,-28.418,-0.67599
19383,-26.224,-1.4072
19395,-22.348,-2.9894
19406,-23.676,-0.22397
19418,-24.057,0.2684
19430,-20.442,-0.15276
19441,-19.654,-0.027039
19453,-19.1,0.18049
19465,-22.356,-1.493
19477,-23.852,0.40763
19488,-21.951,0.3896
19500,-23.724,-0.45347
19512,-23.142,-1.5361
19523,-25.412,-4.5404
19535,-25.011,-5.3776
19547,-23.47,-2.6786
19559,-20.691,0.60144
19570,-20.031,2.3563
19582,-23.573,1.3665
19594,-28.009,-2.9319
19605,-26.666,-3.2053
19617,-24.081,-1.0932
19629,-24.788,0.21383
19641,-22.333,-0.76421
19652,-22.463,-2.9471
19664,-23.429,-2.6913
19676,-23.404,-2.6617
19688,-25.698,-5.7259
19699,-22.753,-5.1781
19711,-22.507,-1.8469
19723,-24.081,-0.33706
19734,-25.735,-1.6713
19746,-24.617,-2.3808
19758,-23.821,-3.7361
19770,-25.444,-0.86453
19781,-23.568,0.10407
19793,-21.303,-0.38648
19805,-21.741,-4.0788
19816,-23.059,-5.7879
19828,-25.672,-4.0896
19840,-26.254,-2.0845
19852,-25.323,-2.1968
19863,-28.042,-2.0878
19875,-25.389,-0.26956
19887,-23.349,-1.6317
19898,-23.549,-1.7953
19910,-25.76,-3.7313
19922,-25.319,-1.9835
19934,-24.216,-2.3784
19945,-24.282,-4.063
19957,-27.953,-4.0878
19969,-31.007,-2.9767
19980,-26.438,-3.1182
19992,-24.559,-4.1726
20004,-24.058,-2.7569
20016,-26.233,-4.3852
20027,-24.949,-4.5599
20039,-24.776,-4.9552
20051,-26.598,-4.852
20063,-24.813,-2.8848
20074,-22.84,-0.81709
20086,-23.537,-2.0496
20098,-26.003,-2.4358
20109,-24.552,-3.0387
20121,-26.027,-0.8261
20133,-30.38,-1.6451
20145,-26.439,-1.7909
20156,-23.171,-1.1389
20168,-23.44,-1.618
20180,-26.541,-1.5392
20191,-25.699,-4.0095
20203,-25.179,-4.3362
20215,-24.825,-3.0098
20227,-26.776,-0.68447
20238,-23.69,-3.3123
20250,-23.441,-1.447
20262,-22.331,-1.2018
20273,-22.888,-2.3718
20285,-23.357,-3.036
20297,-23.322,-2.5987
20309,-23.857,-5.975
20320,-25.97,-6.2288
20332,-26.099,-3.4265
20344,-24.055,-4.1501
20355,-25.871,-3.0582
20367,-29.175,-3.7576
20379,-26.429,-4.9903
20391,-24.787,-2.8548
20402,-22.146,-0.39358
20414,-21.408,-2.3821
20426,-23.318,-5.459
20438,-22.247,-3.4225
20449,-23.372,-2.2465
20461,-26.073,-2.4527
20473,-28.155,-1.8463
20484,-26.56,-1.5711
20496,-24.754,-4.0176
20508,-24.654,-1.0521
20520,-25.006,-3.9614
20531,-24.226,-4.7931
20543,-25.9,-1.834
20555,-28.253,-4.3002
20566,-25.812,-1.3512
20578,-22.515,-5.2594
20590,-26.933,-1.5244
20602,-25.214,-0.70335
20613,-28.737,-2.4172
20625,-28.974,-4.7222
20637,-26.927,-5.0728
20648,-23.835,-6.2646
20660,-23.754,-2.3863
20672,-24.101,-2.4548
20684,-25.7,0.75202
20695,-27.585,0.51672
20707,-29.084,2.2968
20719,-29.679,1.295
20730,-27.523,-2.9996
20742,-23.113,-7.7353
20754,-22.861,-6.0375
20766,-25.34,-4.6177
20777,-25.411,-4.4626
20789,-25.299,-0.6149
20801,-26.96,-0.55578
20813,-26.139,-4.2891
20824,-22.526,-6.3043
20836,-22.454,-5.3983
20848,-24.566,-5.1461
20859,-28.007,-5.8936
20871,-27.056,-3.3934
20883,-24.11,-4.1567
20895,-23.752,-4.5925
20906,-26.487,-3.6705
20918,-25.181,-4.9311
20930,-27.077,-3.6964
20941,-25.769,-3.1225
20953,-24.451,-1.6091
20965,-26.343,-1.0998
20977,-26.308,-2.5236
20988,-24.346,-3.1774
21000,-22.556,-4.0869
21012,-24.7,-3.5638
21023,-24.048,-5.2988
21035,-27.41,-6.1001
21047,-25.9,-7.0532
21059,-24.781,-3.701
21070,-25.518,-2.5079
21082,-25.975,-2.5552
21094,-26.057,-3.4951
21105,-28.393,-3.6202
21117,-25.557,-3.0572
21129,-25.804,-3.6432
21141,-26.049,-6.2612
21152,-27.349,-6.2793
21164,-26.458,-4.7311
21176,-23.54,-3.9388
21188,-26.044,-4.1677
21199,-26.318,-3.9424
21211,-24.321,-4.7959
21223,-25.705,-4.1973
21234,-25.625,-6.2261
21246,-25.864,-3.2463
21258,-25.447,-0.92067
21270,-25.2,-1.3553
21281,-24.727,-2.282
21293,-24.777,-2.863
21305,-25.581,-6.3846
21316,-26.723,-4.4159
21328,-25.424,-1.8935
21340,-23.193,-4.7429
21352,-22.458,-6.7541
21363,-21.438,-4.8936
21375,-23.041,-3.2056
21387,-23.831,-3.7817
21398,-22.961,-5.1585
21410,-22.535,-4.1986
21422,-19.446,-3.6418
21434,-17.747,-3.9069
21445,-18.979,-3.3998
21457,-21.653,-3.378
21469,-24.961,-4.1403
21480,-30.216,-5.1988
21492,-28.743,-6.869
21504,-26.631,-4.8061
21516,-24.342,-6.7176
21527,-25.033,-6.0276
21539,-25.585,-5.5073
21551,-26.08,-5.3871
21563,-25.661,-5.0241
21574,-24.852,-3.1748
21586,-26.554,-3.4047
21598,-27.573,-3.7817
21609,-24.955,-4.3016
21621,-24.4,-3.8556
21633,-26.694,-7.5413
21645,-23.375,-3.5442
21656,-25.994,-4.0591
21668,-26.991,-6.6194
21680,-30.604,-2.9246
21691,-29.769,-3.3765
21703,-29.899,-5.3157
21715,-26.752,-5.3072
21727,-24.158,-6.3184
21738,-29.661,-5.0496
21750,-28.848,-4.4477
21762,-28.444,-3.7939
21773,-31.147,-3.1383
21785,-29.434,-5.9042
21797,-29.188,-4.3097
21809,-26.575,-3.3548
21820,-25.23,-7.0298
21832,-24.653,-4.0409
21844,-23.442,-2.938
21855,-26.933,-3.5988
21867,-28.183,-7.1737
21879,-27.016,-3.711
21891,-27.932,-3.427
21902,-28.414,-4.3501
21914,-27.079,-3.7518
21926,-25.714,-2.8385
21938,-29.237,-3.9033
21949,-26.933,-3.8368
21961,-24.64,-5.7458
21973,-24.859,-3.153
21984,-24.775,-1.4742
21996,-25.423,-2.9255
22008,-24.886,-5.1792
22020,-25.733,-4.5346
22031,-26.138,-6.2413
22043,-27.46,-7.8813
22055,-26.507,-5.9235
22066,-26.299,-3.8542
22078,-25.077,-1.9212
22090,-27.294,-2.2433
22102,-29.013,-3.9195
22113,-28.83,-3.4387
22125,-27.932,-3.8713
22137,-31.19,-5.4454
22148,-28.565,-3.7317
22160,-26.402,-4.3222
22172,-27.206,-3.2802
22184,-25.785,-5.1764
22195,-27.246,-5.3523
22207,-29.397,-4.8892
22219,-25.863,-4.0504
22230,-27.163,-2.6478
22242,-25.545,-2.1197
22254,-26.199,-3.1982
22266,-28.512,-7.0565
22277,-28.429,-5.936
22289,-27.247,-4.5886
22301,-28.194,-3.945
22313,-27.228,-4.491
22324,-26.347,-5.2218
22336,-26.584,-5.729
22348,-26.53,-6.6016
22359,-28.834,-6.2763
22371,-29.507,-6.7463
22383,-28.016,-5.3409
22395,-29.227,-6.8457
22406,-31.407,-4.9995
22418,-25.548,-4.491
22430,-26.509,-3.6381
22441,-26.815,-3.9796
22453,-28.179,-5.9527
22465,-27.095,-4.1141
22477,-23.028,-4.7474
22488,-24.246,-5.9471
22500,-26.537,-7.2294
22512,-29.114,-6.8313
22523,-25.61,-4.8562
22535,-26.673,-6.5664
22547,-29.837,-3.6078
22559,-27.343,-5.5304
22570,-27.426,-5.9055
22582,-29.674,-6.8731
22594,-26.852,-5.4868
22605,-26.349,-6.0775
22617,-26.724,-7.0982
22629,-30.369,-6.1934
22641,-31.075,-5.4784
22652,-29.065,-3.1759
22664,-26.919,-3.5457
22676,-26.618,-4.3668
22688,-28.544,-4.4808
22699,-29.252,-6.5661
22711,-28.971,-5.9799
22723,-25.324,-2.1308
22734,-25.122,-3.4241
22746,-23.586,-1.5169
22758,-24.166,-5.8176
22770,-26.959,-4.7791
22781,-25.497,-6.6572
22793,-25.928,-6.0212
22805,-27.372,-5.0909
22816,-23.739,-6.9787
22828,-24.2,-2.294
22840,-25.95,-2.7127
22852,-28.168,-6.2413
22863,-27.009,-6.3309
22875,-29.165,-6.0244
22887,-29.542,-3.7713
22898,-25.288,-2.7635
22910,-26.634,-4.4594
22922,-30.791,-4.4786
22934,-27.784,-4.7181
22945,-25.946,-4.2628
22957,-25.187,-4.4897
22969,-27.715,-6.543
22980,-26.948,-4.708
22992,-27.71,-5.3585
23004,-33.611,-5.9541
23016,-29.777,-5.5907
23027,-27.598,-7.2391
23039,-27.026,-4.635
23051,-26.494,-5.7636
23063,-29.103,-5.4601
23074,-26.167,-2.4423
23086,-24.844,-3.0793
23098,-27.905,-5.1558
23109,-27.089,-4.9474
23121,-27.606,-5.772
23133,-29.315,-6.3294
23145,-28.77,-6.6807
23156,-27.58,-4.2152
23168,-29.464,-4.3771
23180,-29.089,-6.277
23191,-26.721,-6.9027
23203,-26.936,-7.6186
23215,-26.045,-7.5011
23227,-23.203,-8.5115
23238,-25.129,-5.3994
23250,-27.175,-5.3574
23262,-28.979,-4.6668
23273,-28.196,-3.9022
23285,-29.265,-3.7386
23297,-30.611,-4.1094
23309,-25.896,-4.9731
23320,-26.565,-3.9995
23332,-29.76,-4.1282
23344,-30.674,-3.4428
23355,-29.274,-4.321
23367,-34.729,-6.623
23379,-28.093,-5.3812
23391,-27.428,-3.8808
23402,-28.326,-3.3548
23414,-25.753,-6.1742
23426,-26.371,-8.6355
23438,-25.935,-10.71
23449,-27.129,-8.5167
23461,-26.414,-5.4238
23473,-27.196,-8.1679
23484,-30.518,-4.8756
23496,-29.48,-5.8817
23508,-30.187,-7.9831
23520,-29.317,-6.5135
23531,-27.654,-4.6185
23543,-28.271,-7.8066
23555,-29.994,-6.7318
23566,-30.112,-5.1692
23578,-26.409,-4.0885
23590,-26.816,-9.3734
23602,-28.898,-5.0861
23613,-26.91,-6.9934
23625,-24.856,-6.5
23637,-25.182,-4.4315
23648,-27.731,-6.0877
23660,-26.346,-5.0514
23672,-28.937,-2.367
23684,-32.715,-4.7047
23695,-30.023,-6.2549
23707,-29.743,-5.8728
23719,-28.743,-6.232
23730,-28.018,-6.0402
23742,-27.014,-7.8733
23754,-28.466,-7.0674
23766,-27.731,-5.1795
23777,-26.385,-5.7193
23789,-29.819,-8.3343
23801,-31.212,-6.2044
23813,-27.949,-5.8636
23824,-27.767,-5.5797
23836,-26.965,-7.0296
23848,-32.172,-7.512
23859,-28.765,-4.6615
23871,-25.494,-5.3055
23883,-26.981,-6.6984
23895,-27.021,-8.8727
23906,-27.049,-8.2237
23918,-28.256,-6.5191
23930,-28.585,-6.8829
23941,-25.566,-8.2341
23953,-26.544,-7.7986
23965,-27.498,-5.6373
23977,-27.071,-3.5145
23988,-24.877,-2.17
