FFT,Power Spectrum
Frequency[Hz],Level-L[dB],Level-R[dB]
11.719,-23.829,-24.191
23.438,-4.2846,-3.2275
35.156,-3.8492,3.835
46.875,0.62144,8.6448
58.594,-0.18105,10.952
70.313,1.7508,13.077
82.031,3.6433,10.444
93.75,10.249,8.0649
105.47,12.326,8.4311
117.19,11.428,12.128
128.91,14.992,14.038
140.63,16.686,18.514
152.34,10.73,17.873
164.06,1.4554,16.251
175.78,4.6903,17.982
187.5,9.0363,16.136
199.22,9.8275,17.949
210.94,5.5711,19.523
222.66,4.4201,15.34
234.38,11.063,17.028
246.09,9.8165,16.359
257.81,4.738,19.245
269.53,7.2146,19.702
281.25,9.9803,17.858
292.97,9.7637,21.022
304.69,10.329,17.473
316.41,9.5775,21.297
328.13,7.0902,22.103
339.84,5.1675,17.578
351.56,4.9889,21.143
363.28,4.7498,20.88
375,8.3274,20.046
386.72,10.125,22.665
398.44,7.7794,19.223
410.16,5.2197,19.738
421.88,4.6704,21.131
433.59,5.3652,20.323
445.31,11.446,20.989
457.03,17.763,22.888
468.75,15.348,22.06
480.47,6.5289,22.336
492.19,9.0629,22.524
503.91,7.2794,19.923
515.63,5.0427,23.592
527.34,5.8552,23.094
539.06,7.5512,23.727
550.78,8.4315,21.436
562.5,7.0265,20.241
574.22,4.6924,23.372
585.94,6.1817,19.121
597.66,4.9135,20.054
609.38,7.225,21.838
621.09,9.2177,19.696
632.81,6.309,19.469
644.53,6.651,21.016
656.25,7.3812,21.156
667.97,3.5802,20.166
679.69,4.2664,20.723
691.41,5.4884,21.234
703.13,4.4297,24.239
714.84,1.0128,23.797
726.56,3.5135,23.611
738.28,6.9393,20.38
750,5.3627,18.171
761.72,6.7441,19.23
773.44,6.9376,21.844
785.16,7.5163,23.847
796.88,10.704,21.666
808.59,9.5807,22.19
820.31,10.775,20.316
832.03,7.9051,22.075
843.75,6.0562,23.618
855.47,7.4876,22.035
867.19,7.5666,20.233
878.91,8.2535,19.131
890.63,6.6966,23.16
902.34,8.0419,22.139
914.06,10.041,20.382
925.78,9.5169,19.026
937.5,7.6859,17.761
949.22,8.2525,21.49
960.94,7.6768,19.162
972.66,7.294,18.212
984.38,6.35,21.041
996.09,4.9974,21.924
1007.8,4.6317,18.204
1019.5,7.6469,22.283
1031.3,8.753,20.344
1043,8.6623,23.636
1054.7,6.7891,25.218
1066.4,5.3674,22.977
1078.1,5.9112,19.997
1089.8,4.1036,19.862
1101.6,6.5771,19.799
1113.3,8.1427,19.352
1125,8.0535,19.875
1136.7,9.1525,19.942
1148.4,4.7487,18.927
1160.2,9.9005,18.061
1171.9,8.383,17.948
1183.6,7.4531,21.721
1195.3,7.5352,21.965
1207,11.094,21.894
1218.8,10.537,19.621
1230.5,10.967,22.812
1242.2,7.5437,22.441
1253.9,4.8394,22.106
1265.6,5.0981,21.251
1277.3,6.1602,20.969
1289.1,7.5024,20.116
1300.8,4.1594,19.139
1312.5,4.0598,22.038
1324.2,7.6639,21.768
1335.9,6.178,20.217
1347.7,3.873,24.105
1359.4,7.1307,23.559
1371.1,6.6087,20.908
1382.8,6.4931,19.555
1394.5,7.7834,22.306
1406.3,6.8267,21.295
1418,5.3615,20.996
1429.7,4.813,21.147
1441.4,5.1675,21.316
1453.1,4.1895,23.326
1464.8,2.9592,19.792
1476.6,3.2265,18.741
1488.3,7.1468,19.765
1500,8.044,18.985
1511.7,7.8005,16.478
1523.4,7.181,18.013
1535.2,7.0015,19.018
1546.9,7.7583,17.991
1558.6,6.8578,19.911
1570.3,5.2112,20.432
1582,4.977,22.221
1593.8,5.2453,22.959
1605.5,1.6896,19.149
1617.2,1.3831,19.412
1628.9,4.3453,22.724
1640.6,6.8895,21.893
1652.3,6.5939,20.237
1664.1,7.0606,20.63
1675.8,7.1239,18.579
1687.5,5.4654,18.952
1699.2,2.2824,20.853
1710.9,2.3421,19.128
1722.7,5.2658,15.506
1734.4,7.061,16.885
1746.1,7.6914,22.545
1757.8,6.0569,22.311
1769.5,2.3777,18.359
1781.3,3.0084,18.442
1793,5.787,19.982
1804.7,8.4588,20.81
1816.4,9.9985,21.11
1828.1,10.048,17.916
1839.8,5.732,18.226
1851.6,7.8126,17.674
1863.3,5.4468,16.145
1875,8.1765,17.35
1886.7,8.4723,18.594
1898.4,5.4973,19.037
1910.2,6.6719,20.359
1921.9,6.7831,22.407
1933.6,3.5865,19.66
1945.3,5.5986,18.929
1957,7.7387,16.681
1968.8,5.2626,15.383
1980.5,-0.2787,18.035
1992.2,2.4257,20.592
2003.9,3.2542,20.364
2015.6,-0.2533,19.323
2027.3,-1.5685,21.527
2039.1,2.0119,21.003
2050.8,2.5296,18.546
2062.5,4.7802,16.777
2074.2,4.2537,17.205
2085.9,3.4594,15.556
2097.7,3.6799,15.899
2109.4,1.4691,15.957
2121.1,1.9965,16.158
2132.8,5.7613,17.98
2144.5,4.8788,19.836
2156.3,0.25339,20.481
2168,1.9797,16.551
2179.7,4.5521,17.943
2191.4,2.9221,19.288
2203.1,3.7304,16.618
2214.8,2.4301,17.413
2226.6,6.9273,16.714
2238.3,4.1739,15.556
2250,6.48,16.659
2261.7,8.3253,14.889
2273.4,6.8831,15.12
2285.2,2.6891,18.44
2296.9,3.0103,18.483
2308.6,2.6949,17.317
2320.3,5.6229,17.509
2332,3.8896,15.775
2343.8,-0.94682,16.792
2355.5,4.294,18.922
2367.2,6.7929,20.73
2378.9,7.1877,18.911
2390.6,7.6358,19.257
2402.3,3.6279,18.461
2414.1,0.01223,15.568
2425.8,-3.9298,15.209
2437.5,2.1228,17.213
2449.2,4.228,16.364
2460.9,3.0785,15.464
2472.7,3.1276,16.23
2484.4,1.9886,17.267
2496.1,2.1962,14.416
2507.8,0.13866,13.067
2519.5,0.37006,16.93
2531.3,1.6018,18.226
2543,2.8107,15.101
2554.7,0.85112,15.997
2566.4,6.1,17.62
2578.1,5.0902,16.588
2589.8,2.72,16.326
2601.6,1.9871,17.426
2613.3,3.2986,16.588
2625,2.6249,16.413
2636.7,1.0091,17.085
2648.4,-2.1738,17.841
2660.2,-1.7721,15.442
2671.9,-1.658,16.082
2683.6,1.0967,15.943
2695.3,-1.392,15.488
2707,-0.82882,16.476
2718.8,0.099481,19.691
2730.5,1.3409,19.366
2742.2,3.1529,19.232
2753.9,2.2037,16.193
2765.6,1.5788,17.169
2777.3,3.734,17.719
2789.1,3.0734,18.356
2800.8,-0.10025,14.588
2812.5,-0.98069,15.749
2824.2,-2.0235,16.033
2835.9,-2.1576,17.37
2847.7,-0.81414,14.395
2859.4,-2.8193,15.595
2871.1,-1.842,17.776
2882.8,-0.18067,18.5
2894.5,1.1556,17.861
2906.3,1.3703,16.83
2918,2.4117,18.433
2929.7,1.3888,18.928
2941.4,-2.0551,17.175
2953.1,1.1919,14.495
2964.8,0.049974,18.102
2976.6,0.40415,19.335
2988.3,-1.5668,18.466
3000,0.33232,14.56
3011.7,0.82161,17.225
3023.4,-0.75756,18.091
3035.2,-0.41168,17.366
3046.9,0.51494,18.023
3058.6,0.18516,17.768
3070.3,-1.2959,18.327
3082,-2.3259,17.82
3093.8,-1.5065,15.927
3105.5,-0.91903,15.362
3117.2,-0.31998,18.045
3128.9,-0.62805,18.964
3140.6,3.0823,18.856
3152.3,1.8562,16.889
3164.1,-1.7514,15.591
3175.8,-1.4959,15.395
3187.5,-1.2281,14.742
3199.2,0.66179,13.903
3210.9,-2.7629,14.446
3222.7,2.9684,17.631
3234.4,0.039448,15.669
3246.1,0.55749,16.035
3257.8,1.8371,17.484
3269.5,1.1834,13.771
3281.3,-0.97245,11.582
3293,0.29872,12.534
3304.7,-1.2718,13.96
3316.4,-1.9992,15.145
3328.1,-3.1692,15.761
3339.8,-3.674,15.598
3351.6,-4.1019,15.656
3363.3,-3.1617,15.926
3375,-1.6565,15.849
3386.7,0.81819,16.52
3398.4,-0.55755,17.04
3410.2,-4.6055,16.664
3421.9,-1.687,16.665
3433.6,-2.5571,15.617
3445.3,-0.81989,15.135
3457,-0.7737,14.96
3468.8,0.97174,15.218
3480.5,1.0893,17.33
3492.2,-1.0488,17.56
3503.9,-0.30965,16.048
3515.6,-0.037955,16.441
3527.3,1.8922,16.742
3539.1,2.2185,15.363
3550.8,-4.1382,13.114
3562.5,-3.149,16.962
3574.2,-4.0787,17.544
3585.9,-0.51383,16.546
3597.7,1.6459,13.177
3609.4,0.85491,13.432
3621.1,1.9735,15.217
3632.8,-3.748,11.349
3644.5,0.784,15.18
3656.3,-0.51715,14.092
3668,-1.9655,13.652
3679.7,-3.9095,15.513
3691.4,-0.36939,16.227
3703.1,-3.464,17.752
3714.8,-2.3095,14.679
3726.6,0.51296,14.699
3738.3,0.61932,15.568
3750,-1.1155,13.308
3761.7,-4.6817,14.514
3773.4,-1.6599,16.023
3785.2,-1.5164,14.694
3796.9,-3.5691,12.144
3808.6,-3.3546,14.116
3820.3,-2.1755,13.779
3832,-1.1852,12.539
3843.8,-1.7967,11.435
3855.5,-1.0106,12.755
3867.2,-1.888,13.396
3878.9,-3.002,14.912
3890.6,-2.5044,14.3
3902.3,-2.1908,15.428
3914.1,-2.0292,15.508
3925.8,-1.0654,14.352
3937.5,-2.1489,15.515
3949.2,-1.0811,16.229
3960.9,-2.1651,14.06
3972.7,-3.0327,12.997
3984.4,-3.9254,15.506
3996.1,0.48531,14.235
4007.8,-0.84475,16.013
4019.5,-2.2897,15.064
4031.3,-2.0529,14.616
4043,-3.7683,14.032
4054.7,-2.6519,15.362
4066.4,-1.602,15.655
4078.1,-1.204,15.977
4089.8,0.45298,15.265
4101.6,0.20412,14.858
4113.3,-0.94982,14.559
4125,-0.36811,14.399
4136.7,-0.87309,17.747
4148.4,-4.2814,15.763
4160.2,-2.8718,14.214
4171.9,-0.97849,14.922
4183.6,-4.2503,11.306
4195.3,-7.6034,11.777
4207,-1.7353,11.55
4218.8,1.9071,16.711
4230.5,-0.94281,16.804
4242.2,-4.0723,15.503
4253.9,-2.8125,14.647
4265.6,-4.7082,14.835
4277.3,-1.8663,14.268
4289.1,-2.0863,15.011
4300.8,-1.1565,15.756
4312.5,-2.3915,14.377
4324.2,-2.6657,12.417
4335.9,-2.7397,12.664
4347.7,-1.2125,12.774
4359.4,0.77181,11.032
4371.1,-0.15087,14.598
4382.8,-4.4371,15.969
4394.5,-1.8294,13.391
4406.3,0.048816,12.183
4418,-2.2366,15.568
4429.7,-7.9014,16.88
4441.4,-5.1682,13.678
4453.1,-3.4165,11.317
4464.8,-3.8385,10.4
4476.6,-4.7973,15.648
4488.3,-3.698,14.678
4500,-4.6916,16.491
4511.7,-5.2637,16.345
4523.4,-3.9874,10.825
4535.2,-2.7516,13.623
4546.9,-3.1764,13.152
4558.6,-3.8707,14.488
4570.3,-3.5017,10.385
4582,-2.4216,12.092
4593.8,-3.9304,15.318
4605.5,-3.9093,17.214
4617.2,-2.8525,14.797
4628.9,-0.94677,12.225
4640.6,-1.6651,16.134
4652.3,-3.5576,16.289
4664.1,-3.5894,15.3
4675.8,-1.552,14.701
4687.5,-5.0742,14.438
4699.2,-2.3755,12.114
4710.9,-2.249,13.458
4722.7,-3.6523,13.614
4734.4,-3.3185,13.417
4746.1,-4.3526,13.062
4757.8,-3.4304,13.58
4769.5,-0.24867,13.483
4781.3,-0.093624,13.544
4793,-0.68848,14.741
4804.7,-1.1461,15.208
4816.4,-2.8982,12.569
4828.1,-3.4217,14.444
4839.8,-2.7589,15.133
4851.6,-2.1088,14.184
4863.3,-2.5302,14.921
4875,-5.384,15.812
4886.7,-1.6346,13.277
4898.4,-5.1856,12.144
4910.2,-6.4654,12.838
4921.9,-6.2927,10.576
4933.6,-3.0254,11.939
4945.3,-2.3058,12.699
4957,-2.1103,10.241
4968.8,-2.0863,13.084
4980.5,-3.1621,13.243
4992.2,-3.7469,13.578
5003.9,-5.2784,14.337
5015.6,-2.7343,14.519
5027.3,-3.7781,14.235
5039.1,-5.8282,13.41
5050.8,-5.1736,14.212
5062.5,-5.3304,11.625
5074.2,-5.566,10.502
5085.9,-6.5958,14.951
5097.7,-4.4489,13.6
5109.4,-4.8344,10.15
5121.1,-5.4102,11.389
5132.8,-4.2727,13.092
5144.5,-3.3481,12.85
5156.3,-3.8585,12.96
5168,-5.6709,13.708
5179.7,-6.5134,13.187
5191.4,-3.9023,16.15
5203.1,-2.4686,14.517
5214.8,-1.3724,12.096
5226.6,-3.166,13.24
5238.3,-2.964,11.683
5250,-2.7347,15.257
5261.7,-3.8236,15.564
5273.4,-5.9805,16.902
5285.2,-5.3364,13.005
5296.9,-4.6964,9.2087
5308.6,-4.0712,12.223
5320.3,-1.8114,13.746
5332,-5.556,14.523
5343.8,-5.4157,13.33
5355.5,-6.4072,13.334
5367.2,-5.9129,11.715
5378.9,-6.5107,11.509
5390.6,-4.2173,10.203
5402.3,-5.7285,9.9312
5414.1,-5.8812,10.426
5425.8,-4.4567,8.9041
5437.5,-2.7331,12.845
5449.2,-5.0099,15.988
5460.9,-4.3205,13.793
5472.7,-1.803,11.529
5484.4,-1.284,12.817
5496.1,-2.6109,13.531
5507.8,-3.9281,12.304
5519.5,-6.8474,12.765
5531.3,-4.183,10.457
5543,-3.1536,8.6354
5554.7,-3.7834,9.1124
5566.4,-4.354,13.307
5578.1,-5.5876,13.363
5589.8,-4.3635,13.63
5601.6,-5.5887,12.816
5613.3,-7.4286,12.176
5625,-7.3353,11.113
5636.7,-5.2222,12.21
5648.4,-4.8906,14.171
5660.2,-5.894,11.28
5671.9,-3.4277,9.261
5683.6,-4.9157,10.269
5695.3,-4.7177,9.0649
5707,-4.7365,11.801
5718.8,-3.8609,12.162
5730.5,-3.7287,10.839
5742.2,-0.99955,9.7045
5753.9,-1.3285,11.65
5765.6,-3.8197,13.147
5777.3,-6.3467,10.688
5789.1,-4.7953,12.529
5800.8,-2.326,12.364
5812.5,-3.4962,11.892
5824.2,-5.6041,13.991
5835.9,-7.0864,10.982
5847.7,-9.2833,9.7339
5859.4,-8.2348,8.9078
5871.1,-6.6206,10.573
5882.8,-6.6722,12.914
5894.5,-6.04,10.399
5906.3,-3.7312,9.68
5918,-3.5436,11.038
5929.7,-6.6744,10.453
5941.4,-5.7248,9.7668
5953.1,-5.5691,12.211
5964.8,-3.72,13.719
5976.6,1.4731,10.293
5988.3,2.6285,9.0467
6000,-2.4174,9.9126
6011.7,-4.7958,10.298
6023.4,-3.9199,11.599
6035.2,-2.9041,13.013
6046.9,-3.9864,13.853
6058.6,-1.815,14.326
6070.3,-1.5828,13.419
6082,-3.3477,12.388
6093.8,-6.6915,10.797
6105.5,-7.5657,10.31
6117.2,-7.3988,9.6176
6128.9,-4.2415,9.5806
6140.6,-5.7855,9.3579
6152.3,-6.722,9.0131
6164.1,-6.6224,8.9597
6175.8,-4.42,10.644
6187.5,-6.7563,11.331
6199.2,-7.1325,10.025
6210.9,-5.7597,12.744
6222.7,-7.8508,11.489
6234.4,-6.9894,8.7748
6246.1,-6.9507,12.99
6257.8,-6.0329,12.415
6269.5,-3.2528,13.295
6281.3,-3.7311,12.504
6293,-5.8461,8.7742
6304.7,-7.4151,9.3645
6316.4,-6.6932,10.987
6328.1,-9.0632,9.5755
6339.8,-5.3965,10.116
6351.6,-4.4914,10.795
6363.3,-7.8412,12.555
6375,-7.54,12.436
6386.7,-6.3269,12.044
6398.4,-4.7159,9.402
6410.2,-6.1545,7.8356
6421.9,-7.0199,9.3236
6433.6,-5.4127,8.5137
6445.3,-6.5064,7.5083
6457,-6.3738,6.5351
6468.8,-7.0814,11.021
6480.5,-6.6357,9.3187
6492.2,-4.659,8.0284
6503.9,-5.5096,11.708
6515.6,-8.2731,12.912
6527.3,-6.0302,10.226
6539.1,-6.3,9.8072
6550.8,-5.8771,9.6412
6562.5,-3.7146,10.942
6574.2,-7.0073,9.4079
6585.9,-4.5515,8.9195
6597.7,-3.9915,9.6871
6609.4,-4.109,11.429
6621.1,-4.0287,10.332
6632.8,-6.1852,9.6936
6644.5,-8.0822,11.734
6656.3,-6.09,13.756
6668,-9.0372,13.019
6679.7,-6.6178,9.6059
6691.4,-8.276,13.483
6703.1,-10.002,12.473
6714.8,-9.0945,9.2973
6726.6,-6.066,9.2004
6738.3,-5.1538,10.958
6750,-4.9901,10.871
6761.7,-3.6153,10.173
6773.4,-3.5376,9.2829
6785.2,-6.6451,10.812
6796.9,-6.5676,11.213
6808.6,-4.6902,11.263
6820.3,-6.4383,12.005
6832,-9.7205,11.154
6843.8,-10.19,10.646
6855.5,-7.2735,10.515
6867.2,-6.7812,10.374
6878.9,-6.2848,12.745
6890.6,-0.73736,13.472
6902.3,3.9718,9.7697
6914.1,0.092146,5.4873
6925.8,-6.1039,8.557
6937.5,-5.4601,12.253
6949.2,-6.1068,12.461
6960.9,-7.1656,9.3799
6972.7,-4.3229,10.504
6984.4,-7.171,11.073
6996.1,-5.2424,8.0619
7007.8,-6.352,9.7102
7019.5,-8.9904,11.171
7031.3,-8.2123,11.232
7043,-6.1362,8.4575
7054.7,-6.8378,8.0784
7066.4,-6.1758,10.278
7078.1,-6.0194,7.8288
7089.8,-9.5206,9.3504
7101.6,-7.5584,10.295
7113.3,-5.4492,9.7331
7125,-5.8793,10.047
7136.7,-4.411,11.777
7148.4,-6.7546,10.833
7160.2,-8.1196,7.4321
7171.9,-8.5772,8.6682
7183.6,-5.9606,11.911
7195.3,-5.0195,12.509
7207,-8.2853,11.996
7218.8,-9.6535,11.286
7230.5,-8.6255,11.284
7242.2,-8.1546,9.4996
7253.9,-6.9458,9.7252
7265.6,-6.8176,12.172
7277.3,-8.0741,13.207
7289.1,-9.2354,13.899
7300.8,-7.6135,11.955
7312.5,-7.581,9.542
7324.2,-7.685,7.9678
7335.9,-8.3209,7.3814
7347.7,-8.6909,6.72
7359.4,-8.6253,7.1543
7371.1,-6.2944,8.9374
7382.8,-5.7491,9.9932
7394.5,-5.4582,9.1481
7406.3,-6.0131,8.1241
7418,-6.9761,9.3308
7429.7,-6.8963,9.7995
7441.4,-9.8276,9.5255
7453.1,-6.4717,8.0826
7464.8,-9.1543,9.5077
7476.6,-10.568,8.7324
7488.3,-8.9548,7.6336
7500,-5.9189,8.609
7511.7,-5.0003,8.703
7523.4,-6.2413,5.0803
7535.2,-5.0696,4.7067
7546.9,-8.069,7.9357
7558.6,-10.498,7.7977
7570.3,-9.4588,8.0607
7582,-8.2065,8.0116
7593.8,-6.9845,8.1194
7605.5,-6.3096,8.3266
7617.2,-6.7441,9.3737
7628.9,-6.0601,9.7709
7640.6,-9.7855,10.754
7652.3,-9.225,7.4238
7664.1,-9.9775,6.7825
7675.8,-8.114,7.6898
7687.5,-6.7792,8.1676
7699.2,-9.3306,6.5934
7710.9,-8.4946,7.711
7722.7,-7.3642,9.4291
7734.4,-9.9188,9.1457
7746.1,-9.9979,6.8984
7757.8,-5.7358,9.521
7769.5,-11.485,6.9516
7781.3,-9.0005,7.5893
7793,-6.2233,8.33
7804.7,-7.2509,8.5026
7816.4,-8.4054,5.9023
7828.1,-7.1901,8.4955
7839.8,-5.5573,11.618
7851.6,-5.022,12.552
7863.3,-7.9021,10.552
7875,-8.8319,9.6487
7886.7,-9.9653,7.5231
7898.4,-11.084,8.317
7910.2,-10.739,8.2114
7921.9,-8.49,8.2418
7933.6,-5.6341,9.8484
7945.3,-8.158,9.1173
7957,-12.177,7.9501
7968.8,-7.6335,3.7391
7980.5,-9.2704,6.7742
7992.2,-11.895,10.223
8003.9,-10.069,10.25
8015.6,-12.036,9.6549
8027.3,-8.2917,7.635
8039.1,-6.2518,6.7842
8050.8,-5.6455,5.09
8062.5,-5.0258,9.1014
8074.2,-6.6083,10.888
8085.9,-9.207,10.045
8097.7,-9.7144,7.9196
8109.4,-10.187,6.3341
8121.1,-10.235,7.011
8132.8,-9.7068,9.6091
8144.5,-10.159,8.8545
8156.3,-11.367,9.9913
8168,-8.9716,8.5006
8179.7,-7.4586,3.488
8191.4,-8.244,6.3099
8203.1,-7.9277,6.8256
8214.8,-9.1719,7.044
8226.6,-11.2,7.9365
8238.3,-8.4134,6.4075
8250,-8.1828,8.9485
8261.7,-10.905,8.8383
8273.4,-8.297,11.674
8285.2,-8.5158,9.1811
8296.9,-10.18,10.644
8308.6,-12.885,8.1824
8320.3,-10.622,6.4221
8332,-9.4778,8.5329
8343.8,-8.7796,8.5625
8355.5,-11.227,8.1688
8367.2,-11.31,9.7509
8378.9,-11.326,11.176
8390.6,-9.753,10.194
8402.3,-12.197,7.6042
8414.1,-11.017,8.0996
8425.8,-9.8866,6.6094
8437.5,-10.371,6.7807
8449.2,-8.2573,7.6035
8460.9,-6.4469,11.248
8472.7,-9.4631,11.204
8484.4,-8.1174,10.892
8496.1,-5.7823,7.6297
8507.8,-6.9597,8.4023
8519.5,-8.2913,8.9124
8531.3,-9.4195,8.5119
8543,-12.711,7.6878
8554.7,-13.205,8.7234
8566.4,-12.274,7.812
8578.1,-12.676,7.6954
8589.8,-12.279,8.1156
8601.6,-10.388,10.911
8613.3,-11.463,10.152
8625,-12.64,6.6648
8636.7,-10.209,5.8102
8648.4,-10.422,7.3837
8660.2,-11.477,7.8673
8671.9,-8.2628,8.1223
8683.6,-9.1009,6.9987
8695.3,-9.4522,8.4882
8707,-11.967,9.3964
8718.8,-12.561,7.4201
8730.5,-11.582,9.1343
8742.2,-6.6415,9.7998
8753.9,-5.751,8.2761
8765.6,-9.302,7.1474
8777.3,-10.226,9.766
8789.1,-9.517,10.335
8800.8,-10.704,6.7066
8812.5,-12.522,9.8701
8824.2,-10.364,9.3655
8835.9,-8.2771,5.9188
8847.7,-6.0728,5.2514
8859.4,-8.0127,6.8474
8871.1,-9.1534,7.8278
8882.8,-9.1105,6.4405
8894.5,-9.5178,9.4824
8906.3,-10.214,9.2307
8918,-8.6004,7.3529
8929.7,-10.461,8.3851
8941.4,-12.827,7.7651
8953.1,-11.541,9.2202
8964.8,-12.545,10.411
8976.6,-12.985,7.8332
8988.3,-13.294,8.5058
9000,-9.1716,7.2158
9011.7,-6.6022,4.9115
9023.4,-6.2933,8.5398
9035.2,-9.5141,7.0231
9046.9,-8.6728,4.1838
9058.6,-9.3254,5.418
9070.3,-12.642,6.9692
9082,-14.349,9.1157
9093.8,-12.308,9.4507
9105.5,-11.177,7.3214
9117.2,-10.796,6.1448
9128.9,-11.12,7.2973
9140.6,-8.1505,7.5138
9152.3,-7.7133,7.7463
9164.1,-10.274,6.4284
9175.8,-10.341,6.8789
9187.5,-8.4848,8.2351
9199.2,-10.025,8.1388
9210.9,-10.088,9.1864
9222.7,-9.758,9.4327
9234.4,-10.755,5.7902
9246.1,-13.592,7.2013
9257.8,-13.082,7.4382
9269.5,-13.262,2.6946
9281.3,-11.628,6.2496
9293,-9.6676,8.2044
9304.7,-11.067,10.267
9316.4,-11.266,8.5479
9328.1,-10.49,6.3987
9339.8,-9.259,8.9146
9351.6,-8.7001,8.9977
9363.3,-10.437,8.9095
9375,-9.005,8.1412
9386.7,-9.2214,7.3549
9398.4,-10.23,6.4143
9410.2,-11.685,9.7094
9421.9,-11.641,10.283
9433.6,-15.276,8.9746
9445.3,-12.242,5.6943
9457,-10.743,7.2305
9468.8,-10.801,7.6712
9480.5,-10.448,6.8041
9492.2,-11.61,6.6676
9503.9,-11.465,7.6741
9515.6,-9.5253,7.5627
9527.3,-9.8263,6.176
9539.1,-9.3199,5.4123
9550.8,-10.021,8.6891
9562.5,-9.8144,9.7835
9574.2,-10.413,6.3481
9585.9,-11.069,7.0923
9597.7,-11.305,8.3591
9609.4,-12.089,6.5838
9621.1,-11.737,6.6928
9632.8,-11.081,8.722
9644.5,-9.4958,4.929
9656.3,-10.997,6.4468
9668,-8.784,5.3432
9679.7,-7.5601,5.6452
9691.4,-7.9498,6.1947
9703.1,-9.448,1.8312
9714.8,-8.512,3.7677
9726.6,-9.1907,6.1303
9738.3,-10.198,6.3252
9750,-12.13,4.6968
9761.7,-14.774,7.2674
9773.4,-13.461,8.2737
9785.2,-11.882,7.2233
9796.9,-10.469,4.9274
9808.6,-15.97,4.89
9820.3,-14.023,6.3703
9832,-8.8073,8.6721
9843.8,-10.57,5.8791
9855.5,-13.31,5.2053
9867.2,-13.978,5.6197
9878.9,-14.451,6.8058
9890.6,-10.781,8.9558
9902.3,-10.067,10.889
9914.1,-9.8608,8.3233
9925.8,-8.5717,5.071
9937.5,-9.9663,6.7639
9949.2,-11.444,7.7098
9960.9,-12.101,7.9816
9972.7,-11.9,7.2982
9984.4,-11.284,6.7317
9996.1,-11.803,8.9841
10008,-9.9332,8.2028
10020,-11.059,4.8676
10031,-11.12,5.5527
10043,-10.657,6.6483
10055,-10.65,5.1724
10066,-8.442,3.3156
10078,-9.9155,3.3349
10090,-12.932,6.9148
10102,-12.991,8.2873
10113,-11.434,8.1607
10125,-10.596,4.7996
10137,-8.9409,5.7596
10148,-7.3177,6.6399
10160,-7.5401,6.3051
10172,-8.1296,5.2583
10184,-11.313,5.227
10195,-9.0514,4.8784
10207,-8.4039,3.5212
10219,-9.3582,7.7631
10230,-11.971,8.7343
10242,-10.351,6.4021
10254,-10.133,4.6824
10266,-10.194,6.1808
10277,-11.419,5.9566
10289,-11.015,4.8678
10301,-12.052,3.5274
10313,-11.629,6.39
10324,-9.7551,7.8569
10336,-9.9064,9.3495
10348,-10.014,6.5636
10359,-9.7139,6.0323
10371,-10.626,6.5121
10383,-12.012,7.6728
10395,-13.349,7.5804
10406,-11.423,8.467
10418,-13.749,7.4284
10430,-13.666,4.2219
10441,-13.72,6.408
10453,-12.826,5.2994
10465,-9.8816,5.302
10477,-11.582,4.7864
10488,-13.014,6.2952
10500,-13.77,7.2618
10512,-12.277,4.0762
10523,-12.016,5.6416
10535,-12.818,4.6554
10547,-14.208,5.7487
10559,-16.228,7.0973
10570,-14.72,6.7401
10582,-12.857,8.5165
10594,-11.465,7.7752
10605,-10.65,7.3187
10617,-11.814,6.6174
10629,-13.452,5.8156
10641,-9.1067,6.2952
10652,-8.2318,6.3205
10664,-10.176,5.6712
10676,-11.89,4.9339
10688,-13.53,3.4524
10699,-13.352,4.0927
10711,-14.072,3.2827
10723,-10.684,6.2828
10734,-10.749,5.6216
10746,-9.7551,5.1994
10758,-11.377,6.0179
10770,-12.033,5.1551
10781,-11.79,4.0483
10793,-13.57,5.455
10805,-17.031,6.3185
10816,-14.254,5.6276
10828,-11.429,6.8597
10840,-11.301,4.3092
10852,-13.842,2.1668
10863,-12.363,3.7204
10875,-13.297,5.1343
10887,-9.8334,5.1926
10898,-10.97,6.4031
10910,-11.49,7.0338
10922,-9.7144,7.2406
10934,-8.8161,5.5148
10945,-9.5488,5.1551
10957,-14.477,5.8553
10969,-12.231,4.4134
10980,-12.178,5.0282
10992,-13.051,7.4179
11004,-14.83,6.7226
11016,-11.627,5.1871
11027,-12.365,4.1393
11039,-13.261,1.8507
11051,-11.94,4.074
11063,-13.112,5.3154
11074,-13.102,3.7629
11086,-10.595,5.028
11098,-10.555,7.2978
11109,-10.398,8.5979
11121,-12.596,8.9581
11133,-12.773,5.6185
11145,-11.333,5.1725
11156,-10.496,7.5282
11168,-11.406,6.2941
11180,-16.122,2.7924
11191,-14.428,2.5653
11203,-12.486,4.3163
11215,-14.086,4.1953
11227,-10.127,5.1648
11238,-11.055,2.3509
11250,-14.288,0.59711
11262,-11.395,4.6943
11273,-13.031,6.5403
11285,-13.956,4.9993
11297,-11.996,3.7867
11309,-12.983,5.1922
11320,-12.615,6.3268
11332,-10.163,5.6089
11344,-9.1707,3.2278
11355,-10.707,4.484
11367,-15.203,6.0033
11379,-14.792,5.8374
11391,-14.278,5.5982
11402,-13.403,6.2635
11414,-12.692,5.9874
11426,-12.808,5.7376
11438,-12.096,6.3672
11449,-10.374,5.3937
11461,-9.5952,1.8692
11473,-10.528,0.34611
11484,-11.549,2.9625
11496,-12.358,5.3727
11508,-10.753,3.633
11520,-13.706,3.3069
11531,-12.499,5.0485
11543,-10.442,4.6422
11555,-12.223,3.7661
11566,-11.84,7.1703
11578,-12.082,5.742
11590,-9.9154,5.9657
11602,-13.265,6.7667
11613,-15.395,6.8037
11625,-14.07,5.3541
11637,-14.276,4.3351
11648,-13.023,5.096
11660,-12.763,2.7859
11672,-13.909,3.8444
11684,-13.658,3.1593
11695,-12.34,5.657
11707,-13.207,1.0254
11719,-11.952,1.634
11730,-10.513,0.16745
11742,-12.644,1.3695
11754,-14.494,4.9891
11766,-14.195,6.0575
11777,-11.806,2.3917
11789,-11.769,-1.2023
11801,-12.891,2.6963
11813,-11.893,4.5967
11824,-16.102,7.7571
11836,-15.529,5.2716
11848,-13.988,1.1084
11859,-13.158,1.8975
11871,-14.674,2.6205
11883,-14.298,1.8579
11895,-12.927,4.029
11906,-13.228,1.7491
11918,-13.25,6.1607
11930,-12.338,7.9201
11941,-12.859,5.4044
11953,-12.264,5.1249
11965,-12.483,5.1468
11977,-14.941,6.8518
11988,-13.691,6.9591
12000,-12.172,4.6724
12012,-14.355,4.7168
12023,-13.016,7.1634
12035,-12.315,5.8569
12047,-11.42,4.6193
12059,-14.358,0.82447
12070,-14.667,1.5518
12082,-15.545,4.4167
12094,-14.47,5.1851
12105,-10.974,6.4019
12117,-12.489,3.5857
12129,-14.692,5.8038
12141,-16.208,3.0416
12152,-15.754,0.12767
12164,-14.72,1.6669
12176,-13.186,5.3437
12188,-12.404,3.9904
12199,-9.5546,5.9051
12211,-12.213,6.5853
12223,-15.793,5.6255
12234,-16.324,3.2258
12246,-10.629,3.2706
12258,-9.7775,4.7536
12270,-14.425,4.8538
12281,-13.159,5.4679
12293,-13.427,5.0376
12305,-15.909,4.948
12316,-13.455,2.5208
12328,-12.057,1.3588
12340,-15.794,1.9013
12352,-13.667,0.84346
12363,-12.075,0.85923
12375,-13.411,3.2266
12387,-15.426,5.2301
12398,-16.311,5.3492
12410,-18.502,4.0169
12422,-12.272,3.756
12434,-10.374,3.8289
12445,-11.615,5.0009
12457,-13.141,4.2559
12469,-12.929,1.4234
12480,-13.214,0.77906
12492,-12.68,3.803
12504,-11.706,1.9824
12516,-13.909,-0.051802
12527,-12.443,4.4559
12539,-10.505,5.1059
12551,-14.32,2.588
12563,-17.298,1.7502
12574,-15.598,0.34194
12586,-13.8,2.7887
12598,-15.725,1.869
12609,-16.449,3.3055
12621,-16.122,3.0974
12633,-16.335,1.4244
12645,-15.384,2.2772
12656,-14.972,2.6447
12668,-14.446,5.8599
12680,-13.447,4.7814
12691,-14.193,0.63699
12703,-13.824,1.4378
12715,-12.328,2.2491
12727,-12.875,4.2164
12738,-13.515,3.8667
12750,-14.245,4.469
12762,-14.534,1.1029
12773,-14.952,1.1762
12785,-12.812,4.1353
12797,-11.949,2.5291
12809,-13.793,-0.53358
12820,-10.626,3.3973
12832,-11.22,5.2289
12844,-15.395,6.5731
12855,-16.037,7.1408
12867,-13.662,4.2524
12879,-14.103,-0.19551
12891,-12.053,0.48651
12902,-11.583,0.52391
12914,-11.192,4.0333
12926,-13.104,4.2041
12938,-13.976,2.7383
12949,-15.495,1.3585
12961,-14.987,2.0379
12973,-13.141,1.7531
12984,-12.378,3.175
12996,-14.507,3.3676
13008,-12.541,2.369
13020,-12.744,4.8731
13031,-12.921,3.3406
13043,-17.211,2.3756
13055,-14.429,3.1829
13066,-13.427,0.43877
13078,-14.098,2.6033
13090,-12.953,2.846
13102,-14.982,4.0103
13113,-12.273,4.5212
13125,-10.767,6.9051
13137,-11.802,4.8349
13148,-12.296,2.675
13160,-14.207,4.5603
13172,-13.55,2.921
13184,-13.171,3.1718
13195,-14.348,2.1282
13207,-13.062,5.6715
13219,-14.263,2.7003
13230,-13.954,-0.20885
13242,-11.045,1.1716
13254,-13.213,3.1396
13266,-14.321,1.6635
13277,-14.745,1.163
13289,-13.776,-0.16596
13301,-16.403,0.6116
13313,-14.647,2.2315
13324,-13.115,4.1416
13336,-11.191,4.6575
13348,-8.656,1.3027
13359,-11.768,2.6415
13371,-16.043,1.551
13383,-14.415,-0.25064
13395,-15.566,-1.6478
13406,-14.543,-1.2555
13418,-12.724,-0.70951
13430,-14.459,1.1315
13441,-12.664,0.70711
13453,-13.428,3.1902
13465,-15.063,3.9053
13477,-12.811,4.0157
13488,-11.237,1.6583
13500,-10.378,1.4184
13512,-11.678,4.6404
13523,-13.307,3.0786
13535,-15.048,2.3168
13547,-16.268,2.3645
13559,-12.876,1.317
13570,-11.894,1.395
13582,-12.211,0.10269
13594,-13.975,0.45366
13605,-13.168,1.796
13617,-12.978,4.3245
13629,-13.02,1.8097
13641,-14.727,4.7966
13652,-15.874,3.9762
13664,-15.34,1.8748
13676,-14.087,0.67786
13688,-12.519,1.404
13699,-15.669,3.312
13711,-18.248,2.4839
13723,-12.912,-0.16869
13734,-14.288,0.74071
13746,-14.604,0.31562
13758,-12.449,2.3126
13770,-13.741,1.2348
13781,-12.445,2.1658
13793,-11.408,4.7628
13805,-11.237,4.4889
13816,-12.784,1.2185
13828,-16.562,0.71927
13840,-17.124,0.4638
13852,-17.088,-1.4814
13863,-15.828,0.090594
13875,-18.379,2.4037
13887,-16.191,-0.13292
13898,-15.976,3.9474
13910,-15.484,2.5191
13922,-15.905,2.0785
13934,-13.432,0.82596
13945,-13.363,0.61109
13957,-15.875,2.4415
13969,-15.247,2.9005
13980,-16.23,3.9732
13992,-16.481,1.2273
14004,-16.74,1.0797
14016,-16.098,2.7676
14027,-15.443,2.2668
14039,-16.003,0.14086
14051,-15.768,2.6234
14063,-13.783,2.0196
14074,-17.564,2.0664
14086,-16.685,3.086
14098,-14.903,-0.17517
14109,-14.589,0.39775
14121,-13.032,0.089112
14133,-12.116,-1.52
14145,-14.368,1.94
14156,-12.658,6.429
14168,-14.231,5.6326
14180,-14.5,3.4138
14191,-16.23,4.7729
14203,-17.977,4.5616
14215,-13.8,0.13228
14227,-13.213,1.8934
14238,-16.826,1.7243
14250,-15.805,0.39659
14262,-15.01,-0.35365
14273,-17.106,-0.11386
14285,-15.05,2.3118
14297,-14.072,0.93093
14309,-14.462,-1.0939
14320,-16.229,1.3146
14332,-19.064,3.4232
14344,-18.38,2.5005
14355,-15.756,1.1493
14367,-16.188,0.23287
14379,-17.272,2.8295
14391,-15.849,1.8631
14402,-12.242,3.9192
14414,-12.891,3.8498
14426,-17.684,0.47747
14438,-18.408,1.11
14449,-16.213,-0.71201
14461,-13.845,1.6323
14473,-13.301,1.3861
14484,-16.533,1.097
14496,-17.967,0.21197
14508,-14.743,2.1522
14520,-12.79,1.2505
14531,-13.308,-1.7574
14543,-17.439,1.6439
14555,-15.009,0.37835
14566,-13.204,1.2552
14578,-15.841,2.5904
14590,-17.178,1.3
14602,-18.092,2.1571
14613,-16.715,1.6737
14625,-17.113,2.5692
14637,-17.821,3.2867
14648,-17.835,0.58995
14660,-18.722,-0.68405
14672,-19.044,0.36839
14684,-16.811,1.5976
14695,-14.554,2.299
14707,-16.638,0.64739
14719,-20.55,-0.42084
14730,-16.288,-1.6283
14742,-16.696,-0.36495
14754,-17.089,-1.1071
14766,-17.347,0.47304
14777,-15.956,0.79216
14789,-15.735,0.79153
14801,-16.009,3.2375
14813,-15.144,1.3037
14824,-13.949,-0.56637
14836,-15.936,-0.92533
14848,-14.755,1.8102
14859,-17.973,2.9483
14871,-18.11,3.1262
14883,-18.33,3.6123
14895,-17.761,0.61489
14906,-17.3,2.8075
14918,-16.857,3.0868
14930,-16.912,0.79426
14941,-18.284,0.47118
14953,-20.857,0.39385
14965,-20.017,-0.74531
14977,-18.948,0.9374
14988,-17.572,0.88764
15000,-17.403,2.4676
15012,-17.556,2.8342
15023,-18.279,0.33024
15035,-16.824,1.1739
15047,-16.092,2.1572
15059,-16.753,3.0835
15070,-16.237,3.4049
15082,-17.282,0.8429
15094,-16.244,1.5642
15105,-14.114,1.3639
15117,-17.958,2.3743
15129,-17.35,2.8307
15141,-16.895,1.8947
15152,-18.803,0.56665
15164,-22.596,-1.079
15176,-21.889,-3.6517
15188,-18.725,-0.78328
15199,-18.061,2.1634
15211,-19.37,-1.3434
15223,-19.017,-0.65808
15234,-19.571,1.2514
15246,-20.412,-2.3239
15258,-19.376,-4.6076
15270,-18.588,0.05438
15281,-19.84,-0.7518
15293,-19.677,-0.90683
15305,-19.031,2.0684
15316,-18.194,1.6051
15328,-17.074,2.1598
15340,-17.33,0.094011
15352,-21.159,-0.90277
15363,-20.823,0.72562
15375,-19.458,-0.31796
15387,-18.631,-0.7438
15398,-21.659,-0.45597
15410,-19.04,0.61129
15422,-17.511,1.0292
15434,-18.889,-0.25388
15445,-19.223,0.12256
15457,-19.212,-1.1043
15469,-18.939,-0.77857
15480,-18.697,2.563
15492,-21.829,1.4679
15504,-19.594,0.088138
15516,-19.061,1.7123
15527,-21.334,1.4042
15539,-21.905,2.2749
15551,-20.241,1.2638
15563,-21.372,0.94863
15574,-21.397,1.201
15586,-19.129,0.89302
15598,-16.327,2.1577
15609,-19.284,0.063528
15621,-19.311,0.087797
15633,-15.369,0.044981
15645,-19.572,1.5357
15656,-20.89,1.5944
15668,-18.109,-1.4975
15680,-18.567,-0.012582
15691,-18.365,2.94
15703,-16.826,2.7745
15715,-17.615,2.2446
15727,-18.957,1.6481
15738,-20.112,1.1412
15750,-19.97,0.11184
15762,-19.704,1.3832
15773,-22.14,0.85844
15785,-20.602,-0.75691
15797,-18.829,-2.4534
15809,-17.692,-3.1849
15820,-17.823,-1.1053
15832,-19.152,-0.47102
15844,-17.436,-0.91104
15855,-19.809,-1.6052
15867,-22.714,0.22839
15879,-20.812,-0.73821
15891,-18.52,-2.1499
15902,-17.21,-1.0923
15914,-20.092,-0.88392
15926,-20.324,1.8954
15938,-18.896,1.9633
15949,-21.046,0.84538
15961,-21.648,-0.42763
15973,-20.108,0.19454
15984,-19.36,-2.526
15996,-20.951,0.94137
16008,-20.166,-0.38997
16020,-21.937,-2.0951
16031,-22.437,-1.0748
16043,-18.716,0.47015
16055,-20.715,-0.51531
16066,-19.206,-1.6792
16078,-17.963,-5.1832
16090,-19.864,-4.192
16102,-20.973,-0.5869
16113,-18.796,1.2133
16125,-20.292,1.986
16137,-17.381,1.9324
16148,-19.3,-1.381
16160,-19.628,-3.9183
16172,-18.226,-2.4142
16184,-17.729,-0.24647
16195,-19.556,-0.94763
16207,-19.397,-1.6833
16219,-20.667,0.96277
16230,-20.643,0.73594
16242,-21.305,-0.73194
16254,-22.22,-1.3916
16266,-20.886,1.8511
16277,-20.368,1.2175
16289,-19.559,-1.8365
16301,-21.668,-1.3878
16313,-20.485,-1.0787
16324,-20.784,-2.0037
16336,-19.601,-1.1048
16348,-22.314,-1.5733
16359,-17.95,-0.83601
16371,-20.443,1.1896
16383,-18.483,2.5669
16395,-18.244,-0.03865
16406,-17.549,-0.82046
16418,-18.247,-1.1834
16430,-21.011,-3.1017
16441,-19.588,-1.7538
16453,-18.453,-0.82409
16465,-18.826,0.38847
16477,-17.78,-0.44229
16488,-17.538,-3.7532
16500,-17.884,-0.80869
16512,-19.105,-0.27105
16523,-18.776,-0.029046
16535,-18.031,-3.3466
16547,-17.715,-1.9171
16559,-20.251,1.1666
16570,-17.65,1.9756
16582,-17.873,0.65302
16594,-18.379,-2.3333
16605,-19.504,-3.7404
16617,-22.571,-3.2277
16629,-21.775,-2.72
16641,-22.059,-4.0029
16652,-21.775,-0.2564
16664,-18.954,1.1371
16676,-19.369,-3.1702
16688,-21.54,-1.3867
16699,-20.409,-3.5835
16711,-22.39,-1.7169
16723,-20.925,-0.77143
16734,-20.584,-2.609
16746,-21.513,1.6381
16758,-21.782,2.09
16770,-17.812,0.30635
16781,-18.551,-1.2128
16793,-21.247,0.52675
16805,-20.598,1.9078
16816,-18.246,1.9545
16828,-17.664,-1.1025
16840,-21.449,-0.47929
16852,-22.329,-1.6073
16863,-23.619,-2.5442
16875,-21.097,-2.0359
16887,-21.978,-0.398
16898,-23.634,-3.9628
16910,-22.288,-3.3875
16922,-21.389,-1.0453
16934,-23.116,-0.54951
16945,-24.235,-1.9562
16957,-23.502,-1.9503
16969,-23.881,-3.2058
16980,-18.367,-0.7305
16992,-19.174,-1.8047
17004,-21.631,0.11918
17016,-20.812,-0.069304
17027,-21.895,-0.7164
17039,-25.441,-0.085192
17051,-23.189,0.5622
17063,-21.73,-1.3913
17074,-20.424,-2.5343
17086,-18.316,-2.7658
17098,-19.712,-1.5139
17109,-22.757,0.55313
17121,-19.517,0.40353
17133,-20.864,-1.6606
17145,-19.415,-2.5612
17156,-20.747,-1.4295
17168,-21.209,-2.2738
17180,-21.045,-1.5392
17191,-20.857,-2.291
17203,-19.235,-2.5614
17215,-19.685,-2.3701
17227,-22.83,0.014625
17238,-22.656,-0.5264
17250,-21.957,-0.25011
17262,-18.586,0.52892
17273,-18.95,-0.62615
17285,-18.662,-0.72564
17297,-20.087,-2.1226
17309,-22.909,-3.254
17320,-19.804,-1.133
17332,-21.409,-1.2216
17344,-22.791,-1.4468
17355,-22.131,-1.6343
17367,-20.652,-3.808
17379,-18.489,-4.169
17391,-19.343,-2.3814
17402,-20.032,-1.1786
17414,-18.464,-1.3496
17426,-19.483,-3.6238
17438,-24.55,-2.4614
17449,-24.48,-2.3955
17461,-21.347,-3.8028
17473,-19.998,-7.514
17484,-21.39,-3.718
17496,-21.631,-2.089
17508,-20.519,-3.6391
17520,-20.16,-3.2632
17531,-20.873,-1.0387
17543,-21.916,-2.143
17555,-21.402,-5.4805
17566,-21.039,-4.5053
17578,-20.678,-2.3557
17590,-18.378,-0.14422
17602,-21.045,0.34126
17613,-24.333,-0.64058
17625,-24.916,-1.5104
17637,-20.257,-1.4343
17648,-20.776,-1.3398
17660,-21.847,-2.0422
17672,-24.805,0.91052
17684,-24.005,-0.38694
17695,-24.006,-1.4097
17707,-22.229,0.30724
17719,-22.088,0.70796
17730,-20.874,0.51508
17742,-20.044,-0.3557
17754,-22.881,-1.9313
17766,-22.898,-0.24087
17777,-21.718,-0.23879
17789,-23.526,-0.60153
17801,-22.325,-0.33039
17813,-21.92,-2.1853
17824,-24.952,-2.3999
17836,-21.965,-3.3001
17848,-21.483,-3.2604
17859,-19.201,-3.0989
17871,-18.286,-3.5413
17883,-20.367,-3.4177
17895,-21.574,-1.3985
17906,-22.556,-0.0024762
17918,-23.234,0.28668
17930,-23.587,-0.12007
17941,-21.762,-3.5868
17953,-20.901,-3.2162
17965,-21.001,-0.93122
17977,-17.73,-1.3474
17988,-18.198,-2.8777
18000,-24.159,-2.3273
18012,-23.751,-1.0972
18023,-23.448,-1.9929
18035,-23.976,-0.52732
18047,-23.181,-5.1494
18059,-23.996,-0.44046
18070,-23.022,1.4608
18082,-22.912,-0.28788
18094,-24.666,-4.1425
18105,-25.347,-3.2765
18117,-22.355,-3.8914
18129,-24.587,-3.5166
18141,-24.9,-2.9556
18152,-23.814,-3.1794
18164,-19.127,-2.037
18176,-17.112,-0.66376
18188,-18.752,0.74238
18199,-22.952,-2.0745
18211,-24.41,-0.67773
18223,-22.021,-1.79
18234,-22.81,-5.0466
18246,-24.203,-4.4066
18258,-25.055,-4.5052
18270,-25.064,-2.2575
18281,-23.15,-2.5075
18293,-22.307,-2.8296
18305,-21.443,-0.82499
18316,-21.914,1.2383
18328,-21.348,0.39571
18340,-23.263,-3.0891
18352,-20.574,-1.4086
18363,-19.632,-5.4772
18375,-23.821,-3.9623
18387,-23,-0.35943
18398,-22.898,0.67957
18410,-22.075,-0.86182
18422,-22.994,-2.7697
18434,-21.453,-5.2318
18445,-21.661,-1.7542
18457,-22.619,-1.3562
18469,-18.672,0.45691
18480,-21.126,-1.0327
18492,-26.166,-6.2731
18504,-24.456,-3.9621
18516,-21.153,-3.2102
18527,-19.148,-1.2213
18539,-19.917,-3.1503
18551,-22.326,-5.6704
18563,-23.524,-3.8693
18574,-23.392,-1.4578
18586,-23.595,-2.0251
18598,-21.408,-2.54
18609,-20.198,-4.3557
18621,-19.453,-3.5682
18633,-19.476,-0.73962
18645,-21.705,-1.4873
18656,-23.279,-1.4811
18668,-25.309,-1.3199
18680,-23.618,-0.85792
18691,-23.059,-1.4063
18703,-22.941,-1.1414
18715,-22.939,-5.8406
18727,-23.946,-4.3092
18738,-23.333,-2.8889
18750,-23.86,-3.8128
18762,-23.794,-3.4403
18773,-23.642,-1.973
18785,-21.847,-3.2219
18797,-23.783,-4.4467
18809,-23.852,-4.6531
18820,-24.711,-0.40196
18832,-23.4,-1.7684
18844,-22.386,-4.3312
18855,-23.262,-4.174
18867,-23.963,-2.3488
18879,-21.77,-2.539
18891,-22.416,-2.6393
18902,-23.754,-2.9543
18914,-21.316,-3.7715
18926,-23.943,-3.802
18938,-22.979,-2.5117
18949,-23.07,-1.438
18961,-24.881,-3.0111
18973,-24.777,-4.7929
18984,-21.776,-4.6655
18996,-21.804,-5.4153
19008,-21.745,-2.8908
19020,-20.461,-0.75922
19031,-22.98,1.9626
19043,-25.041,-0.086829
19055,-24.345,-3.3537
19066,-23.844,-2.544
19078,-23.488,-1.8233
19090,-20.79,-4.167
19102,-23.55,-5.0697
19113,-24.963,-4.0989
19125,-21.474,-4.8241
19137,-21.815,-4.3446
19148,-25.077,-4.1616
19160,-26.08,-1.5455
19172,-23.131,-0.83401
19184,-25.373,-2.9421
19195,-26.216,-3.9555
19207,-24.677,-4.3557
19219,-26.778,-3.7121
19230,-27.771,-3.7246
19242,-24.429,-3.628
19254,-23.363,-2.399
19266,-24.336,-3.6928
19277,-24.452,-2.4259
19289,-24.361,-0.52268
19301,-25.056,-4.708
19313,-23.861,-6.7524
19324,-21.478,-4.797
19336,-21.334,-3.5127
19348,-24.974,-2.3439
19359,-25.469,-2.5805
19371,-23.334,-1.0672
19383,-20.875,-3.031
19395,-21.682,-6.2632
19406,-23.405,-5.8633
19418,-24.36,-4.7013
19430,-25.023,-3.4768
19441,-24.416,-4.5862
19453,-21.887,-3.3432
19465,-22.179,-2.0078
19477,-22.892,-2.3546
19488,-26.146,-3.5259
19500,-24.396,-7.0981
19512,-21.927,-6.1294
19523,-24.24,-7.2055
19535,-21.759,-4.6195
19547,-21.106,-4.0705
19559,-22.266,-4.7546
19570,-21.762,-5.0835
19582,-25.591,-3.2111
19594,-25.703,-4.9346
19605,-25.274,-3.4662
19617,-24.809,-1.7012
19629,-22.848,-4.3411
19641,-23.535,-5.1696
19652,-23.387,-5.3765
19664,-21.907,-6.0096
19676,-23.749,-3.9509
19688,-26.765,-2.5831
19699,-24.415,-2.0319
19711,-24.577,-3.4979
19723,-22.568,-6.8886
19734,-21.654,-7.411
19746,-21.458,-7.0247
19758,-23.787,-5.862
19770,-25.939,-5.1644
19781,-23.831,-4.6361
19793,-26.468,-3.3079
19805,-26.717,-4.8356
19816,-22.311,-2.6975
19828,-21.446,-3.3581
19840,-25.847,-6.13
19852,-26.535,-6.2565
19863,-27.553,-4.1844
19875,-26.21,-5.122
19887,-28.289,-4.4561
19898,-29.127,-4.9292
19910,-25.769,-4.8324
19922,-25.121,-6.7088
19934,-24.222,-6.8999
19945,-22.52,-2.8779
19957,-24.116,-3.9846
19969,-22.559,-3.1315
19980,-25.606,-3.5267
19992,-22.71,-4.1249
20004,-22.859,-4.2731
20016,-22.085,-4.4206
20027,-24.726,-1.4277
20039,-26.671,-3.3484
20051,-26.366,-2.3119
20063,-27.854,-2.6459
20074,-25.442,-4.5383
20086,-26.126,-2.9557
20098,-26.431,-2.1473
20109,-27.466,-0.58236
20121,-27.06,-0.81289
20133,-25.315,-1.086
20145,-24.021,-2.0024
20156,-22.691,-6.279
20168,-21.589,-4.4014
20180,-24.866,-1.6486
20191,-22.145,-2.1541
20203,-22.918,-6.0223
20215,-25.116,-1.7209
20227,-24.097,-2.5977
20238,-22.71,-4.6274
20250,-21.214,-6.2875
20262,-24.627,-5.2301
20273,-24.421,-4.4242
20285,-22.725,-4.0968
20297,-24.05,-4.3826
20309,-25.535,-4.3079
20320,-24.314,-4.1614
20332,-25.932,-5.2994
20344,-27.964,-8.1374
20355,-24.799,-7.1592
20367,-24.759,-6.7117
20379,-25.579,-7.4199
20391,-23.986,-5.7602
20402,-21.723,-4.9479
20414,-25.173,-6.3946
20426,-23.465,-5.6606
20438,-25.679,-3.097
20449,-31.077,-2.6023
20461,-27.958,-3.594
20473,-28.26,-2.9716
20484,-23.273,-3.0424
20496,-23.642,-6.8757
20508,-26.621,-7.9259
20520,-28.35,-4.8947
20531,-29.458,-3.9198
20543,-27.424,-3.5427
20555,-25.663,-7.3235
20566,-27.391,-5.6867
20578,-25.797,-4.7683
20590,-23.308,-5.8867
20602,-23.501,-6.0943
20613,-24.32,-6.6093
20625,-25.72,-6.8168
20637,-29.225,-4.7665
20648,-26.458,-4.9283
20660,-26.7,-4.9331
20672,-26.425,-5.8013
20684,-25.796,-4.7324
20695,-27.408,-5.0889
20707,-27.222,-6.0139
20719,-24.766,-4.1838
20730,-24.292,-4.4183
20742,-27.857,-5.693
20754,-28.215,-3.2393
20766,-25.569,-4.3005
20777,-25.968,-6.7258
20789,-26.737,-5.4498
20801,-25.588,-5.459
20813,-26.234,-5.8083
20824,-25.407,-4.5455
20836,-26.11,-4.6869
20848,-24.527,-5.7993
20859,-24.955,-6.4696
20871,-26.042,-7.4151
20883,-27.83,-5.71
20895,-25.532,-2.4169
20906,-25.344,-2.6566
20918,-25.476,-4.1628
20930,-25.299,-5.89
20941,-26.738,-5.7469
20953,-25.905,-6.314
20965,-23.08,-4.6885
20977,-23.131,-4.2263
20988,-22.186,-5.0062
21000,-26.233,-4.423
21012,-26.555,-6.743
21023,-22.661,-6.624
21035,-24.268,-5.6455
21047,-27.588,-2.6719
21059,-25.207,-2.1698
21070,-26.817,-5.5937
21082,-28.599,-3.8812
21094,-27.816,-5.4261
21105,-27.064,-5.9733
21117,-28.021,-4.9163
21129,-28.184,-5.0541
21141,-25.931,-4.7585
21152,-31.643,-6.1024
21164,-25.511,-8.3462
21176,-23.786,-7.1059
21188,-27.453,-6.0508
21199,-29.524,-3.7282
21211,-29.539,-6.647
21223,-28.319,-8.4354
21234,-26.482,-5.5653
21246,-25.103,-5.199
21258,-23.471,-4.9096
21270,-24.622,-3.9912
21281,-24.299,-4.8658
21293,-24.738,-5.7584
21305,-26.329,-7.1533
21316,-27.928,-5.0755
21328,-27.303,-3.4856
21340,-29.329,-3.9968
21352,-28.052,-3.7602
21363,-29.754,-2.3939
21375,-27.692,-4.3611
21387,-27.407,-7.3409
21398,-26.738,-7.4282
21410,-23.736,-8.8753
21422,-21.942,-5.8383
21434,-23.645,-5.1518
21445,-23.403,-6.5336
21457,-22.459,-4.6471
21469,-22.823,-2.6749
21480,-24.691,-3.9125
21492,-25.538,-6.2129
21504,-27.078,-6.7815
21516,-27.36,-7.7279
21527,-27.38,-7.138
21539,-27.774,-3.4643
21551,-27.437,-2.8851
21563,-26.711,-7.4899
21574,-25.836,-4.6798
21586,-26.982,-4.3562
21598,-26.989,-6.0624
21609,-26.597,-7.1624
21621,-28.82,-5.6638
21633,-28.399,-5.5803
21645,-26.884,-6.892
21656,-27.843,-4.5085
21668,-25.916,-3.873
21680,-25.366,-7.9504
21691,-25.19,-7.1381
21703,-27.478,-6.2224
21715,-28.281,-5.7361
21727,-28.128,-6.4827
21738,-28.996,-8.573
21750,-27.046,-6.4016
21762,-23.605,-5.2537
21773,-24.535,-7.0321
21785,-26.419,-9.6779
21797,-27.472,-3.388
21809,-27.887,-2.0488
21820,-26.659,-5.3006
21832,-26.919,-6.1772
21844,-27.212,-5.5709
21855,-25.703,-8.0643
21867,-25.981,-7.6681
21879,-26.881,-5.3429
21891,-27.846,-4.1426
21902,-26.042,-5.2106
21914,-25.676,-6.7278
21926,-25.52,-8.031
21938,-25.883,-7.9241
21949,-25.368,-4.2761
21961,-25.37,-4.9242
21973,-26.631,-3.4453
21984,-27.961,-4.7533
21996,-27.589,-7.5273
22008,-27.963,-4.807
22020,-27.397,-6.2684
22031,-27.27,-6.5016
22043,-27.613,-4.2977
22055,-28.805,-4.9132
22066,-28.803,-3.9631
22078,-26.155,-5.3089
22090,-23.983,-7.2552
22102,-24.718,-5.4589
22113,-24.719,-2.5442
22125,-27.873,-5.6946
22137,-25.38,-5.385
22148,-27.116,-3.7264
22160,-28.661,-6.0841
22172,-28.225,-4.832
22184,-27.252,-5.7462
22195,-24.164,-8.7923
22207,-23.99,-10.009
22219,-26.288,-9.706
22230,-27.198,-11.419
22242,-31.715,-6.5831
22254,-25.743,-7.6373
22266,-24.742,-7.2054
22277,-25.43,-7.2872
22289,-27.096,-4.705
22301,-28.332,-5.0976
22313,-27.385,-5.719
22324,-27.42,-5.7047
22336,-26.86,-5.6047
22348,-25.814,-7.0277
22359,-25.924,-5.221
22371,-26.377,-2.3576
22383,-26.841,-3.7106
22395,-27.701,-7.3002
22406,-26.099,-6.0478
22418,-26.276,-5.1267
22430,-26.004,-3.9652
22441,-25.089,-4.4493
22453,-27.495,-8.1423
22465,-27.64,-7.0735
22477,-26.046,-7.0688
22488,-26.753,-11.326
22500,-27.666,-7.486
22512,-30.504,-6.1835
22523,-31.091,-4.3453
22535,-29.097,-3.6506
22547,-24.645,-6.1885
22559,-27.465,-4.7215
22570,-24.769,-4.6949
22582,-26.796,-3.2968
22594,-28.881,-4.7745
22605,-27.49,-8.3204
22617,-27.926,-7.7875
22629,-28.466,-7.877
22641,-29.296,-7.6679
22652,-27.601,-5.3023
22664,-30.282,-5.2143
22676,-35.296,-7.6702
22688,-28.85,-4.7111
22699,-29.039,-7.2331
22711,-31.621,-6.2847
22723,-28.823,-6.8165
22734,-27.612,-8.1081
22746,-27.119,-5.7537
22758,-28.627,-5.2831
22770,-28.879,-5.0716
22781,-26.457,-7.2597
22793,-27.644,-5.5411
22805,-28.781,-6.9665
22816,-29.643,-6.6124
22828,-31.251,-6.3885
22840,-28.735,-6.1444
22852,-26.072,-6.7828
22863,-25.707,-8.5283
22875,-27.763,-7.5096
22887,-26.687,-6.7724
22898,-26.711,-7.3683
22910,-29.409,-7.0041
22922,-28.048,-5.4887
22934,-28.54,-5.5331
22945,-26.702,-5.8606
22957,-25.942,-6.6877
22969,-25.897,-7.7407
22980,-27.282,-9.0907
22992,-28.838,-7.2026
23004,-28.151,-7.2716
23016,-26.521,-8.0996
23027,-24.649,-10.3
23039,-26.706,-7.4804
23051,-24.583,-6.3287
23063,-23.377,-5.4997
23074,-26.077,-7.4125
23086,-26.37,-7.0098
23098,-29.38,-6.8131
23109,-26.011,-7.0342
23121,-25.903,-7.9048
23133,-28.303,-8.8421
23145,-27.461,-6.084
23156,-29.54,-7.0794
23168,-25.568,-7.6202
23180,-24.288,-8.3539
23191,-24.313,-5.2985
23203,-26.502,-4.2076
23215,-28.251,-5.9946
23227,-31.801,-7.1743
23238,-29.964,-6.4517
23250,-28.114,-6.9976
23262,-25.698,-6.7765
23273,-26.318,-5.1079
23285,-26.833,-8.4482
23297,-27.849,-7.2733
23309,-26.758,-9.194
23320,-27.014,-8.097
23332,-27.651,-7.6995
23344,-27.123,-8.1156
23355,-28.932,-6.887
23367,-27.089,-6.3695
23379,-26.456,-5.9835
23391,-27.456,-7.2281
23402,-26.714,-7.6466
23414,-27.952,-8.8026
23426,-29.211,-9.4497
23438,-30.188,-5.1114
23449,-30.801,-4.8272
23461,-30.302,-6.0054
23473,-27.465,-5.8903
23484,-24.901,-6.6018
23496,-24.867,-7.5861
23508,-28.95,-8.6013
23520,-28.355,-5.9002
23531,-28.568,-4.4618
23543,-28.69,-7.1096
23555,-27.085,-10.967
23566,-25.897,-11.79
23578,-26.797,-8.0279
23590,-27.581,-7.639
23602,-27.657,-9.4559
23613,-28.865,-9.9377
23625,-31.485,-7.1999
23637,-29.447,-6.4647
23648,-31.172,-6.9386
23660,-25.377,-8.5897
23672,-23.65,-8.7913
23684,-29.449,-6.8694
23695,-29.22,-7.3074
23707,-30.274,-7.6787
23719,-26.741,-7.1239
23730,-23.677,-6.1299
23742,-23.828,-5.4362
23754,-28.37,-6.1574
23766,-25.898,-9.1544
23777,-27.467,-10.664
23789,-27,-9.7705
23801,-24.723,-9.0282
23813,-25.964,-9.8919
23824,-25.183,-6.4212
23836,-27.076,-8.4452
23848,-31.989,-7.4355
23859,-31.22,-9.3581
23871,-26.739,-8.3271
23883,-27.231,-5.3486
23895,-29.89,-8.4906
23906,-27.794,-7.8454
23918,-28.268,-7.2491
23930,-25.499,-9.6604
23941,-25.985,-10.971
23953,-24.471,-7.4843
23965,-26.02,-9.4285
23977,-30.152,-9.9386
23988,-32.502,-8.7301
