FFT,Power Spectrum
Frequency[Hz],Level-L[dB],Level-R[dB]
11.719,-23.14,-22.153
23.438,-2.998,-1.7186
35.156,-2.2428,5.3391
46.875,4.6218,13.195
58.594,3.8115,17.152
70.313,5.7929,19.871
82.031,7.2608,19.984
93.75,11.412,18.768
105.47,10.012,20.683
117.19,8.2515,19.048
128.91,15.56,20.658
140.63,17.9,21.38
152.34,11.926,21.617
164.06,5.008,21.861
175.78,4.8302,25.076
187.5,4.8743,24.433
199.22,6.8538,24.997
210.94,4.6775,24.955
222.66,8.0599,24.278
234.38,7.8977,23.886
246.09,4.5317,23.152
257.81,4.9333,23.218
269.53,7.9992,21.391
281.25,11.615,26.831
292.97,10.241,28.183
304.69,8.3169,25.311
316.41,9.834,23.008
328.13,5.5703,23.277
339.84,4.5491,23.725
351.56,5.9371,24.218
363.28,4.3792,25.358
375,5.4619,24.863
386.72,10.134,25.826
398.44,10.348,22.77
410.16,7.0538,23.737
421.88,4.5989,24.124
433.59,4.2097,24.6
445.31,14.377,22.296
457.03,23.509,24.297
468.75,21.248,25.495
480.47,6.1676,26.477
492.19,5.4878,25.796
503.91,5.6429,21.778
515.63,8.4347,23.256
527.34,9.3828,25.902
539.06,7.1405,24.038
550.78,6.8289,25.507
562.5,5.2853,26.277
574.22,3.3498,25.748
585.94,2.2974,27.732
597.66,2.4736,29.205
609.38,3.7236,27.955
621.09,2.9251,26.507
632.81,7.1854,27.257
644.53,5.2673,27.74
656.25,6.8883,26.529
667.97,5.9508,24.924
679.69,6.524,28.01
691.41,6.4308,28.829
703.13,5.0594,25.394
714.84,4.357,25.536
726.56,5.6121,24.623
738.28,5.3013,23.868
750,7.2274,24.631
761.72,5.874,22.177
773.44,4.3159,23.025
785.16,6.7953,23.813
796.88,5.497,25.7
808.59,6.0914,26.541
820.31,7.014,28.751
832.03,8.421,28.175
843.75,9.8395,23.139
855.47,9.0674,24.644
867.19,7.5859,27.996
878.91,7.471,28.644
890.63,7.9623,28.225
902.34,8.3438,27.221
914.06,5.6384,19.294
925.78,8.0301,26.173
937.5,7.3391,28.395
949.22,8.275,25.754
960.94,8.3833,24.649
972.66,7.0935,25.235
984.38,6.3573,24.815
996.09,4.2772,24.731
1007.8,6.0135,23.903
1019.5,6.4591,25.576
1031.3,7.7201,25.414
1043,9.2189,22.72
1054.7,7.9362,24.357
1066.4,6.6646,25.663
1078.1,7.4253,25.847
1089.8,6.1039,22.991
1101.6,8.8197,24.578
1113.3,8.9874,25.271
1125,10.835,23.17
1136.7,11.913,24.023
1148.4,9.3111,23.662
1160.2,4.7095,24.796
1171.9,4.8204,25.555
1183.6,5.9664,25.959
1195.3,4.2506,24.457
1207,8.851,21.717
1218.8,9.819,23.835
1230.5,7.4646,25.973
1242.2,5.1324,27.805
1253.9,4.7657,26.833
1265.6,5.1787,23.863
1277.3,7.1587,24.354
1289.1,6.8396,24.348
1300.8,4.9245,20.998
1312.5,4.8478,22.581
1324.2,4.6503,21.75
1335.9,5.4177,21.718
1347.7,6.2457,23.343
1359.4,5.7418,21.358
1371.1,4.8899,20.66
1382.8,4.5172,23.584
1394.5,3.9838,24.646
1406.3,7.7043,23.96
1418,7.7876,23.715
1429.7,6.5752,24.63
1441.4,7.3783,25.118
1453.1,5.6798,23.035
1464.8,6.5421,23.949
1476.6,7.1494,23.568
1488.3,4.8926,21.131
1500,-0.74706,20.798
1511.7,4.8293,19.475
1523.4,6.3847,21.549
1535.2,6.1744,22.71
1546.9,4.5933,23.939
1558.6,3.6576,23.998
1570.3,5.8751,22.435
1582,4.4592,21.78
1593.8,5.1626,22.935
1605.5,5.5132,24.443
1617.2,3.9649,22.783
1628.9,2.3851,23.293
1640.6,1.0721,25.133
1652.3,2.0574,23.249
1664.1,4.7508,23.671
1675.8,5.4561,24.704
1687.5,3.4255,21.286
1699.2,2.7554,19.206
1710.9,3.7782,22.13
1722.7,6.4042,24.228
1734.4,6.1791,23.346
1746.1,6.6268,22.62
1757.8,7.0438,23.036
1769.5,5.4086,23.392
1781.3,4.798,23.65
1793,5.5658,22.254
1804.7,7.3769,17.921
1816.4,8.4006,17.583
1828.1,5.8666,21.617
1839.8,2.2174,20.948
1851.6,3.6313,23.449
1863.3,2.8958,22.505
1875,1.7916,20.709
1886.7,6.0779,20.892
1898.4,4.0939,23.672
1910.2,3.4048,23.462
1921.9,4.5935,22.785
1933.6,5.4323,21.654
1945.3,4.5616,23.283
1957,2.9679,22.856
1968.8,3.8537,21.788
1980.5,4.4366,23.276
1992.2,3.8713,23.215
2003.9,2.4459,22.863
2015.6,-0.72088,23.984
2027.3,1.1253,24.264
2039.1,2.4973,22.359
2050.8,-0.38438,22.559
2062.5,0.51624,20.594
2074.2,1.4241,21.199
2085.9,1.7438,21.813
2097.7,0.4376,19.486
2109.4,0.31488,22.947
2121.1,1.393,23.517
2132.8,0.47046,22.143
2144.5,3.2516,21.184
2156.3,1.8897,20.493
2168,2.8623,20.345
2179.7,1.6961,18.751
2191.4,3.5864,18.403
2203.1,3.219,21.216
2214.8,2.1917,22.42
2226.6,2.9438,21.61
2238.3,4.8013,20.249
2250,4.8388,20.49
2261.7,2.1109,20.063
2273.4,3.1817,21.756
2285.2,1.8379,21.908
2296.9,3.2812,19.225
2308.6,3.4742,18.296
2320.3,3.2146,18.18
2332,3.3107,20.603
2343.8,2.8994,18.67
2355.5,1.3385,17.178
2367.2,5.1006,18.684
2378.9,4.5161,19.886
2390.6,1.6014,21.607
2402.3,3.3794,21.34
2414.1,2.0548,19.734
2425.8,-0.32119,20.032
2437.5,1.4178,19.099
2449.2,4.5023,18.826
2460.9,1.837,19.507
2472.7,-1.9294,21.038
2484.4,-2.6585,21.386
2496.1,-0.13432,19.419
2507.8,1.0967,20.656
2519.5,2.7259,20.477
2531.3,0.81136,20.711
2543,-3.57,21.304
2554.7,0.051073,19.988
2566.4,-1.1888,21.763
2578.1,1.9656,21.267
2589.8,2.074,17.278
2601.6,3.9262,15.108
2613.3,1.5387,19.631
2625,3.1729,21.674
2636.7,3.2809,20.839
2648.4,2.8666,22.599
2660.2,0.8995,21.655
2671.9,1.521,19.404
2683.6,1.6049,21.896
2695.3,0.11472,21.657
2707,0.17252,20.72
2718.8,1.4268,19.001
2730.5,-0.077679,18.593
2742.2,1.6031,20.257
2753.9,3.6118,20.92
2765.6,4.2872,20.703
2777.3,1.9517,19.975
2789.1,2.2414,19.051
2800.8,-0.64233,20.574
2812.5,-2.2882,20.848
2824.2,3.8536,18.175
2835.9,1.5081,21.564
2847.7,-5.0727,18.292
2859.4,-3.1951,16.983
2871.1,-3.0792,20.277
2882.8,2.6302,21.21
2894.5,1.9564,19.872
2906.3,1.8283,19.968
2918,-0.20914,21.318
2929.7,-0.44107,22.911
2941.4,-0.4692,23.785
2953.1,-1.3825,23.154
2964.8,1.3196,20.566
2976.6,0.23314,17.9
2988.3,-0.24093,20.404
3000,-0.33399,20.552
3011.7,-0.23422,18.727
3023.4,-1.9223,17.401
3035.2,-0.40273,17.422
3046.9,1.5419,20.695
3058.6,-0.31867,20.573
3070.3,-1.7303,18.668
3082,-4.0619,20.698
3093.8,-4.1835,19.684
3105.5,-1.3679,17.663
3117.2,-1.2272,19.59
3128.9,-0.94025,19.202
3140.6,-0.31209,19.344
3152.3,1.4051,20.456
3164.1,0.010715,19.56
3175.8,-1.0822,18.802
3187.5,0.39927,19.182
3199.2,-1.0901,19.539
3210.9,-2.4212,20.142
3222.7,-1.6499,19.142
3234.4,-4.3966,17.919
3246.1,-3.3234,20.428
3257.8,-1.3417,19.62
3269.5,-1.166,18.161
3281.3,-1.2882,19.613
3293,1.2234,20.984
3304.7,1.5976,21.214
3316.4,-0.66898,19.742
3328.1,-0.86704,17.822
3339.8,0.37771,20.841
3351.6,-0.80133,22.346
3363.3,-2.0654,19.884
3375,0.70085,18.308
3386.7,3.2055,19.246
3398.4,-0.32386,19.084
3410.2,-1.3161,20.673
3421.9,-0.38132,19.662
3433.6,-0.060199,17.149
3445.3,-1.0334,16.46
3457,-2.318,18.587
3468.8,-5.694,19.455
3480.5,-1.4466,17.762
3492.2,1.2892,16.13
3503.9,-2.5522,17.23
3515.6,-0.17759,17.387
3527.3,0.013145,17.283
3539.1,-1.0962,16.742
3550.8,0.064975,14.801
3562.5,-0.92729,17.946
3574.2,-1.7289,21.024
3585.9,-3.3017,18.637
3597.7,-1.6739,16.245
3609.4,-1.1014,16.979
3621.1,0.78886,17.557
3632.8,0.5287,19.782
3644.5,-3.9113,20.59
3656.3,-6.986,19.664
3668,-3.8699,20.135
3679.7,-2.8294,19.32
3691.4,-2.6221,18.214
3703.1,-0.64085,17.942
3714.8,-0.77753,19.753
3726.6,-0.11611,19.642
3738.3,-1.9095,16.473
3750,-2.0132,18.57
3761.7,-2.9757,20.198
3773.4,-2.7466,17.568
3785.2,-1.2867,15.232
3796.9,-4.6318,15.162
3808.6,-2.2722,14.577
3820.3,-0.60164,17.415
3832,-0.30462,16.206
3843.8,0.88247,18.023
3855.5,0.16103,18.588
3867.2,-1.5222,19.127
3878.9,-4.4055,19.925
3890.6,-5.1628,19.091
3902.3,-3.2783,19.192
3914.1,-1.2367,18.995
3925.8,-4.0959,19.437
3937.5,-1.0509,19.027
3949.2,-0.6124,17.577
3960.9,-0.58984,16.771
3972.7,0.13197,18.591
3984.4,-0.67669,19.43
3996.1,-3.269,19.928
4007.8,-4.9108,19.529
4019.5,-5.6643,17.546
4031.3,-4.2694,16.137
4043,-1.6338,15.213
4054.7,-2.1891,15.91
4066.4,-2.1967,21.295
4078.1,-0.50024,20.287
4089.8,-0.3238,15.129
4101.6,-2.6511,18.879
4113.3,-3.9999,16.156
4125,-2.6265,14.694
4136.7,0.13293,16.505
4148.4,1.8661,19.722
4160.2,1.0933,17.759
4171.9,0.94586,13.628
4183.6,1.6212,17.528
4195.3,-0.97266,20.737
4207,-3.7794,18.046
4218.8,-3.9535,15.478
4230.5,-4.3858,17.161
4242.2,-3.5499,17.613
4253.9,-2.9678,17.73
4265.6,-1.4945,18.201
4277.3,-3.8823,19.741
4289.1,-2.4792,18.736
4300.8,-2.6745,17.496
4312.5,-4.8035,17.394
4324.2,-4.8867,13.533
4335.9,-4.2698,12.715
4347.7,-3.9614,12.858
4359.4,-1.4855,16.316
4371.1,-1.3273,18.495
4382.8,-4.9371,19.647
4394.5,-4.1718,19.317
4406.3,-5.5642,19.577
4418,-3.4418,16.988
4429.7,-2.1182,15.996
4441.4,-4.0635,17.24
4453.1,-5.6676,16.388
4464.8,-3.7064,15.476
4476.6,-1.3411,16.473
4488.3,-2.2888,15.685
4500,-3.6018,15.917
4511.7,-3.5008,17.631
4523.4,-3.8796,15.412
4535.2,-6.0989,11.902
4546.9,-4.8164,15.506
4558.6,1.8963,17.07
4570.3,0.16073,16.17
4582,-3.8235,16.502
4593.8,-5.2059,17.828
4605.5,-3.6287,17.698
4617.2,-3.5466,14.334
4628.9,-4.1347,16.461
4640.6,-6.9118,17.857
4652.3,-3.4467,16.72
4664.1,-3.3315,16.802
4675.8,-5.1112,16.705
4687.5,-6.816,15.071
4699.2,-2.8983,13.744
4710.9,-2.4936,15.782
4722.7,-3.8705,15.621
4734.4,-6.4927,17.866
4746.1,-4.552,20.273
4757.8,-2.0091,16.733
4769.5,-1.4517,20.889
4781.3,-0.64613,18.094
4793,-3.3934,13.424
4804.7,-4.9532,18.212
4816.4,-5.1158,19.163
4828.1,-3.2897,17.322
4839.8,-3.9247,17.184
4851.6,-6.2638,15.399
4863.3,-1.9153,17.07
4875,-0.69846,16.74
4886.7,-1.1527,14
4898.4,0.81083,15.127
4910.2,0.98984,14.566
4921.9,-0.55829,15.467
4933.6,-3.158,14.066
4945.3,-2.1157,14.821
4957,-1.9139,18.747
4968.8,-2.2636,16.185
4980.5,-2.852,17.028
4992.2,-3.7203,18.633
5003.9,-6.2294,18.451
5015.6,-6.0247,17.758
5027.3,-5.0197,17.143
5039.1,-4.5043,16.499
5050.8,-5.9275,15.038
5062.5,-2.332,16.527
5074.2,-3.2193,17.203
5085.9,-3.6382,15.799
5097.7,-4.6407,14.336
5109.4,-3.6594,17.488
5121.1,-3.7609,18.991
5132.8,-4.995,16.363
5144.5,-5.2122,12.291
5156.3,-5.3604,14.542
5168,-2.9742,14.824
5179.7,-5.0852,14.062
5191.4,-7.9985,16.178
5203.1,-7.0158,14.188
5214.8,-4.9448,18.32
5226.6,-2.436,17.664
5238.3,-4.022,16.254
5250,-6.2109,16.054
5261.7,-6.8437,12.546
5273.4,-4.826,15.361
5285.2,-3.6995,14.639
5296.9,-4.8319,12.391
5308.6,-5.7554,15.7
5320.3,-5.1396,13.919
5332,-5.3751,15.559
5343.8,-2.3925,15.953
5355.5,-2.4099,16.047
5367.2,-5.8063,15.511
5378.9,-5.3848,16
5390.6,-5.7351,17.222
5402.3,-6.0857,15.111
5414.1,-3.4962,17.396
5425.8,-3.4892,17.294
5437.5,-2.758,16.664
5449.2,-3.066,17.636
5460.9,-3.472,14.649
5472.7,-4.9657,17.92
5484.4,-1.6218,15.869
5496.1,-2.0466,13.788
5507.8,-3.9827,15.676
5519.5,-7.5295,16.272
5531.3,-4.1046,13.702
5543,-4.391,15.234
5554.7,-5.5299,14.978
5566.4,-7.1584,15.031
5578.1,-5.4681,17.252
5589.8,-4.128,15.02
5601.6,-4.4338,14.7
5613.3,-4.654,16.61
5625,-5.7386,14.688
5636.7,-5.6861,14.012
5648.4,-5.6019,15.127
5660.2,-5.9212,14.413
5671.9,-6.4618,15.169
5683.6,-5.0841,13.959
5695.3,-5.1452,12.623
5707,-5.6598,13.442
5718.8,-9.3483,12.474
5730.5,-3.1781,14.285
5742.2,-2.3245,15.301
5753.9,-4.1658,16.994
5765.6,-6.5325,16.365
5777.3,-9.6224,14.715
5789.1,-5.7093,15.818
5800.8,-3.3071,16.729
5812.5,-4.6323,13.873
5824.2,-7.6701,12.817
5835.9,-5.1148,13.999
5847.7,-4.5808,15.271
5859.4,-3.8141,14.298
5871.1,-2.4427,16.577
5882.8,-1.5359,17.483
5894.5,-1.2631,13.574
5906.3,-4.2313,14.279
5918,-4.5945,14.266
5929.7,-5.4336,13.729
5941.4,-7.0846,16.02
5953.1,-6.2431,15.687
5964.8,-6.0706,12.245
5976.6,-1.652,11.886
5988.3,1.142,13.415
6000,-6.1026,14.001
6011.7,-4.9947,15.242
6023.4,-4.8506,12.829
6035.2,-5.7449,12.203
6046.9,-6.0569,14.768
6058.6,-3.2658,16.021
6070.3,-2.1262,15.402
6082,-4.1229,15.419
6093.8,-6.1945,15.611
6105.5,-5.6562,13.245
6117.2,-7.1162,14.366
6128.9,-6.1808,14.113
6140.6,-6.6171,15.354
6152.3,-7.888,13.014
6164.1,-7.2473,12.032
6175.8,-4.8399,10.185
6187.5,-3.6573,11.365
6199.2,-4.6989,12.24
6210.9,-6.7788,11.641
6222.7,-5.3332,13.897
6234.4,-5.9189,13.587
6246.1,-5.9868,13.954
6257.8,-8.5846,15.862
6269.5,-9.364,14.818
6281.3,-7.1948,13.838
6293,-5.893,13.665
6304.7,-6.3307,13.329
6316.4,-5.5522,13.764
6328.1,-5.309,14.318
6339.8,-5.8688,14.226
6351.6,-4.6154,14.131
6363.3,-5.3574,14.436
6375,-4.8591,15.425
6386.7,-5.8129,14.03
6398.4,-6.2105,15.297
6410.2,-4.6636,14.307
6421.9,-7.0686,17.376
6433.6,-5.8286,15.434
6445.3,-5.4198,12.18
6457,-6.1145,10.687
6468.8,-5.4102,12.364
6480.5,-3.0162,12.781
6492.2,-6.1021,11.365
6503.9,-9.5243,12.617
6515.6,-6.6364,14.023
6527.3,-6.719,15.608
6539.1,-9.1916,15.294
6550.8,-7.7937,16.297
6562.5,-5.354,15.017
6574.2,-6.4355,13.666
6585.9,-10.244,12.224
6597.7,-9.5633,13.361
6609.4,-10.129,16.483
6621.1,-5.3385,14.279
6632.8,-5.6341,11.636
6644.5,-7.3722,12.413
6656.3,-4.7381,11.864
6668,-5.9954,11.741
6679.7,-3.9994,15.763
6691.4,-6.2373,15.715
6703.1,-8.5981,13.829
6714.8,-3.7142,11.688
6726.6,-2.715,13.737
6738.3,-2.5171,14.917
6750,-2.3585,12.412
6761.7,-3.7459,11.168
6773.4,-6.1892,10.509
6785.2,-7.3273,10.816
6796.9,-7.7884,10.188
6808.6,-5.4857,10.306
6820.3,-7.7897,12.196
6832,-7.2863,15.45
6843.8,-8.1175,15.658
6855.5,-6.7659,13.92
6867.2,-5.3513,10.925
6878.9,-4.1022,9.935
6890.6,-7.9413,9.1422
6902.3,-7.1635,11.814
6914.1,-6.2394,13.943
6925.8,-8.2642,14.027
6937.5,-7.6221,12.497
6949.2,-6.7194,9.8075
6960.9,-7.7398,12.29
6972.7,-9.6844,13.173
6984.4,-8.8604,12.737
6996.1,-7.0263,10.061
7007.8,-10.24,10.451
7019.5,-9.6873,12.515
7031.3,-4.4574,12.435
7043,-4.4068,13.691
7054.7,-4.2195,11.908
7066.4,-3.7965,12.599
7078.1,-5.4585,11.734
7089.8,-6.4862,15.044
7101.6,-8.7798,16.079
7113.3,-8.6377,13.66
7125,-10.168,10.42
7136.7,-7.1492,13.79
7148.4,-6.1799,14.355
7160.2,-8.4029,12.461
7171.9,-9.6326,12.832
7183.6,-8.3825,9.9964
7195.3,-7.8779,9.3464
7207,-7.3761,8.3304
7218.8,-7.2233,9.269
7230.5,-10.001,9.1705
7242.2,-6.6493,9.694
7253.9,-7.0238,11.465
7265.6,-7.947,13.143
7277.3,-7.1765,13.311
7289.1,-4.5355,14.731
7300.8,-4.7551,13.456
7312.5,-6.5801,14.709
7324.2,-7.5626,14.843
7335.9,-6.7205,13.262
7347.7,-8.0558,13.242
7359.4,-9.5336,13.217
7371.1,-6.9635,11.202
7382.8,-8.0593,14.505
7394.5,-6.8701,12.713
7406.3,-7.9016,11.408
7418,-8.1352,12.397
7429.7,-9.7999,12.855
7441.4,-6.3394,14.613
7453.1,-5.1275,13.142
7464.8,-9.8931,10.651
7476.6,-8.4163,11.931
7488.3,-4.0514,10.88
7500,-3.8862,11.033
7511.7,-6.751,12.337
7523.4,-9.9944,11.975
7535.2,-9.0022,13.387
7546.9,-6.7901,12.861
7558.6,-7.5637,13.22
7570.3,-7.8201,13.033
7582,-4.7918,9.8589
7593.8,-4.8754,10.795
7605.5,-7,9.9108
7617.2,-8.9582,12.147
7628.9,-8.7593,13.322
7640.6,-9.4237,12.625
7652.3,-8.3161,13.099
7664.1,-6.4222,10.659
7675.8,-7.5097,11.05
7687.5,-6.6203,8.4389
7699.2,-7.6438,10.181
7710.9,-8.6491,11.095
7722.7,-9.4756,10.654
7734.4,-8.5953,10.579
7746.1,-6.3859,10.188
7757.8,-8.0061,12.824
7769.5,-6.9928,13.887
7781.3,-6.3964,12.416
7793,-7.1478,8.994
7804.7,-10.135,11.01
7816.4,-8.5648,11.257
7828.1,-6.4314,11.098
7839.8,-9.1888,10.102
7851.6,-8.9442,12.438
7863.3,-7.3761,13.571
7875,-5.8783,13.435
7886.7,-4.7333,12.061
7898.4,-5.4836,9.1231
7910.2,-5.0623,10.449
7921.9,-7.8012,11.015
7933.6,-7.4025,9.9038
7945.3,-8.1675,10.541
7957,-9.1079,10.272
7968.8,-8.9565,9.6663
7980.5,-11.805,10.561
7992.2,-10.34,11.594
8003.9,-9.2512,11.584
8015.6,-10.084,13.894
8027.3,-10.283,14.726
8039.1,-9.5033,12.443
8050.8,-10.495,13.576
8062.5,-12.413,14.478
8074.2,-11.178,15.403
8085.9,-7.0906,12.516
8097.7,-7.3656,13.659
8109.4,-8.2918,14.737
8121.1,-7.9491,11.634
8132.8,-5.9176,9.2026
8144.5,-11.436,9.2906
8156.3,-8.7069,7.6216
8168,-8.2592,8.9822
8179.7,-9.0141,11.654
8191.4,-8.1576,9.6422
8203.1,-9.945,8.7458
8214.8,-8.8555,11.282
8226.6,-7.2254,12.754
8238.3,-10.19,11.1
8250,-12.181,11.669
8261.7,-10.115,8.8727
8273.4,-9.1029,11.119
8285.2,-9.5826,13.808
8296.9,-10.812,12.884
8308.6,-10.994,13.799
8320.3,-9.0131,12.497
8332,-7.6762,10.575
8343.8,-8.736,10.144
8355.5,-9.0527,11.159
8367.2,-10.258,7.9604
8378.9,-10.895,8.1999
8390.6,-10.258,10.275
8402.3,-9.2481,10.314
8414.1,-7.955,9.4462
8425.8,-10.47,9.4067
8437.5,-8.6732,12.354
8449.2,-10.087,10.321
8460.9,-10.809,11.091
8472.7,-9.8315,12.1
8484.4,-6.0013,9.2359
8496.1,-6.5628,14.015
8507.8,-12.39,12.952
8519.5,-13.38,13.824
8531.3,-11.645,13.905
8543,-8.8286,11.364
8554.7,-9.2001,9.7963
8566.4,-7.6244,11.107
8578.1,-8.622,10.974
8589.8,-11.56,12.608
8601.6,-8.3725,11.785
8613.3,-8.3957,10.748
8625,-10.095,7.642
8636.7,-9.0256,8.4424
8648.4,-7.8486,10.044
8660.2,-8.4159,12.596
8671.9,-10.799,9.8417
8683.6,-9.2569,8.827
8695.3,-6.3355,11.624
8707,-6.8561,12.245
8718.8,-10.717,11.198
8730.5,-9.0327,8.7158
8742.2,-7.2129,10.296
8753.9,-6.7004,13.781
8765.6,-7.7587,13.392
8777.3,-8.0131,12.323
8789.1,-7.94,11.105
8800.8,-7.7467,11.139
8812.5,-10.839,11.997
8824.2,-9.4972,11.299
8835.9,-7.6047,9.0674
8847.7,-8.8691,7.3352
8859.4,-11.307,9.9142
8871.1,-10.886,11.42
8882.8,-9.0787,10.753
8894.5,-8.1145,11.102
8906.3,-10.562,7.4952
8918,-13.692,9.2321
8929.7,-12.998,11.78
8941.4,-11.613,13.667
8953.1,-9.3791,12.114
8964.8,-12.347,10.689
8976.6,-11.755,10.2
8988.3,-15.441,9.8689
9000,-11.541,9.9926
9011.7,-11.094,12.101
9023.4,-11.62,9.9495
9035.2,-11.835,9.5395
9046.9,-10.623,11.081
9058.6,-10.808,9.6208
9070.3,-12.095,9.6243
9082,-11.461,10.549
9093.8,-11.239,10.381
9105.5,-11.39,10.695
9117.2,-12.097,9.8426
9128.9,-11.725,9.338
9140.6,-13.021,10.236
9152.3,-12.733,11.06
9164.1,-10.245,10.787
9175.8,-10.424,9.3816
9187.5,-9.6911,5.3388
9199.2,-9.9119,6.8559
9210.9,-11.555,8.5984
9222.7,-11.649,8.5152
9234.4,-9.6433,7.9506
9246.1,-10.708,8.4724
9257.8,-11.456,8.1794
9269.5,-12.315,8.4019
9281.3,-9.7671,11.822
9293,-9.2157,11.959
9304.7,-9.4799,11.153
9316.4,-8.2642,9.1256
9328.1,-9.4535,6.5736
9339.8,-10.051,10.678
9351.6,-9.3674,11.864
9363.3,-10.424,10.536
9375,-10.412,7.2267
9386.7,-10.142,9.1996
9398.4,-9.5239,11.226
9410.2,-10.351,9.6917
9421.9,-8.0816,11.489
9433.6,-8.2652,11.171
9445.3,-11.112,11.988
9457,-11.997,11.657
9468.8,-10.119,10.483
9480.5,-8.6947,9.8113
9492.2,-10.476,8.3608
9503.9,-10.547,9.4623
9515.6,-8.2757,9.2826
9527.3,-12.178,9.7172
9539.1,-9.2995,9.4458
9550.8,-8.4999,11.713
9562.5,-11.214,13.2
9574.2,-10.506,9.8487
9585.9,-9.0127,9.1455
9597.7,-8.9717,10.626
9609.4,-9.0033,11.532
9621.1,-10.797,11.276
9632.8,-14.332,8.7683
9644.5,-10.899,6.4427
9656.3,-7.8098,8.2458
9668,-9.291,9.911
9679.7,-10.895,10.201
9691.4,-9.5639,9.4928
9703.1,-10.567,8.0343
9714.8,-10.747,8.8642
9726.6,-12.559,8.6778
9738.3,-9.4033,9.3028
9750,-11.602,11.919
9761.7,-15.432,10.909
9773.4,-13.73,7.0657
9785.2,-11.09,6.4024
9796.9,-10.533,10.259
9808.6,-13.496,10.651
9820.3,-10.344,7.8015
9832,-10.676,9.0015
9843.8,-10.565,11.025
9855.5,-11.691,8.7456
9867.2,-10.64,7.7534
9878.9,-9.1291,8.5696
9890.6,-11.906,11.736
9902.3,-12.031,8.7213
9914.1,-11.314,9.7365
9925.8,-10.822,9.9265
9937.5,-10.941,9.7015
9949.2,-10.278,10.701
9960.9,-11.411,9.8187
9972.7,-10.073,8.8114
9984.4,-9.2203,9.3361
9996.1,-10.648,10.271
10008,-10.85,11.603
10020,-11.069,9.1195
10031,-10.619,10.142
10043,-11.326,8.5724
10055,-12.08,9.1275
10066,-10.888,8.4605
10078,-10.597,8.1172
10090,-11.117,8.8216
10102,-11.651,7.4145
10113,-12.011,7.1284
10125,-9.4802,9.2861
10137,-10.715,9.7463
10148,-10.147,9.8502
10160,-10.392,11.184
10172,-12.021,8.4555
10184,-8.7618,5.3592
10195,-7.3832,10.115
10207,-8.6941,9.0209
10219,-11.257,7.2301
10230,-12.012,8.9801
10242,-11.389,6.6904
10254,-11.948,7.0197
10266,-10.57,9.5078
10277,-9.2009,6.3836
10289,-8.9799,5.9884
10301,-9.5469,6.6094
10313,-9.3826,7.1877
10324,-11.286,6.628
10336,-14.691,7.1882
10348,-12.069,6.8246
10359,-10.937,10.139
10371,-11.569,10.032
10383,-11.403,9.8822
10395,-10.274,9.6706
10406,-12.464,8.6781
10418,-12.188,8.9578
10430,-12.465,12.353
10441,-14.059,10.311
10453,-11.693,11.442
10465,-13.462,9.9429
10477,-12.602,9.8867
10488,-15.591,8.8519
10500,-13.044,9.0106
10512,-11.472,6.513
10523,-12.108,7.1884
10535,-10.789,9.2787
10547,-10.15,10.815
10559,-13.015,9.2139
10570,-15.202,6.7982
10582,-12.423,5.7004
10594,-10.918,5.6127
10605,-11.755,8.5778
10617,-13.523,10.659
10629,-12.743,9.6091
10641,-12.918,6.6434
10652,-11.473,7.1318
10664,-12.203,8.2984
10676,-9.6935,8.5069
10688,-10.003,10.004
10699,-10.862,9.679
10711,-12.962,9.2016
10723,-13.804,8.7456
10734,-13.107,8.7464
10746,-9.1347,7.4841
10758,-9.2534,7.0241
10770,-12.655,6.9373
10781,-13.102,9.2674
10793,-12.443,9.2405
10805,-12.658,10.71
10816,-12.505,9.2263
10828,-12.924,9.4378
10840,-10.518,7.6236
10852,-10.116,9.5465
10863,-10.102,9.6387
10875,-10.982,8.3345
10887,-13.041,7.6813
10898,-12.338,8.5115
10910,-9.3941,10.724
10922,-10.926,10.05
10934,-10.986,7.8313
10945,-9.9269,7.8207
10957,-11.716,7.101
10969,-15.949,10.239
10980,-12.405,9.0018
10992,-9.4882,5.585
11004,-10.41,6.3821
11016,-11.874,8.7064
11027,-12.129,7.8878
11039,-8.0314,7.6576
11051,-10.607,7.5029
11063,-15.712,7.6836
11074,-14.426,9.4007
11086,-12.984,9.9578
11098,-16.001,8.4382
11109,-17.731,8.8379
11121,-15.388,8.3989
11133,-14.49,8.8494
11145,-14.309,9.7941
11156,-15.279,10.995
11168,-16.395,9.7797
11180,-14.492,6.4887
11191,-12.962,6.0835
11203,-12.82,4.221
11215,-12.46,6.6623
11227,-13.321,3.4509
11238,-12.289,3.777
11250,-11.811,5.573
11262,-11.897,6.8722
11273,-13.29,9.071
11285,-14.113,7.4149
11297,-12.446,11.281
11309,-11.75,11.239
11320,-10.186,8.1034
11332,-12.533,6.5021
11344,-16.318,6.2913
11355,-13.373,9.3088
11367,-11.325,10.351
11379,-13.193,7.5985
11391,-14.719,8.9382
11402,-16.979,10.7
11414,-14.893,7.4545
11426,-14.898,6.4555
11438,-11.231,5.1301
11449,-12.365,7.935
11461,-16.547,9.305
11473,-14.648,6.0309
11484,-12.787,9.5392
11496,-9.9406,9.9378
11508,-5.6485,6.8597
11520,-7.9243,6.5879
11531,-13.07,6.5488
11543,-12.763,7.0884
11555,-12.758,8.0992
11566,-11.711,7.5612
11578,-14.214,7.3445
11590,-12.389,5.8152
11602,-10.301,6.6881
11613,-11.558,8.0002
11625,-16.242,6.5679
11637,-12.299,5.1811
11648,-13.619,5.3123
11660,-11.504,7.5136
11672,-13.421,9.6229
11684,-12.233,9.4776
11695,-13.026,8.7022
11707,-14.681,8.8883
11719,-9.5094,9.1859
11730,-10.19,8.9935
11742,-14.936,7.1332
11754,-12.878,6.2494
11766,-12.442,5.6662
11777,-12.63,2.3064
11789,-12.896,2.1884
11801,-14.264,2.2992
11813,-14.45,5.5702
11824,-12.595,2.9015
11836,-12.514,6.8625
11848,-13.175,9.8704
11859,-11.289,9.5923
11871,-12.383,8.3011
11883,-14.26,7.3679
11895,-11.782,6.0735
11906,-11.338,5.5718
11918,-10.39,8.0294
11930,-11.992,6.2111
11941,-12.217,7.4449
11953,-13.773,7.6184
11965,-13.005,7.6303
11977,-15.068,9.3717
11988,-13.508,8.2207
12000,-11.768,4.4618
12012,-11.802,6.7433
12023,-16.614,8.7403
12035,-13.667,7.7917
12047,-11.996,7.1062
12059,-13.697,7.6085
12070,-10.935,7.2582
12082,-11.791,5.4034
12094,-13.048,6.7393
12105,-11.612,6.8008
12117,-14.677,7.0812
12129,-14.438,4.7767
12141,-13.797,3.9134
12152,-13.189,5.877
12164,-11.993,4.7604
12176,-13.471,6.0746
12188,-15.269,6.544
12199,-13.504,6.265
12211,-13.378,8.7661
12223,-13.811,6.916
12234,-12.949,3.1954
12246,-13.028,1.3079
12258,-13.563,3.0427
12270,-14.072,3.8076
12281,-11.449,1.1516
12293,-14.117,6.06
12305,-14.515,8.8013
12316,-13.059,8.2724
12328,-14.961,6.6482
12340,-15.111,5.9174
12352,-15.372,5.236
12363,-12.246,6.7499
12375,-10.962,7.6231
12387,-11.53,6.7199
12398,-14.529,7.592
12410,-12.851,5.7425
12422,-8.8305,2.0073
12434,-8.1978,3.465
12445,-13.931,5.3002
12457,-18.218,6.4041
12469,-13.66,6.3271
12480,-10.644,4.0006
12492,-10.883,5.1437
12504,-12.037,4.0605
12516,-12.752,5.2194
12527,-14.782,8.2413
12539,-13.932,5.7181
12551,-12.193,2.5189
12563,-13.665,2.1803
12574,-12.78,0.9407
12586,-10.957,7.0373
12598,-12.645,7.8129
12609,-17.411,5.5407
12621,-14.375,4.0483
12633,-14.305,3.1392
12645,-12.103,5.0891
12656,-13.817,6.869
12668,-14.148,6.5518
12680,-13.409,8.7086
12691,-14.876,6.4508
12703,-11.823,7.2958
12715,-12.807,8.9367
12727,-15.47,6.0914
12738,-15.881,5.822
12750,-11.579,5.5348
12762,-11.549,8.1906
12773,-11.212,6.245
12785,-14.23,4.2299
12797,-14.301,4.9284
12809,-14.613,5.5831
12820,-13.33,3.3176
12832,-12.649,3.9849
12844,-15.561,3.6654
12855,-12.498,3.398
12867,-11.785,3.1997
12879,-14.035,3.8821
12891,-14.875,6.9602
12902,-13.84,7.1603
12914,-14.457,4.2548
12926,-13.599,4.9204
12938,-14.038,4.3443
12949,-15.221,4.5126
12961,-13.576,5.9269
12973,-15.371,2.7118
12984,-12.695,0.9856
12996,-12.064,3.0768
13008,-14.896,1.182
13020,-15.019,2.6127
13031,-11.002,3.6688
13043,-11.882,4.3317
13055,-14.347,4.9994
13066,-14.802,5.5322
13078,-13.8,5.5234
13090,-10.881,5.9539
13102,-9.2647,6.2995
13113,-11.592,5.8012
13125,-13.564,2.4371
13137,-15.698,3.3711
13148,-14.144,5.2679
13160,-15.684,5.5925
13172,-17.408,7.6643
13184,-15.117,5.277
13195,-11.949,3.8111
13207,-13.667,6.7936
13219,-14.147,4.789
13230,-13.647,5.7617
13242,-12.667,5.9769
13254,-12.946,5.9811
13266,-13.583,4.8053
13277,-14.01,6.7766
13289,-15.947,8.6642
13301,-14.748,6.233
13313,-13.36,7.8352
13324,-13.52,6.7323
13336,-14.25,4.9382
13348,-7.4984,4.9476
13359,-8.1533,6.6138
13371,-11.267,5.9154
13383,-13.861,2.9308
13395,-15.511,1.4623
13406,-14.049,4.4379
13418,-16.977,4.0613
13430,-16.249,6.1095
13441,-12.925,7.8713
13453,-13.406,5.6125
13465,-14.424,4.153
13477,-14.096,6.66
13488,-13.57,4.5676
13500,-14.804,2.6716
13512,-13.31,4.1663
13523,-14.069,6.2479
13535,-14.984,6.6729
13547,-14.767,2.7989
13559,-16.337,3.0208
13570,-16.716,3.7915
13582,-13.406,2.0647
13594,-13.083,2.0279
13605,-13.324,3.2336
13617,-16.019,4.16
13629,-16.087,3.5371
13641,-17.706,7.6147
13652,-16.089,7.6459
13664,-14.741,3.2623
13676,-12.631,2.6597
13688,-15.717,1.4684
13699,-15.529,1.235
13711,-12.098,2.2137
13723,-11.799,3.8445
13734,-14.254,5.1187
13746,-14.376,4.77
13758,-13.485,4.8273
13770,-13.737,3.5287
13781,-15.116,1.4806
13793,-16.703,5.5934
13805,-16.047,5.7496
13816,-13.43,4.9363
13828,-13.493,5.222
13840,-14.839,4.2481
13852,-13.739,4.1973
13863,-14.382,5.2535
13875,-15.005,6.1359
13887,-16.304,4.7055
13898,-17.229,6.3103
13910,-16.879,6.7914
13922,-14.917,2.9406
13934,-15.238,3.2382
13945,-13.315,5.2274
13957,-13.751,4.6443
13969,-14.208,1.2746
13980,-13.817,2.2869
13992,-14.116,3.0367
14004,-15.742,5.2191
14016,-18.249,5.2479
14027,-15.997,5.0039
14039,-12.858,5.1637
14051,-13.661,3.6615
14063,-15.271,3.6126
14074,-17.323,2.9094
14086,-16.526,6.8296
14098,-15.964,7.0409
14109,-15.166,4.9601
14121,-14.416,5.05
14133,-16.481,5.8641
14145,-17.923,5.1627
14156,-18.512,3.8379
14168,-17.913,4.3177
14180,-16.705,3.5467
14191,-17.761,3.27
14203,-15.606,6.6496
14215,-15.42,7.1888
14227,-15.486,7.0678
14238,-14.972,6.0614
14250,-15.876,5.7396
14262,-15.394,6.3475
14273,-17.471,2.1266
14285,-18.633,3.0728
14297,-14.982,4.0144
14309,-17.037,5.7406
14320,-15.58,7.0099
14332,-15.424,4.3213
14344,-16.851,-0.43374
14355,-15.654,1.671
14367,-18.308,3.1017
14379,-17.088,5.3799
14391,-13.851,4.8305
14402,-15.345,1.9783
14414,-14.392,1.3601
14426,-13.718,2.9897
14438,-15.811,3.9322
14449,-13.358,2.0288
14461,-11.928,3.5676
14473,-14.861,1.8233
14484,-17.549,1.3927
14496,-16.202,1.8683
14508,-12.145,1.1501
14520,-13.684,1.3676
14531,-15.663,4.4846
14543,-16.572,6.1411
14555,-14.589,2.3808
14566,-15.39,3.4625
14578,-14.633,3.567
14590,-14.923,4.6783
14602,-14.937,1.1673
14613,-15.605,-1.2978
14625,-16.906,1.7862
14637,-15.765,2.9478
14648,-17.153,4.4027
14660,-19.838,5.1759
14672,-18.114,1.3043
14684,-18.641,2.3024
14695,-15.26,2.7304
14707,-16.948,1.7104
14719,-15.276,2.0349
14730,-17.134,0.9617
14742,-18.988,0.21084
14754,-16.251,-0.14145
14766,-18.229,0.36998
14777,-17.223,4.6113
14789,-15.434,7.6435
14801,-16.638,6.6944
14813,-17.278,2.9379
14824,-15.03,0.76236
14836,-16.199,1.7954
14848,-16.786,2.9996
14859,-15.033,5.1352
14871,-19.075,4.351
14883,-16.868,1.4926
14895,-17.17,2.2851
14906,-17.161,-0.94933
14918,-20.692,1.2984
14930,-17.024,1.6763
14941,-13.912,2.8641
14953,-15.511,4.5979
14965,-17.56,3.4981
14977,-17.117,0.12362
14988,-15.492,1.0726
15000,-18.001,4.3977
15012,-17.405,4.9276
15023,-16.232,5.1194
15035,-13.962,3.6509
15047,-16.208,2.7025
15059,-19.198,4.5639
15070,-21.091,1.7065
15082,-19.684,-1.0149
15094,-16.721,3.7974
15105,-15.288,5.2354
15117,-14.866,2.2193
15129,-17.759,2.1115
15141,-18.513,2.4282
15152,-17.488,4.5651
15164,-18.914,4.0378
15176,-16.808,0.51219
15188,-14.347,1.0213
15199,-16.542,0.72769
15211,-17.964,1.0613
15223,-18.768,2.9854
15234,-19.574,2.9228
15246,-17.191,2.6675
15258,-18.235,3.2392
15270,-21.081,2.8713
15281,-20.163,2.9381
15293,-17.918,2.3617
15305,-20.831,0.57424
15316,-17.347,0.57016
15328,-14.79,0.10274
15340,-16.11,0.51748
15352,-17.11,1.9572
15363,-17.439,3.7207
15375,-16.935,3.8669
15387,-15.918,4.6185
15398,-15.983,3.094
15410,-16.722,1.7578
15422,-16.416,3.2633
15434,-18.403,1.6411
15445,-21.994,-0.88975
15457,-20.723,3.484
15469,-18.162,2.8374
15480,-16.937,2.6435
15492,-17.423,3.8779
15504,-17.939,4.4793
15516,-17.137,3.8462
15527,-18.001,4.3104
15539,-20.157,3.2621
15551,-19.817,1.3852
15563,-17.196,0.74338
15574,-18.431,1.3603
15586,-18.069,2.3262
15598,-17.247,1.8338
15609,-18.124,2.2866
15621,-18.126,2.9521
15633,-19.878,4.2417
15645,-20.414,0.94579
15656,-19.103,1.9929
15668,-20.371,2.8134
15680,-20.645,2.7375
15691,-19.191,2.3097
15703,-17.927,1.0073
15715,-16.181,2.3483
15727,-19.389,2.6873
15738,-18.562,1.4148
15750,-17.892,-0.2482
15762,-19.864,-0.60695
15773,-18.522,2.7151
15785,-18.121,1.3782
15797,-18.867,3.1918
15809,-22.183,0.013515
15820,-19.63,2.7172
15832,-18.521,4.3454
15844,-16.988,1.1388
15855,-19.841,-0.14872
15867,-20.674,2.0955
15879,-20.459,4.869
15891,-19.509,5.2036
15902,-16.749,1.2661
15914,-20.826,4.2422
15926,-22.698,3.5294
15938,-21.346,0.82358
15949,-19.997,1.1701
15961,-22.149,1.4505
15973,-21.167,0.44142
15984,-17.958,-0.61549
15996,-18.15,1.7705
16008,-18.248,3.2706
16020,-17.689,4.0556
16031,-17.204,2.8886
16043,-17.974,3.1113
16055,-19.487,2.33
16066,-19.519,0.61636
16078,-19.695,-1.2334
16090,-19.819,-3.5337
16102,-18.423,-2.5853
16113,-17.593,0.88923
16125,-20.328,0.035219
16137,-18.891,-1.5606
16148,-20.552,1.9451
16160,-19.569,1.3406
16172,-18.455,-3.1739
16184,-19.122,-1.9579
16195,-16.914,2.0151
16207,-16.702,0.50215
16219,-19.039,1.4344
16230,-18.153,3.134
16242,-17.286,5.4233
16254,-19.563,5.0521
16266,-20.946,3.8611
16277,-24.59,2.5647
16289,-23.117,3.6563
16301,-23.721,2.8652
16313,-24.473,2.1718
16324,-23.078,-0.52089
16336,-23.27,2.6744
16348,-19.911,3.7548
16359,-18.409,1.7331
16371,-20.656,0.74142
16383,-21.558,-2.1885
16395,-19.829,1.1851
16406,-19.493,2.4437
16418,-18.163,1.8629
16430,-20.016,3.9785
16441,-23.389,3.6983
16453,-19.15,2.8576
16465,-20.642,1.745
16477,-21.847,0.55959
16488,-21.953,-0.4678
16500,-21.391,-0.10109
16512,-21.799,0.95221
16523,-22.324,2.8417
16535,-20.466,1.4863
16547,-21.747,-1.3969
16559,-20.602,-2.5838
16570,-21.122,-1.1562
16582,-20.032,-0.33996
16594,-19.245,0.091862
16605,-22.123,0.21618
16617,-20.221,-1.6669
16629,-20.053,-3.3681
16641,-20.579,-2.217
16652,-18.983,2.3263
16664,-19.696,0.7989
16676,-18.098,-0.073632
16688,-22.769,-0.56863
16699,-20.027,0.56451
16711,-19.933,-1.7915
16723,-17.403,-4.36
16734,-20.181,-2.6691
16746,-20.385,-2.7626
16758,-19.149,-1.2052
16770,-18.699,-0.39562
16781,-22.215,0.16108
16793,-21.279,3.787
16805,-22.533,2.9012
16816,-20.033,1.0466
16828,-18.629,2.5386
16840,-18.025,3.1687
16852,-21.319,3.6118
16863,-21.224,4.4894
16875,-22.105,2.3917
16887,-23.389,1.4855
16898,-20.098,0.83146
16910,-17.471,-0.096396
16922,-19.038,2.886
16934,-20.899,4.1358
16945,-21.378,1.9527
16957,-22.41,1.5091
16969,-21.409,4.3418
16980,-21.94,4.8196
16992,-24.624,2.7823
17004,-24.606,-0.39178
17016,-23.786,2.6056
17027,-20.675,0.94028
17039,-18.879,-0.41351
17051,-19.841,-0.55336
17063,-20.052,0.7258
17074,-20.676,0.2568
17086,-23.808,1.1067
17098,-24.23,2.9697
17109,-22.167,2.5435
17121,-22.66,-0.23537
17133,-23.147,-0.34294
17145,-22.29,0.98906
17156,-21.894,4.0829
17168,-20.763,4.57
17180,-19.641,3.6946
17191,-21.737,1.4323
17203,-19.639,-2.5588
17215,-21.885,-5.796
17227,-24.333,-0.9587
17238,-25.347,0.85806
17250,-22.597,0.57898
17262,-21.907,-0.27719
17273,-20.764,0.33492
17285,-23.052,0.088624
17297,-22.206,-2.2274
17309,-20.823,1.8156
17320,-24.171,-0.59386
17332,-22.199,0.71913
17344,-23.632,-1.1765
17355,-20.847,-2.8116
17367,-21.142,-0.72676
17379,-23.558,0.23513
17391,-23.307,0.19887
17402,-23.319,-0.76969
17414,-21.164,-0.27936
17426,-20.211,-0.32474
17438,-17.261,-0.1921
17449,-18.556,-1.5455
17461,-20.954,-2.6225
17473,-20.278,1.6705
17484,-23.024,3.7003
17496,-22.109,0.075002
17508,-22.359,1.3413
17520,-21.371,3.1697
17531,-21.703,2.5577
17543,-21.4,0.66378
17555,-23.32,-0.6832
17566,-23.28,0.47066
17578,-23.481,-1.3989
17590,-22.443,-0.09217
17602,-23.296,0.74627
17613,-24.121,1.2183
17625,-23.19,-0.45898
17637,-21.617,-1.891
17648,-21.085,0.70781
17660,-24.161,-2.286
17672,-21.933,-3.307
17684,-20.08,-3.081
17695,-22.378,-1.3511
17707,-22.89,-0.94857
17719,-21.924,2.3307
17730,-21.687,3.7268
17742,-22.688,0.51847
17754,-22.714,-2.3134
17766,-21.992,-2.5947
17777,-22.975,-1.3845
17789,-23.377,-2.1587
17801,-24.585,-2.7345
17813,-25.311,-1.2096
17824,-21.517,1.108
17836,-20.596,-0.61414
17848,-21.268,-2.1204
17859,-20.46,-1.6057
17871,-22.189,-2.7989
17883,-24.415,-1.6617
17895,-23.382,0.30902
17906,-20.433,0.090099
17918,-22.489,-1.4625
17930,-19.388,-2.3705
17941,-18.892,-1.8414
17953,-16.975,1.8655
17965,-18.437,2.8029
17977,-24.962,1.4122
17988,-20.192,-0.079303
18000,-19.346,-2.1118
18012,-21.269,-1.77
18023,-22.054,-2.1172
18035,-19.279,-1.3388
18047,-21.233,0.31398
18059,-22.135,-2.1643
18070,-21.463,0.58063
18082,-22.018,2.1059
18094,-23.52,1.8309
18105,-20.64,2.0298
18117,-21.335,-0.17885
18129,-22.289,-2.1161
18141,-21.951,-4.0312
18152,-23.658,0.64402
18164,-24.568,3.7071
18176,-23.219,2.4528
18188,-22.88,1.2076
18199,-22.981,0.25505
18211,-22.001,-0.613
18223,-20.359,-1.873
18234,-25.499,-5.0498
18246,-22.748,-2.0574
18258,-21.961,-0.48619
18270,-20.685,0.56393
18281,-22.581,1.5479
18293,-24.436,0.90206
18305,-24.011,0.36555
18316,-20.45,-0.8486
18328,-20.422,-0.095556
18340,-21.711,1.1326
18352,-21.789,-0.0073001
18363,-22.205,0.049433
18375,-20.256,-0.62109
18387,-19.888,-0.43894
18398,-21.095,-1.5928
18410,-23.546,-2.9676
18422,-23.357,-0.33728
18434,-20.987,-0.44853
18445,-21.555,-1.2049
18457,-21.594,0.19559
18469,-21.191,-2.22
18480,-26.604,-0.22346
18492,-20.418,1.3869
18504,-21.973,2.0401
18516,-24.346,2.2739
18527,-24.074,3.4935
18539,-22.689,1.9941
18551,-25.27,-0.15212
18563,-23.115,1.6883
18574,-20.953,-0.075585
18586,-21.018,-2.277
18598,-25.027,-1.1926
18609,-22.496,1.0447
18621,-24.368,-0.57113
18633,-24.609,0.46618
18645,-23.839,-1.0445
18656,-23.733,-1.0712
18668,-23.708,-2.1357
18680,-23.11,-0.86236
18691,-24.71,-1.8958
18703,-24.932,-2.0367
18715,-25.064,-3.4857
18727,-25.069,-1.5281
18738,-24.646,1.3633
18750,-23.09,2.2561
18762,-23.43,1.3763
18773,-24.507,1.7774
18785,-22.599,-0.51673
18797,-23.556,0.49185
18809,-25.177,-1.1567
18820,-25.275,-0.84652
18832,-22.291,-0.92141
18844,-20.627,-1.5649
18855,-21.776,0.15528
18867,-21.065,-2.546
18879,-22.793,-0.92416
18891,-22.927,-1.9282
18902,-21.862,-1.9911
18914,-20.753,-1.9082
18926,-22.383,-1.6496
18938,-23.22,-2.0391
18949,-22.541,-0.26451
18961,-22.241,-0.77133
18973,-22.351,-2.6999
18984,-21.909,-0.43676
18996,-22.375,2.746
19008,-22.917,2.5501
19020,-23.359,-1.7008
19031,-21.12,-0.95027
19043,-19.626,-3.1801
19055,-21.079,-2.3704
19066,-24.209,-2.4263
19078,-24.132,0.50877
19090,-21.389,0.34539
19102,-21.857,-2.9784
19113,-24.047,-4.7496
19125,-24.123,-8.3279
19137,-21.509,-2.9446
19148,-20.278,-0.8779
19160,-25.291,-0.041629
19172,-25.206,2.4266
19184,-23.193,0.91827
19195,-24.371,0.65442
19207,-24.515,-0.54999
19219,-23.348,-0.54484
19230,-22.94,0.19638
19242,-23.088,-1.5297
19254,-23.815,-0.21517
19266,-23.4,-2.2899
19277,-22.838,-2.6989
19289,-24.02,-2.4255
19301,-24.165,-2.7986
19313,-27.349,-1.9814
19324,-25.857,-0.73412
19336,-23.953,-0.37524
19348,-25.614,0.23163
19359,-26.532,0.92552
19371,-23.641,-1.7584
19383,-22.32,-2.2961
19395,-24.386,-1.8433
19406,-26.686,-3.3327
19418,-25.789,-3.0707
19430,-24.662,-0.39252
19441,-25.414,1.453
19453,-24.66,1.7642
19465,-23.061,0.17749
19477,-21.66,-0.81085
19488,-22.534,-2.3844
19500,-23.181,-1.5401
19512,-26.701,0.56747
19523,-24.091,1.3313
19535,-22.45,0.06689
19547,-24.309,-0.64179
19559,-27.622,-2.9457
19570,-25.712,-3.2322
19582,-25.227,-1.0873
19594,-26.997,-1.8094
19605,-28.79,-3.1019
19617,-28.015,-3.37
19629,-25.899,-3.1389
19641,-24.301,-1.0486
19652,-23.232,-0.53308
19664,-23.906,-3.907
19676,-24.955,-7.0512
19688,-22.935,-3.6924
19699,-21.618,-1.7785
19711,-21.282,-2.0464
19723,-23.327,-0.58364
19734,-25.059,-0.1448
19746,-24.099,-0.38193
19758,-25.353,-0.16646
19770,-29.159,-0.94883
19781,-22.666,-2.7078
19793,-24.223,-2.1509
19805,-25.302,-5.6308
19816,-26.71,-2.2818
19828,-28.423,-0.59217
19840,-25.754,-1.5969
19852,-26.991,0.072208
19863,-27.252,1.3603
19875,-24.146,0.77618
19887,-23.972,-1.0659
19898,-24.94,-2.9391
19910,-24.857,-4.8476
19922,-24.479,-0.55791
19934,-26.421,-1.6377
19945,-25.339,-3.9745
19957,-23.275,-5.0265
19969,-21.021,-1.077
19980,-23.456,1.3951
19992,-25.798,2.5846
20004,-26.151,2.2816
20016,-24.902,-0.24063
20027,-26.994,-3.4942
20039,-23.021,-0.69684
20051,-23.522,0.15725
20063,-26.585,1.3045
20074,-28.368,0.59775
20086,-26.466,-0.61005
20098,-26.085,-1.1574
20109,-25.01,-0.61883
20121,-26.102,-0.34539
20133,-27.997,1.5341
20145,-27.75,-0.58143
20156,-29.739,-3.1841
20168,-27.184,-2.7596
20180,-26.463,-1.8172
20191,-27.391,-2.3448
20203,-26.143,-1.6058
20215,-24.02,-1.1637
20227,-25.051,-2.45
20238,-24.453,-0.97628
20250,-22.679,0.041224
20262,-23.631,0.0037854
20273,-25.062,-2.3856
20285,-26.415,-1.2606
20297,-23.668,-1.6657
20309,-22.311,-2.3708
20320,-26.885,-1.3921
20332,-26.972,-2.4854
20344,-23.816,-3.9935
20355,-23.413,-1.7945
20367,-25.403,-1.8172
20379,-23.246,-0.80137
20391,-22.595,-2.5514
20402,-23.81,-6.3961
20414,-24.085,-3.4447
20426,-23.971,-5.8733
20438,-24.553,-3.3082
20449,-24.149,-3.6034
20461,-25.57,-3.513
20473,-24.294,-2.9018
20484,-24.815,-5.719
20496,-23.808,-4.2135
20508,-24.55,-4.2162
20520,-25.417,-3.4525
20531,-29.381,-2.4198
20543,-28.351,-0.8033
20555,-27.94,-0.69353
20566,-24.981,-3.0982
20578,-24.224,-5.83
20590,-26.826,-4.1834
20602,-27.221,-1.8307
20613,-23.749,-6.1795
20625,-24.323,-6.1429
20637,-25.515,-2.1485
20648,-26.344,-1.2289
20660,-25.755,-1.3644
20672,-27.794,-3.5476
20684,-23.688,-4.8703
20695,-21.927,-4.3128
20707,-24.595,-1.0693
20719,-23.837,-2.8052
20730,-25.18,-3.4008
20742,-24.568,-2.4645
20754,-22.754,-2.0329
20766,-21.99,-2.496
20777,-24.417,-3.3286
20789,-24.323,-2.2283
20801,-25.038,-1.3171
20813,-27.702,-3.2448
20824,-26.91,-4.016
20836,-25.204,-3.3304
20848,-24.894,-2.0455
20859,-22.787,-2.2906
20871,-24.041,-2.9891
20883,-25.157,-4.1486
20895,-28.1,-2.5601
20906,-27.408,-3.2703
20918,-28.005,-2.6444
20930,-24.961,-1.6602
20941,-25.334,-0.81422
20953,-29.002,-2.9622
20965,-24.121,-7.6695
20977,-24.3,-9.1103
20988,-26.289,-5.7121
21000,-26.716,-2.9873
21012,-26.636,-2.7388
21023,-26.472,-2.2828
21035,-24.957,-1.3602
21047,-25.783,-2.5555
21059,-24.126,-2.8727
21070,-23.252,-2.733
21082,-27.39,-4.7453
21094,-27.903,-3.1912
21105,-27.035,-5.2045
21117,-28.414,-6.5082
21129,-26.826,-4.9863
21141,-24.613,-2.3836
21152,-23.1,-0.9858
21164,-25.925,-2.1023
21176,-25.573,-4.5579
21188,-25.584,-5.9768
21199,-28.251,-6.4696
21211,-27.337,-6.2106
21223,-26.631,-2.763
21234,-25.281,-2.9808
21246,-24.866,-3.836
21258,-28.922,-4.8968
21270,-26.685,-5.4698
21281,-25.553,-3.8445
21293,-26.65,-0.1574
21305,-27.691,-0.97404
21316,-27.443,-3.9834
21328,-26.927,-3.1101
21340,-25.147,-3.3
21352,-24.439,-4.8994
21363,-29.728,-3.1922
21375,-24.038,-2.7416
21387,-23.877,-5.5793
21398,-24.89,-8.5596
21410,-25.612,-5.699
21422,-27.652,-4.1873
21434,-28.471,-3.3077
21445,-26.928,-2.072
21457,-26.731,-1.7262
21469,-26.155,-3.3481
21480,-22.021,-3.5268
21492,-25.522,-6.9379
21504,-27.18,-5.5997
21516,-24.783,-3.5417
21527,-25.328,0.21997
21539,-26.307,-0.99881
21551,-25.072,-0.46119
21563,-23.525,-1.7979
21574,-24.262,-5.1603
21586,-26.458,-3.9801
21598,-28.047,-2.4203
21609,-28.763,-2.6761
21621,-28.843,-3.4494
21633,-31.713,-3.749
21645,-27.33,-3.9879
21656,-25.615,-4.4876
21668,-27.225,-3.9571
21680,-26.016,-5.9103
21691,-26.87,-5.2477
21703,-27.465,-2.1586
21715,-28.166,-3.563
21727,-27.854,-2.5393
21738,-25.351,-3.8593
21750,-25.726,-4.4981
21762,-25.288,-1.9361
21773,-26.958,-0.96737
21785,-28.117,-4.765
21797,-31.491,-4.7662
21809,-28.437,-4.9107
21820,-26.344,-4.7166
21832,-23.394,-4.2816
21844,-25.496,-4.8484
21855,-26.123,-2.3804
21867,-25.648,-2.7692
21879,-26.364,-3.6544
21891,-26.248,-0.49329
21902,-25.683,-2.4978
21914,-26.46,-3.5918
21926,-24.706,-2.5181
21938,-23.704,-3.2413
21949,-23.944,-4.7516
21961,-25.757,-0.78781
21973,-29.635,-0.37759
21984,-28.771,-2.3917
21996,-28.266,-2.9018
22008,-27.378,-5.4305
22020,-27.908,-6.0423
22031,-28.887,-6.8224
22043,-28.077,-6.1247
22055,-29.958,-3.306
22066,-28.915,-3.7045
22078,-24.534,-4.1096
22090,-23.577,-4.6217
22102,-25.63,-6.0883
22113,-27.173,-8.3465
22125,-27.095,-6.8126
22137,-26.817,-3.9074
22148,-25.02,-3.2939
22160,-26.419,-6.5951
22172,-25.168,-6.4053
22184,-24.778,-3.3212
22195,-25.281,-2.7312
22207,-29.716,0.40353
22219,-27.968,-0.75728
22230,-28.513,-7.0512
22242,-26.672,-4.635
22254,-26.795,-4.3206
22266,-24.261,-3.082
22277,-26.456,-3.0582
22289,-28.7,-3.7647
22301,-27.909,-4.0781
22313,-26.027,-3.3378
22324,-26.315,-2.6186
22336,-24.434,-3.4798
22348,-26.623,-6.3285
22359,-30.319,-5.7384
22371,-29.145,-4.0499
22383,-24.195,-4.2634
22395,-23.734,-3.7249
22406,-24.349,-3.4108
22418,-27.901,-4.239
22430,-28.125,-4.6433
22441,-26.717,-3.7784
22453,-24.225,-2.4276
22465,-23.59,-1.3534
22477,-24.097,-1.5968
22488,-24.865,-2.697
22500,-26.35,-2.1616
22512,-29.144,-1.5872
22523,-27.476,-4.1404
22535,-28.977,-4.8964
22547,-27.099,-4.092
22559,-28.209,-4.2248
22570,-27.187,-5.0268
22582,-25.528,-5.6012
22594,-26.342,-5.6135
22605,-27.388,-5.6108
22617,-28.789,-7.0834
22629,-30.783,-4.8891
22641,-27.931,-3.4778
22652,-27.265,-3.0368
22664,-25.956,-1.5372
22676,-25.306,-2.0949
22688,-25.7,-3.7039
22699,-25.891,-4.9375
22711,-27.392,-5.4993
22723,-26.728,-4.7864
22734,-27.116,-7.2053
22746,-28.183,-6.3993
22758,-26.789,-6.0208
22770,-29.944,-4.3393
22781,-29.101,-5.0743
22793,-28.179,-4.7423
22805,-26.44,-5.8318
22816,-27.75,-8.6968
22828,-28.516,-5.7339
22840,-26.101,-5.3095
22852,-27.141,-4.3967
22863,-26.923,-4.503
22875,-28.562,-6.0455
22887,-30.709,-4.2821
22898,-28.096,-2.4432
22910,-28.72,-4.2535
22922,-28.821,-5.8683
22934,-27.661,-3.7614
22945,-28.81,-1.2765
22957,-28.594,-1.6788
22969,-27.734,-2.7779
22980,-25.81,-3.6635
22992,-28.608,-5.3633
23004,-28.342,-5.5052
23016,-25.267,-6.4862
23027,-25.146,-4.4495
23039,-26.28,-5.4096
23051,-28.722,-6.8387
23063,-28.26,-9.7048
23074,-27.829,-5.6929
23086,-26.285,-3.3409
23098,-26.697,-5.6302
23109,-27.76,-4.9009
23121,-28.343,-7.5623
23133,-28.182,-5.7269
23145,-28.275,-6.1991
23156,-28.35,-5.4587
23168,-28.397,-4.5085
23180,-29.398,-7.2669
23191,-31.569,-5.5665
23203,-25.593,-2.5213
23215,-24.261,-2.9059
23227,-27.255,-4.2068
23238,-31.822,-7.5651
23250,-28.756,-4.8761
23262,-26.974,-4.3915
23273,-26.879,-4.804
23285,-26.516,-5.5057
23297,-27.568,-5.1142
23309,-29.921,-6.8711
23320,-27.249,-4.7221
23332,-27.075,-5.2402
23344,-26.974,-8.8885
23355,-26.562,-5.4294
23367,-27.204,-3.506
23379,-29.572,-2.8341
23391,-30.066,-4.6947
23402,-27.127,-7.4464
23414,-29.249,-5.5552
23426,-26.484,-4.5141
23438,-25.573,-4.2942
23449,-27.497,-3.6406
23461,-26.985,-1.7229
23473,-30.616,-2.6334
23484,-30.067,-6.1174
23496,-26.879,-6.7246
23508,-26.437,-6.0186
23520,-28.034,-6.1986
23531,-26.029,-8.9348
23543,-27.228,-12.759
23555,-29.986,-7.7625
23566,-25.611,-5.761
23578,-25.735,-5.035
23590,-29.733,-2.9511
23602,-30.867,-1.948
23613,-27.759,-4.9152
23625,-26.851,-5.154
23637,-27.882,-2.6404
23648,-30.346,-3.5423
23660,-25.672,-6.2954
23672,-27.069,-3.8425
23684,-28.276,-5.7544
23695,-27.636,-5.5705
23707,-29.288,-7.6087
23719,-28.109,-6.4353
23730,-27.423,-4.9449
23742,-28.861,-6.8587
23754,-27.647,-7.6598
23766,-25.308,-6.7916
23777,-26.748,-6.5253
23789,-30.209,-7.6308
23801,-31.431,-6.223
23813,-26.965,-6.8207
23824,-27.994,-6.8834
23836,-30.999,-3.9295
23848,-29.784,-3.5588
23859,-28.722,-4.1733
23871,-29.031,-4.9374
23883,-30.742,-5.0117
23895,-31.502,-5.4745
23906,-27.575,-6.8594
23918,-26.731,-3.3884
23930,-30.02,-3.7328
23941,-27.243,-5.9599
23953,-27.765,-7.4315
23965,-27.05,-4.177
23977,-26.748,-7.3014
23988,-27.495,-5.6155
