FFT,Power Spectrum
Frequency[Hz],Level-L[dB],Level-R[dB]
11.719,-22.972,-23.056
23.438,-2.5319,-4.4439
35.156,-1.7725,3.4221
46.875,5.3944,9.725
58.594,6.7742,12.811
70.313,3.8889,12.856
82.031,5.6902,15.967
93.75,9.1045,16.018
105.47,10.033,16.654
117.19,9.166,19.557
128.91,12.753,23.567
140.63,14.103,23.505
152.34,8.6707,19.836
164.06,0.84512,21.256
175.78,3.5781,19.971
187.5,5.421,21.87
199.22,6.6346,23.266
210.94,4.9232,23.277
222.66,9.0896,21.558
234.38,13.683,19.794
246.09,10.891,22.586
257.81,10.679,23.11
269.53,9.0862,25.479
281.25,9.5103,26.641
292.97,10.952,24.271
304.69,6.7893,22.656
316.41,8.7253,24.231
328.13,8.5467,24.868
339.84,7.3339,23.773
351.56,5.9435,24.739
363.28,6.0388,24.261
375,5.7162,23.017
386.72,5.3429,24.005
398.44,7.8208,24.279
410.16,5.1894,24.112
421.88,2.0724,23.453
433.59,5.6902,20.13
445.31,18.972,22.504
457.03,28.996,24.117
468.75,26.45,26.207
480.47,11.705,26.285
492.19,4.2601,26.863
503.91,4.6553,29.563
515.63,5.5722,24.322
527.34,6.4617,23.468
539.06,8.4703,20.45
550.78,6.4102,22.318
562.5,5.8995,23.263
574.22,6.4067,22.178
585.94,5.0159,20.756
597.66,3.1888,21.432
609.38,3.1305,21.357
621.09,4.9837,23.345
632.81,7.7679,26.969
644.53,7.8633,25.582
656.25,7.8707,23.411
667.97,7.9286,26.889
679.69,7.2814,27.458
691.41,9.1896,24.175
703.13,7.9614,24.514
714.84,3.883,23.586
726.56,7.5531,23.008
738.28,6.2849,24.254
750,4.0599,25.735
761.72,5.5617,22.57
773.44,7.0924,27.195
785.16,8.0841,23.889
796.88,10.645,23.104
808.59,11.118,23.715
820.31,7.465,24.48
832.03,6.0875,24.995
843.75,7.6879,25.795
855.47,8.6973,23.451
867.19,5.7534,22.334
878.91,4.7392,23.619
890.63,4.5846,24.268
902.34,4.8437,22.036
914.06,4.6795,22.05
925.78,5.9744,23.258
937.5,5.6222,23.846
949.22,5.4495,22.172
960.94,5.4493,22.571
972.66,5.3729,23.775
984.38,7.711,24.277
996.09,8.896,24.386
1007.8,8.7054,26.926
1019.5,6.5313,27.565
1031.3,6.1366,25.997
1043,5.6832,23.444
1054.7,3.6901,23.011
1066.4,6.4653,21.408
1078.1,8.3524,18.883
1089.8,8.4687,22.255
1101.6,8.4367,23.653
1113.3,9.9832,25.07
1125,10.592,24.956
1136.7,7.6489,23.435
1148.4,7.5252,25.517
1160.2,8.5004,21.465
1171.9,7.7437,21.123
1183.6,7.6609,22.319
1195.3,10.711,22.814
1207,6.7408,23.977
1218.8,9.8194,24.266
1230.5,9.487,20.938
1242.2,7.0453,19.385
1253.9,5.3587,21.329
1265.6,4.4658,22.357
1277.3,7.3904,23.185
1289.1,5.7564,24.828
1300.8,4.2628,21.692
1312.5,5.6701,23.974
1324.2,5.7366,23.23
1335.9,7.7159,22.174
1347.7,7.9873,23.109
1359.4,6.7642,21.99
1371.1,6.6916,24.643
1382.8,6.039,25.502
1394.5,6.624,24.363
1406.3,6.8672,22.715
1418,6.7593,20.443
1429.7,7.8713,21.453
1441.4,7.3395,22.15
1453.1,4.3211,23.246
1464.8,4.55,24.078
1476.6,4.6591,22.833
1488.3,3.6391,21.373
1500,5.1649,21.223
1511.7,5.7458,21.111
1523.4,2.6848,22.197
1535.2,2.3615,22.73
1546.9,2.5187,24.824
1558.6,1.9625,24.586
1570.3,1.5744,23.44
1582,4.6428,22.409
1593.8,9.6819,20.678
1605.5,8.6734,19.263
1617.2,6.5809,21.544
1628.9,3.6763,20.959
1640.6,3.4217,21.548
1652.3,4.0238,19.059
1664.1,3.8445,19.052
1675.8,3.7682,20.661
1687.5,3.3734,19.503
1699.2,2.4762,19.443
1710.9,2.4663,21.116
1722.7,1.088,18.982
1734.4,2.6487,20.142
1746.1,0.12673,21.387
1757.8,1.2519,20.866
1769.5,4.4472,19.458
1781.3,7.3523,21.507
1793,8.8447,21.266
1804.7,9.7099,21.081
1816.4,7.3643,21.027
1828.1,6.0265,20.817
1839.8,6.3523,22.176
1851.6,5.4945,19.725
1863.3,6.3467,23.188
1875,1.8471,22.278
1886.7,-1.628,18.759
1898.4,1.0698,21.45
1910.2,2.9387,24.282
1921.9,2.0251,23.514
1933.6,3.7103,22.475
1945.3,4.9161,21.817
1957,5.9954,17.889
1968.8,4.4887,19.179
1980.5,2.4175,22.093
1992.2,1.6333,22.342
2003.9,1.1445,22.674
2015.6,1.966,21.571
2027.3,5.1565,23.518
2039.1,6.6912,23.341
2050.8,6.1793,21.804
2062.5,4.4665,21.643
2074.2,2.4464,21.671
2085.9,2.6501,21.143
2097.7,1.0884,21.778
2109.4,3.009,22.652
2121.1,3.4168,21.98
2132.8,2.2151,23.698
2144.5,3.3587,22.212
2156.3,1.4774,22.798
2168,2.9467,23.7
2179.7,2.8172,21.234
2191.4,1.9777,16.937
2203.1,-0.79257,16.539
2214.8,1.2609,19.215
2226.6,5.7762,19.415
2238.3,6.8629,19.97
2250,6.0485,24.008
2261.7,2.8837,24.309
2273.4,3.3832,21.856
2285.2,1.084,17.929
2296.9,5.2498,19.53
2308.6,2.9342,18.681
2320.3,-0.31273,19.18
2332,0.4696,20.257
2343.8,2.791,20.951
2355.5,4.4318,21.291
2367.2,0.13016,21.008
2378.9,2.6101,21.041
2390.6,1.0469,20.028
2402.3,2.0773,21.573
2414.1,4.0619,22.63
2425.8,2.9206,19.795
2437.5,2.6388,21.723
2449.2,2.9122,21.51
2460.9,2.6931,19.014
2472.7,1.3407,17.353
2484.4,1.9413,16.373
2496.1,4.367,17.386
2507.8,3.3341,17.269
2519.5,2.8908,18.408
2531.3,2.2967,18.517
2543,1.1026,17.886
2554.7,4.3211,20.503
2566.4,2.1584,21.457
2578.1,1.3785,19.944
2589.8,1.112,19.034
2601.6,1.0822,21.765
2613.3,1.3132,20.006
2625,3.0564,18.365
2636.7,0.0041567,19.488
2648.4,0.95178,20.546
2660.2,1.3117,21.322
2671.9,1.145,23.827
2683.6,2.4669,20.555
2695.3,0.2654,18.916
2707,0.2799,20.923
2718.8,2.7128,24.326
2730.5,1.8341,21.781
2742.2,0.33872,19.407
2753.9,-1.7198,17.893
2765.6,-0.036618,20.666
2777.3,2.5674,20.624
2789.1,-0.61321,19.994
2800.8,-6.585,19.281
2812.5,-1.2959,16.433
2824.2,0.57201,20.484
2835.9,-0.77823,19.841
2847.7,-1.047,18.346
2859.4,2.2781,19.464
2871.1,2.6137,18.029
2882.8,2.5311,17.918
2894.5,1.0506,19.84
2906.3,-1.1018,18.694
2918,0.4388,20.902
2929.7,-1.5828,22.112
2941.4,-2.3326,20.072
2953.1,-1.1125,17.64
2964.8,-0.86289,21.01
2976.6,-0.33716,21.686
2988.3,-2.0348,20.4
3000,-6.4899,20.221
3011.7,-3.0219,20.436
3023.4,-0.67888,18.867
3035.2,-2.7722,17.002
3046.9,-1.9741,15.564
3058.6,-0.43374,15.05
3070.3,0.34932,17.831
3082,-3.1837,18.988
3093.8,-3.838,16.986
3105.5,-1.2161,19.032
3117.2,1.7176,19.674
3128.9,-0.86803,16.893
3140.6,-1.9257,19.773
3152.3,-0.89284,22.588
3164.1,-3.3355,21.576
3175.8,0.9568,19.282
3187.5,2.618,17.577
3199.2,0.62652,19.163
3210.9,0.25746,20.141
3222.7,-1.0103,17.707
3234.4,-1.7106,15.012
3246.1,-0.97793,18.402
3257.8,-1.1134,20.522
3269.5,-0.84962,19.254
3281.3,-3.9965,18.408
3293,-2.4373,18.845
3304.7,1.0563,16.47
3316.4,-1.4716,17.668
3328.1,-4.0566,22.204
3339.8,-2.2176,21.597
3351.6,-1.3517,18.429
3363.3,-0.30652,19.437
3375,-2.3364,18.924
3386.7,1.0071,18.826
3398.4,0.47056,20.3
3410.2,-1.6614,19.34
3421.9,0.10302,19.064
3433.6,1.109,18.599
3445.3,-5.6224,18.553
3457,-3.9427,18.637
3468.8,-1.7824,18.574
3480.5,-1.1658,19.043
3492.2,0.78713,19.389
3503.9,1.3492,19.713
3515.6,0.65788,18.037
3527.3,1.6949,14.935
3539.1,-0.8037,15.85
3550.8,-1.5424,19.848
3562.5,-1.1004,21.171
3574.2,-3.5776,16.021
3585.9,-3.6673,17.738
3597.7,-1.7576,18.188
3609.4,-1.5796,17.128
3621.1,-1.2117,18.253
3632.8,-1.191,18.161
3644.5,-1.8749,18.026
3656.3,-1.6902,19.766
3668,-1.838,20.329
3679.7,-0.063652,17.38
3691.4,-0.054141,16.897
3703.1,-2.1589,18.496
3714.8,-4.404,18.431
3726.6,-2.727,16.677
3738.3,-5.9033,16.579
3750,-7.6194,18.279
3761.7,-1.009,16.714
3773.4,-1.265,13.515
3785.2,-2.3399,18.951
3796.9,-0.51305,20.804
3808.6,-3.1366,21.483
3820.3,-1.2922,19.742
3832,0.85861,18.423
3843.8,0.36168,18.809
3855.5,-0.59159,17.906
3867.2,0.80416,18.26
3878.9,-0.13247,17.241
3890.6,-1.7718,15.596
3902.3,-0.71649,15.707
3914.1,-0.47298,19.285
3925.8,-3.1703,18.377
3937.5,-1.6785,18.547
3949.2,-1.39,18.98
3960.9,-2.1582,19.977
3972.7,-1.978,18.339
3984.4,-2.9323,16.178
3996.1,-3.5764,18.463
4007.8,-3.272,18.677
4019.5,-3.1572,19.285
4031.3,-0.57068,17.886
4043,-1.1967,18.072
4054.7,-2.9555,17.775
4066.4,-4.6863,17.215
4078.1,-1.6741,15.18
4089.8,-3.2457,16.697
4101.6,-3.1628,18.403
4113.3,-0.35,17.249
4125,-0.20074,18.685
4136.7,1.3472,19.449
4148.4,0.34221,18.764
4160.2,-3.1824,19.95
4171.9,-1.7513,16.555
4183.6,-0.50449,15.789
4195.3,-4.1278,17.151
4207,-2.94,17.829
4218.8,-2.2459,17.944
4230.5,-1.8911,18.593
4242.2,-2.2338,17.22
4253.9,-1.9765,20.977
4265.6,-0.79403,21.659
4277.3,-2.3935,17.062
4289.1,-1.0918,17.315
4300.8,-3.6083,19.486
4312.5,-5.9472,18.721
4324.2,-4.7059,16.816
4335.9,-4.7968,13.766
4347.7,-3.0794,16.964
4359.4,-2.8849,16.568
4371.1,-4.9208,18.203
4382.8,-6.3205,16.13
4394.5,-3.8557,16.902
4406.3,-4.5078,17.39
4418,-4.5332,16.019
4429.7,-2.4656,18.543
4441.4,-1.1207,19.774
4453.1,0.36637,18.586
4464.8,1.0181,13.236
4476.6,-1.6746,13.618
4488.3,-3.4143,15.822
4500,-2.3413,15.061
4511.7,-4.3452,14.053
4523.4,-3.4941,11.698
4535.2,-0.5523,14.437
4546.9,-2.5651,15.657
4558.6,-7.4346,14.381
4570.3,-5.0713,20.173
4582,-2.7905,19.745
4593.8,-2.2662,15.343
4605.5,-2.0343,15.766
4617.2,-4.2077,14.315
4628.9,-4.5618,16.333
4640.6,-6.3745,16.075
4652.3,-2.6204,15.442
4664.1,-3.4121,12.906
4675.8,-3.3561,13.786
4687.5,-2.0743,15.331
4699.2,-2.7583,16.252
4710.9,-0.88095,16.363
4722.7,-2.312,15.068
4734.4,-0.80108,16.361
4746.1,-2.0513,17.199
4757.8,-4.9177,18.013
4769.5,-4.2064,17.12
4781.3,-0.56013,15.299
4793,-2.1097,14.02
4804.7,-4.4461,16.199
4816.4,-0.78069,19.074
4828.1,0.075329,19.563
4839.8,-1.4629,18.726
4851.6,-2.4223,17.716
4863.3,-3.7549,19.436
4875,-1.5795,17.916
4886.7,-2.3607,13.456
4898.4,-2.5557,14.79
4910.2,-3.2546,16.183
4921.9,-2.1127,15.85
4933.6,-2.7764,16.122
4945.3,-5.8711,16.228
4957,-4.0944,16.509
4968.8,-4.5416,16.335
4980.5,-5.3786,17.242
4992.2,-5.5248,15.61
5003.9,-5.7598,17.37
5015.6,-7.8498,14.884
5027.3,-6.9788,14.665
5039.1,-5.3442,19.391
5050.8,-4.1716,18.75
5062.5,-5.1071,16.62
5074.2,-5.3876,17.142
5085.9,-4.0094,17.559
5097.7,-4.1277,15.971
5109.4,-4.009,16.59
5121.1,-2.1117,16.181
5132.8,-1.4789,18.259
5144.5,-2.6555,17.237
5156.3,-3.3038,15.772
5168,-2.2778,15.673
5179.7,-4.9892,18.255
5191.4,-7.1363,17.58
5203.1,-6.3903,17.418
5214.8,-2.8859,14.803
5226.6,-1.6004,15.738
5238.3,-3.8026,14.639
5250,-2.8879,13.336
5261.7,-2.623,16.112
5273.4,-3.5018,15.703
5285.2,-5.6352,13.329
5296.9,-5.2194,12.601
5308.6,-4.3316,16.387
5320.3,-3.9724,16.409
5332,-4.0597,16.91
5343.8,-3.1083,17.582
5355.5,-4.5295,18.57
5367.2,-4.8451,16.885
5378.9,-3.1271,11.417
5390.6,-2.67,17.188
5402.3,-1.585,14.37
5414.1,-3.6731,11.589
5425.8,-4.3728,14.894
5437.5,-5.7875,16.12
5449.2,-7.2974,18.22
5460.9,-6.1406,16.962
5472.7,-6.5012,15.767
5484.4,-4.9598,16.335
5496.1,-3.2366,18.057
5507.8,-2.4233,16.508
5519.5,-1.0319,15.746
5531.3,-1.6066,14.111
5543,-2.0458,16.215
5554.7,-3.6845,17.416
5566.4,-5.7265,15.195
5578.1,-6.1771,15.422
5589.8,-5.4373,15.51
5601.6,-5.1321,15.488
5613.3,-1.4406,15.468
5625,-3.2045,14.657
5636.7,-7.7366,17.806
5648.4,-5.0267,15.86
5660.2,-3.2174,13.537
5671.9,-5.2672,17.402
5683.6,-6.6051,17.353
5695.3,-6.9535,14.526
5707,-8.3402,15.336
5718.8,-4.1264,16.023
5730.5,-5.5258,14.395
5742.2,-6.6673,16.404
5753.9,-5.145,17.157
5765.6,-6.0177,13.295
5777.3,-4.381,15.86
5789.1,-3.7766,18.746
5800.8,-4.3493,15.638
5812.5,-2.8262,16.492
5824.2,-2.6503,13.45
5835.9,-3.022,14.946
5847.7,-4.1365,15.056
5859.4,-3.045,14.23
5871.1,-2.0537,13.575
5882.8,-4.3599,11.616
5894.5,-3.9971,12.221
5906.3,-3.1523,15.935
5918,-2.7667,15.888
5929.7,-2.3567,13.106
5941.4,-4.1111,15.045
5953.1,-6.5713,14.998
5964.8,-4.6034,13.492
5976.6,0.56039,12.461
5988.3,-2.7617,12.313
6000,-3.7993,12.96
6011.7,-4.5558,13.874
6023.4,-5.7574,15.396
6035.2,-4.3079,14.199
6046.9,-4.0738,12.193
6058.6,-5.7318,15.519
6070.3,-5.8828,15.078
6082,-4.0239,14.591
6093.8,-4.2027,13.83
6105.5,-4.4718,13.061
6117.2,-4.5615,12.739
6128.9,-4.7586,12.68
6140.6,-3.3294,12.259
6152.3,-3.9328,16.146
6164.1,-4.8494,14.234
6175.8,-6.5067,12.762
6187.5,-4.0963,14.276
6199.2,-1.514,17.224
6210.9,-2.7431,14.741
6222.7,-5.9597,9.1084
6234.4,-5.8784,13.165
6246.1,-5.5212,14.697
6257.8,-2.1841,15.044
6269.5,-1.275,16.568
6281.3,-2.2773,14.728
6293,-3.6168,16.154
6304.7,-8.9094,15.289
6316.4,-9.3245,14.121
6328.1,-9.6312,17.809
6339.8,-7.4084,15.414
6351.6,-5.9125,13.599
6363.3,-5.6274,11.84
6375,-5.7748,12.949
6386.7,-7.8351,14.487
6398.4,-9.1705,14.223
6410.2,-9.1833,13.074
6421.9,-8.5229,13.685
6433.6,-8.1192,14.61
6445.3,-9.3042,14.94
6457,-5.6291,15.907
6468.8,-6.2884,14.827
6480.5,-8.0784,13.666
6492.2,-7.7909,13.988
6503.9,-7.2074,12.685
6515.6,-8.1968,14.347
6527.3,-6.0843,14.234
6539.1,-7.0852,15.341
6550.8,-8.1246,15.294
6562.5,-6.3102,14.743
6574.2,-7.0511,13.338
6585.9,-5.4661,13.119
6597.7,-3.7025,12.943
6609.4,-2.9411,15.946
6621.1,-8.3503,15.483
6632.8,-5.345,13.22
6644.5,-6.3927,11.76
6656.3,-9.9677,13.072
6668,-7.2105,12.74
6679.7,-7.4607,11.806
6691.4,-7.535,13.585
6703.1,-5.9818,11.764
6714.8,-5.2563,13.174
6726.6,-5.6612,16.697
6738.3,-5.4542,12.83
6750,-7.0761,13.168
6761.7,-7.4396,11.292
6773.4,-7.3911,11.17
6785.2,-7.34,15.556
6796.9,-5.5384,14.605
6808.6,-9.6277,14.122
6820.3,-8.1132,13.715
6832,-10.597,13.419
6843.8,-8.8991,13.673
6855.5,-4.2479,12.811
6867.2,-6.7794,10.981
6878.9,-9.3305,11.201
6890.6,-9.6777,14.278
6902.3,-6.1342,12.677
6914.1,-6.5107,11.687
6925.8,-8.7514,11.153
6937.5,-7.1752,11.186
6949.2,-4.4782,11.463
6960.9,-3.1539,11.975
6972.7,-6.8348,15.103
6984.4,-5.5011,15.186
6996.1,-4.6736,14.39
7007.8,-5.8729,15.29
7019.5,-4.6088,15.573
7031.3,-5.7375,14.645
7043,-7.3412,14.674
7054.7,-8.6279,14.244
7066.4,-6.0188,16.96
7078.1,-6.2825,14.715
7089.8,-7.6407,14.674
7101.6,-6.4716,13.684
7113.3,-4.8263,14.429
7125,-6.5499,13.476
7136.7,-8.2742,11.984
7148.4,-3.0884,10.345
7160.2,-3.9033,10.154
7171.9,-9.9357,11.298
7183.6,-7.585,15.32
7195.3,-9.837,13.561
7207,-8.8875,12.288
7218.8,-5.2198,12.252
7230.5,-5.2836,14.449
7242.2,-6.9647,13.992
7253.9,-8.6349,11.671
7265.6,-11.512,13.084
7277.3,-8.907,13.53
7289.1,-8.8655,11.563
7300.8,-7.2648,15.898
7312.5,-8.2713,15.417
7324.2,-8.7838,12.634
7335.9,-7.8497,12.359
7347.7,-9.8223,13.743
7359.4,-7.2034,12.378
7371.1,-5.5607,12.796
7382.8,-7.9728,13.639
7394.5,-8.136,11.461
7406.3,-10.301,13.198
7418,-6.5226,14.484
7429.7,-6.3733,10.926
7441.4,-8.3041,12.121
7453.1,-8.5092,13.709
7464.8,-9.2106,14.938
7476.6,-9.5852,13.391
7488.3,-7.6056,12.332
7500,-8.4356,14.526
7511.7,-7.854,14.21
7523.4,-7.0087,13.467
7535.2,-5.4405,14.182
7546.9,-7.6716,13.561
7558.6,-7.8764,12.287
7570.3,-8.8307,12.731
7582,-7.435,13.388
7593.8,-9.1929,14.79
7605.5,-6.0907,13.096
7617.2,-3.7291,13.437
7628.9,-4.9606,9.5818
7640.6,-6.7225,10.601
7652.3,-8.8163,13.283
7664.1,-8.0853,11.823
7675.8,-10.162,9.8025
7687.5,-8.8292,12.102
7699.2,-11.058,10.773
7710.9,-7.0565,12.226
7722.7,-8.9339,10.799
7734.4,-10.226,11.181
7746.1,-8.7519,12.319
7757.8,-5.7673,8.3494
7769.5,-6.0038,10.941
7781.3,-8.3298,12.056
7793,-6.7398,12.175
7804.7,-7.42,11.503
7816.4,-10.861,9.6863
7828.1,-8.474,13.169
7839.8,-10.374,12.845
7851.6,-10.257,12.284
7863.3,-8.6312,13.012
7875,-7.648,11.66
7886.7,-7.488,12.333
7898.4,-5.8115,13.002
7910.2,-7.6287,12.743
7921.9,-10.109,13.633
7933.6,-8.7223,10.55
7945.3,-6.3249,12.276
7957,-6.9746,15.329
7968.8,-7.1148,13.625
7980.5,-4.1377,10.963
7992.2,-8.6405,14.029
8003.9,-7.5872,12.789
8015.6,-8.7413,11.1
8027.3,-9.6445,13.244
8039.1,-6.6887,12.424
8050.8,-5.0824,12.409
8062.5,-7.713,12.156
8074.2,-8.4976,12.44
8085.9,-10.182,12.492
8097.7,-6.5813,12.009
8109.4,-6.1974,12.927
8121.1,-10.22,11.598
8132.8,-10.452,14.388
8144.5,-9.6731,13.599
8156.3,-10.129,11.272
8168,-8.2098,8.4711
8179.7,-10.127,7.4514
8191.4,-9.2704,10.847
8203.1,-7.9067,10.17
8214.8,-4.8703,9.7698
8226.6,-5.363,11.272
8238.3,-8.8457,12.007
8250,-9.4832,11.05
8261.7,-7.0334,12.065
8273.4,-7.8715,10.767
8285.2,-10.035,10.897
8296.9,-7.218,11.205
8308.6,-7.593,10.244
8320.3,-11.125,11.035
8332,-13.597,13.485
8343.8,-10.674,12.996
8355.5,-9.8388,11.855
8367.2,-10.923,13.855
8378.9,-12.07,12.561
8390.6,-12.478,11.503
8402.3,-8.7647,9.9061
8414.1,-7.16,9.6876
8425.8,-8.6685,10.75
8437.5,-7.0146,10.248
8449.2,-4.7383,8.841
8460.9,-4.7244,6.6994
8472.7,-6.2227,8.1269
8484.4,-7.5071,13.422
8496.1,-5.78,14.429
8507.8,-6.5128,10.197
8519.5,-9.7224,11.46
8531.3,-10.845,11.991
8543,-10.232,10.45
8554.7,-11.462,11.167
8566.4,-13.978,11.691
8578.1,-12.635,13.44
8589.8,-11.855,12.132
8601.6,-10.036,10.378
8613.3,-9.1871,8.9552
8625,-10.896,9.6512
8636.7,-11.363,8.9398
8648.4,-9.3665,9.1547
8660.2,-9.2809,10.398
8671.9,-8.9065,12.809
8683.6,-6.9611,11.635
8695.3,-8.5769,12.632
8707,-11.939,12.777
8718.8,-9.8213,12.169
8730.5,-9.6256,9.9852
8742.2,-9.169,8.4612
8753.9,-6.746,8.8699
8765.6,-7.0094,12.607
8777.3,-10.948,12.683
8789.1,-9.2423,12.555
8800.8,-7.8076,12.801
8812.5,-8.8698,12.815
8824.2,-9.7801,13.934
8835.9,-14.203,11.802
8847.7,-8.9772,7.6456
8859.4,-8.1711,9.5983
8871.1,-10.369,11.174
8882.8,-12.043,14.053
8894.5,-12.645,14.451
8906.3,-11.163,9.0168
8918,-11.146,9.3174
8929.7,-8.8586,11.523
8941.4,-13.077,14.063
8953.1,-10.503,13.193
8964.8,-9.5995,13.609
8976.6,-15.941,11.554
8988.3,-9.8816,13.516
9000,-10.733,12.194
9011.7,-10.895,10.436
9023.4,-11.309,10.981
9035.2,-10.286,10.898
9046.9,-12.924,8.1713
9058.6,-10.397,9.0629
9070.3,-9.1577,8.1141
9082,-9.6453,10.728
9093.8,-10.1,9.7503
9105.5,-8.8406,6.3115
9117.2,-8.3731,7.7977
9128.9,-6.9225,10.851
9140.6,-11.031,11.649
9152.3,-13.239,12.038
9164.1,-8.531,10.402
9175.8,-9.5574,12.17
9187.5,-11.122,11.896
9199.2,-12.051,9.1111
9210.9,-8.325,11.678
9222.7,-5.8751,12.579
9234.4,-9.7619,10.408
9246.1,-15.421,10.627
9257.8,-12.253,11.652
9269.5,-12.224,9.1421
9281.3,-13.03,11.054
9293,-10.781,12.743
9304.7,-8.7551,12.802
9316.4,-10.312,11.412
9328.1,-9.3693,13.774
9339.8,-8.3773,14.335
9351.6,-9.2785,13.021
9363.3,-10.408,9.5975
9375,-12.836,7.1943
9386.7,-10.304,8.5963
9398.4,-10.333,10.7
9410.2,-12.038,10.123
9421.9,-11.698,11.714
9433.6,-11.128,11.803
9445.3,-10.663,9.6879
9457,-11.917,11.421
9468.8,-11.773,6.4711
9480.5,-8.7645,13.987
9492.2,-6.0837,13.883
9503.9,-6.9782,9.5874
9515.6,-11.083,10.782
9527.3,-9.1588,10.323
9539.1,-9.5812,7.2382
9550.8,-8.4338,7.8878
9562.5,-9.8001,6.403
9574.2,-11.902,9.0949
9585.9,-10.42,10.255
9597.7,-8.4705,8.7737
9609.4,-9.7975,8.9825
9621.1,-10.902,9.9927
9632.8,-9.8602,10.984
9644.5,-9.6088,8.1714
9656.3,-8.9116,9.5638
9668,-9.4059,10.162
9679.7,-11.258,8.9936
9691.4,-14.093,9.4769
9703.1,-13.035,9.8944
9714.8,-13.446,10.817
9726.6,-12.859,9.9537
9738.3,-7.9325,10.547
9750,-6.7744,9.6145
9761.7,-9.4351,8.0442
9773.4,-12.561,10.627
9785.2,-10.805,11.422
9796.9,-10.697,10.149
9808.6,-11.36,13.139
9820.3,-11.13,13.448
9832,-10.635,8.5908
9843.8,-11.021,7.2565
9855.5,-12.298,7.0025
9867.2,-9.8943,11.188
9878.9,-10.83,11.968
9890.6,-12.992,8.526
9902.3,-12.154,8.7495
9914.1,-10.599,8.668
9925.8,-10.97,6.3716
9937.5,-11.888,6.1724
9949.2,-13.13,6.6414
9960.9,-10.606,7.6512
9972.7,-10.088,8.634
9984.4,-11.41,7.7753
9996.1,-10.868,10.105
10008,-10.349,10.162
10020,-9.1118,10.498
10031,-10.921,12.114
10043,-11.878,11.334
10055,-9.4124,6.1633
10066,-10.817,6.5145
10078,-12.777,9.5995
10090,-11.937,7.6929
10102,-11.967,5.6616
10113,-12.186,8.8111
10125,-9.4814,9.6678
10137,-11.256,6.5433
10148,-14.027,7.7525
10160,-12.603,9.9202
10172,-13.424,8.3704
10184,-11.033,12.062
10195,-10.005,12.471
10207,-9.8849,7.7619
10219,-11.904,8.7093
10230,-13.814,9.391
10242,-12.609,10.856
10254,-11.515,7.9308
10266,-12.883,10.94
10277,-13.632,9.0006
10289,-11.686,7.1505
10301,-10.965,10.814
10313,-12.416,10.876
10324,-14.551,8.917
10336,-13.368,7.6051
10348,-14.002,8.5429
10359,-12.5,9.4103
10371,-12.242,9.0459
10383,-12.729,8.7916
10395,-13.532,8.9917
10406,-8.814,6.7154
10418,-11.178,10.814
10430,-11.213,8.8203
10441,-11.701,3.5772
10453,-12.482,6.9129
10465,-12.528,8.8889
10477,-13.449,9.3473
10488,-12.954,9.0744
10500,-13.557,9.0032
10512,-14.339,5.7102
10523,-16.34,6.8033
10535,-11.964,8.4984
10547,-10.814,9.9582
10559,-11.934,8.6128
10570,-10.648,6.0484
10582,-8.8348,8.1572
10594,-12.108,9.8484
10605,-11.689,10.62
10617,-12.971,9.3223
10629,-13.035,9.8715
10641,-14.084,8.0093
10652,-13.642,9.1586
10664,-15.553,6.0953
10676,-12.683,7.6236
10688,-11.306,8.3222
10699,-11.783,11.439
10711,-12.402,10.273
10723,-11.882,10.675
10734,-10.747,10.358
10746,-10.793,8.8055
10758,-11.755,7.5551
10770,-12.96,7.5111
10781,-14.837,6.3828
10793,-12.45,10.834
10805,-11.617,11.631
10816,-10.584,6.7262
10828,-10.162,7.4248
10840,-11.622,9.4007
10852,-11.882,8.4589
10863,-14.335,9.0021
10875,-11.458,9.5136
10887,-12.242,6.149
10898,-10.967,8.9963
10910,-12.077,12.09
10922,-15.187,10.241
10934,-12.12,8.7983
10945,-10.145,9.037
10957,-12.753,8.8175
10969,-11.859,6.7234
10980,-12.002,6.4513
10992,-15.629,7.6492
11004,-11.398,9.2252
11016,-12.694,7.4811
11027,-12.829,6.3727
11039,-11.644,8.2912
11051,-13.299,8.6324
11063,-13.104,8.4251
11074,-11.118,10.235
11086,-13.756,9.7347
11098,-11.162,8.5
11109,-10.719,10.851
11121,-12.763,10.032
11133,-12.894,7.3658
11145,-13.614,7.274
11156,-14.59,4.305
11168,-12.481,4.4545
11180,-8.9934,8.7216
11191,-11.314,8.087
11203,-14.338,9.3895
11215,-14.008,5.2987
11227,-14.78,9.204
11238,-16.201,6.1888
11250,-10.431,7.3016
11262,-8.9019,7.7049
11273,-10.4,8.4912
11285,-13.588,7.0238
11297,-12.5,8.3642
11309,-12.819,9.1747
11320,-14.373,8.8905
11332,-15.276,9.5274
11344,-13.04,9.9242
11355,-12.331,9.0853
11367,-11.95,7.9814
11379,-11.143,8.3995
11391,-11.813,9.1612
11402,-11.05,8.4883
11414,-14.801,8.0917
11426,-12.17,6.9288
11438,-8.7923,6.0931
11449,-8.6246,6.4461
11461,-10.952,7.7031
11473,-14.34,7.8758
11484,-13.983,7.7431
11496,-13.608,8.1811
11508,-14.485,8.7642
11520,-11.45,10.354
11531,-10.635,8.4691
11543,-10.775,7.884
11555,-13.556,6.4636
11566,-12.474,8.5058
11578,-11.765,8.6896
11590,-13.357,7.809
11602,-12.717,6.7063
11613,-13.251,8.1802
11625,-14.212,10.047
11637,-13.185,6.6321
11648,-13.591,4.0934
11660,-15.292,5.3049
11672,-16.081,7.0315
11684,-15.117,9.0625
11695,-16.015,8.2098
11707,-12.111,5.6109
11719,-10.663,6.1858
11730,-10.716,6.9998
11742,-12.679,7.0347
11754,-15.133,6.189
11766,-15.51,8.4059
11777,-14.045,11.514
11789,-13.764,9.0046
11801,-18.532,5.7558
11813,-15.858,5.2771
11824,-14.725,5.9777
11836,-12.186,3.9243
11848,-12.768,4.1152
11859,-12.419,4.8366
11871,-9.6609,6.7952
11883,-9.4584,6.0312
11895,-12.007,7.147
11906,-13.909,10.598
11918,-12.565,11.077
11930,-11.109,10.411
11941,-11.481,8.602
11953,-17.08,6.2077
11965,-11.897,4.5571
11977,-10.403,3.308
11988,-13.164,4.0402
12000,-12.94,6.4588
12012,-13.363,7.5261
12023,-11.127,6.6794
12035,-10.854,6.7998
12047,-13.481,6.928
12059,-13.646,6.5832
12070,-11.398,5.8386
12082,-11.722,3.5177
12094,-13.173,2.8639
12105,-15.948,5.1282
12117,-11.485,8.9821
12129,-11.356,10.73
12141,-12.633,9.4143
12152,-12.916,6.7928
12164,-11.32,6.8049
12176,-10.22,6.3898
12188,-10.6,6.9776
12199,-12.049,7.3041
12211,-10.544,5.882
12223,-12.408,5.8157
12234,-12.947,6.4219
12246,-14.32,6.1784
12258,-12.233,6.0162
12270,-13.316,4.8599
12281,-13.391,5.0831
12293,-12.575,5.8936
12305,-12.489,5.2751
12316,-14.382,4.371
12328,-14.412,3.276
12340,-13.767,5.4595
12352,-13.457,8.9499
12363,-11.961,8.6146
12375,-14.692,6.1507
12387,-16.98,8.5119
12398,-13.358,7.8735
12410,-11.091,6.7852
12422,-13.312,7.1877
12434,-13.58,5.6728
12445,-12.504,7.9323
12457,-12.192,7.5116
12469,-13.635,6.2832
12480,-14.338,5.3373
12492,-14.379,5.2663
12504,-12.749,7.7621
12516,-9.5441,7.5683
12527,-11.88,7.601
12539,-15.862,7.4662
12551,-12.826,9.03
12563,-11.894,7.656
12574,-11.39,8.6124
12586,-14.598,7.3674
12598,-15.463,5.0887
12609,-15.18,5.9579
12621,-16.472,6.2257
12633,-14.44,5.4947
12645,-11.693,4.7824
12656,-10.841,5.687
12668,-11.125,5.4291
12680,-10.39,5.4611
12691,-9.7113,5.1555
12703,-12.671,7.4553
12715,-11.382,7.5985
12727,-11.205,7.3281
12738,-11.892,8.0478
12750,-13.399,8.2613
12762,-13.821,6.3498
12773,-13.12,8.7537
12785,-14.02,6.7185
12797,-10.506,3.151
12809,-13.765,4.56
12820,-19.036,6.3944
12832,-16.646,2.5408
12844,-12.182,6.8901
12855,-13.15,4.7661
12867,-18.768,8.6887
12879,-14.334,8.1661
12891,-12.541,4.1489
12902,-11.597,3.8635
12914,-11.668,1.2874
12926,-12.715,3.6888
12938,-13.203,6.5248
12949,-14.882,6.7728
12961,-13.737,5.7057
12973,-12.272,5.7742
12984,-10.753,4.0244
12996,-10.394,7.6297
13008,-14.086,6.75
13020,-14.066,5.2849
13031,-12.975,4.9369
13043,-12.568,6.5999
13055,-11.988,6.2283
13066,-14.876,5.9292
13078,-13.624,6.2464
13090,-14.484,3.0627
13102,-13.951,2.0459
13113,-13.255,4.8303
13125,-16.027,4.7726
13137,-16.541,5.6186
13148,-13.426,5.9768
13160,-13.026,4.652
13172,-14.089,4.4376
13184,-14.719,3.502
13195,-15.011,5.4597
13207,-13.063,6.104
13219,-14.751,6.4706
13230,-15.91,6.4212
13242,-13.27,2.5991
13254,-13.964,3.2456
13266,-14.67,3.8892
13277,-13.339,4.364
13289,-12.247,3.3867
13301,-11.729,4.136
13313,-13.279,7.3847
13324,-13.546,8.6499
13336,-13.329,7.5722
13348,-14.645,5.6073
13359,-14.472,3.8194
13371,-13.456,3.2149
13383,-13.02,5.2315
13395,-12.346,5.762
13406,-13.411,4.6223
13418,-15.582,5.56
13430,-12.538,6.1389
13441,-12.107,4.6361
13453,-13.814,3.3225
13465,-13.653,4.2931
13477,-13.682,2.837
13488,-12.872,5.7304
13500,-15.804,10.385
13512,-13.678,6.6225
13523,-11.284,4.9875
13535,-12.243,8.0558
13547,-13.248,6.0519
13559,-11.121,7.1204
13570,-10.238,5.4923
13582,-13.864,2.5602
13594,-17.216,2.6874
13605,-16.952,4.9221
13617,-14.894,5.3682
13629,-17.508,4.7796
13641,-12.981,5.577
13652,-15.521,3.5498
13664,-15.822,5.9018
13676,-15.994,4.347
13688,-16.002,2.9983
13699,-15.601,6.1705
13711,-14.99,8.0033
13723,-14.694,9.3882
13734,-14.948,6.1628
13746,-17.166,3.6726
13758,-16.932,5.9588
13770,-14.558,7.2345
13781,-15.218,6.6382
13793,-14.735,5.3932
13805,-13.574,1.9831
13816,-13.151,2.8239
13828,-14.466,4.6753
13840,-16.125,4.9483
13852,-16.165,5.9948
13863,-14.42,5.0391
13875,-19.115,3.5743
13887,-14.85,1.1467
13898,-12.393,2.9176
13910,-12.224,4.4127
13922,-14.761,5.0173
13934,-16.122,3.9433
13945,-17.671,2.6607
13957,-16.297,4.111
13969,-15.404,4.3114
13980,-13.605,6.2835
13992,-12.723,6.4285
14004,-12.991,7.1203
14016,-13.166,6.7357
14027,-13.564,3.5573
14039,-13.187,5.3924
14051,-12.534,5.8355
14063,-13.162,6.514
14074,-16.672,7.0016
14086,-17.288,7.651
14098,-17.229,4.3769
14109,-17.284,-0.52036
14121,-17.233,1.0066
14133,-16.012,3.5694
14145,-14.434,3.2567
14156,-13.434,2.7098
14168,-17.042,4.4239
14180,-17.522,4.17
14191,-17.002,5.8686
14203,-15.622,4.8508
14215,-15.953,4.2944
14227,-18.183,7.9987
14238,-17.407,7.8944
14250,-13.226,5.2292
14262,-14.041,6.5195
14273,-13.981,6.4856
14285,-12.826,4.5921
14297,-15.914,7.079
14309,-17.399,8.8019
14320,-15.837,7.9034
14332,-19.521,2.0265
14344,-16.646,2.8227
14355,-15.501,1.6663
14367,-16.599,3.0563
14379,-19.284,4.0508
14391,-13.572,4.6551
14402,-14.691,4.5631
14414,-15.921,0.88182
14426,-16.235,1.9339
14438,-15.225,-0.098264
14449,-13.766,0.7486
14461,-14.026,3.3689
14473,-14.249,3.634
14484,-15.362,4.1379
14496,-15.304,2.7381
14508,-12.018,2.3046
14520,-14.809,1.9571
14531,-19.172,6.4431
14543,-22.377,5.9033
14555,-19.037,-0.057472
14566,-18.599,2.1305
14578,-19.158,3.1204
14590,-16.409,4.515
14602,-16.44,3.7156
14613,-15.569,2.7952
14625,-15.506,1.8222
14637,-14.717,0.38952
14648,-16.679,2.4357
14660,-19.192,3.3022
14672,-16.63,3.0238
14684,-17.058,5.6368
14695,-17.762,5.0195
14707,-17.572,2.534
14719,-16.089,4.178
14730,-18.429,4.0918
14742,-21.019,4.2338
14754,-18.994,5.3876
14766,-16.897,5.6192
14777,-18.929,3.5626
14789,-18.284,4.2671
14801,-17.056,2.6381
14813,-15.847,-0.17977
14824,-15.913,1.5484
14836,-17.109,3.1791
14848,-15.35,6.8457
14859,-14.872,6.9724
14871,-13.095,3.9079
14883,-14.962,3.4855
14895,-15.382,2.241
14906,-16.194,3.9379
14918,-19.342,4.425
14930,-19.805,5.1474
14941,-21.059,4.4022
14953,-18.051,3.4939
14965,-16.981,5.6667
14977,-16.117,5.4446
14988,-16.644,1.1138
15000,-13.921,1.578
15012,-13.609,2.4457
15023,-18.517,5.9489
15035,-14.521,5.2795
15047,-15.595,4.9101
15059,-17.426,4.8988
15070,-18.52,4.4679
15082,-18.799,4.0045
15094,-17.443,4.096
15105,-15.534,3.7073
15117,-16.814,3.1285
15129,-17.052,3.8271
15141,-15.708,2.2485
15152,-13.936,-0.080344
15164,-13.145,1.4705
15176,-15.851,1.0961
15188,-20.238,0.090896
15199,-18.857,0.9281
15211,-16.312,3.4887
15223,-17.955,4.664
15234,-17.183,3.1858
15246,-14.354,2.2963
15258,-14.412,4.8453
15270,-15.975,5.0536
15281,-15.758,1.1347
15293,-16.263,1.1303
15305,-14.302,5.1309
15316,-16.419,4.7133
15328,-19.317,2.3613
15340,-20.071,1.0371
15352,-17.3,2.5138
15363,-18.293,3.3743
15375,-17.603,3.7023
15387,-16.675,2.0521
15398,-18.415,-0.80667
15410,-21.043,0.91687
15422,-19.459,3.5714
15434,-21.12,0.50699
15445,-19.912,4.6801
15457,-19.944,2.6096
15469,-20.06,1.1417
15480,-18.387,3.3848
15492,-19.045,3.2158
15504,-17.49,3.3304
15516,-18.366,3.9403
15527,-18.873,2.3601
15539,-18.872,2.2688
15551,-16.507,1.1784
15563,-16.124,3.3684
15574,-18.866,1.1291
15586,-16.157,3.1611
15598,-16.854,3.3546
15609,-19.345,5.173
15621,-20.532,7.1946
15633,-20.674,3.2594
15645,-20.067,3.2886
15656,-18.5,3.8112
15668,-18.164,5.1112
15680,-20.581,2.9505
15691,-22.612,4.8848
15703,-22.172,3.8457
15715,-21.665,4.621
15727,-19.779,5.0225
15738,-17.784,1.8979
15750,-18.921,0.77186
15762,-18.967,4.3451
15773,-19.84,6.0253
15785,-19.697,5.1785
15797,-19.289,0.88577
15809,-19.011,1.9417
15820,-20.105,4.3954
15832,-20.895,2.5109
15844,-20.464,-0.81429
15855,-19.911,0.72765
15867,-18.712,3.2837
15879,-20.69,3.811
15891,-19.705,2.5639
15902,-21.983,4.6674
15914,-21.092,1.2289
15926,-19.741,0.78848
15938,-18.6,0.64582
15949,-20.58,3.5322
15961,-21.853,4.9572
15973,-22.187,4.791
15984,-19.553,3.1058
15996,-17.924,2.198
16008,-17.467,1.8162
16020,-19.176,0.58261
16031,-20.665,4.7831
16043,-19.062,6.153
16055,-19.797,3.6319
16066,-21.368,0.15061
16078,-17.443,2.5786
16090,-18.732,1.8513
16102,-18.029,3.3554
16113,-19.828,3.4015
16125,-17.976,1.378
16137,-16.095,1.2359
16148,-16.573,1.8894
16160,-17.046,3.1553
16172,-17.198,1.3186
16184,-19.966,0.3436
16195,-22.797,1.948
16207,-19.502,2.3089
16219,-19.974,3.4939
16230,-22.429,4.3243
16242,-19.996,2.2305
16254,-18.667,3.4537
16266,-20.068,3.0683
16277,-22.193,3.4867
16289,-24.411,1.727
16301,-28.353,0.58906
16313,-23.693,1.2703
16324,-20.648,-1.6271
16336,-20.253,0.80837
16348,-19.497,2.5285
16359,-18.484,1.8671
16371,-17.994,2.8856
16383,-16.856,1.4131
16395,-17.5,5.0258
16406,-20.594,4.2179
16418,-22.287,1.8637
16430,-19.304,0.18932
16441,-17.639,1.3778
16453,-19.125,1.4653
16465,-22.024,0.15252
16477,-21.254,0.73952
16488,-19.827,1.3206
16500,-20.944,-0.6792
16512,-23.383,0.36455
16523,-23.48,2.5739
16535,-21.182,2.9844
16547,-20.242,2.4526
16559,-22.008,0.89979
16570,-26.089,1.9845
16582,-21.699,-0.3482
16594,-18.864,3.3944
16605,-16.342,2.947
16617,-19.505,-0.67615
16629,-20.857,-1.2849
16641,-25.008,0.6256
16652,-24.154,3.914
16664,-20.443,2.8744
16676,-20.93,0.096043
16688,-21.782,1.3028
16699,-23.678,3.982
16711,-22.285,4.4376
16723,-18.872,5.3621
16734,-20.944,4.7496
16746,-24.156,2.8741
16758,-22.032,1.2501
16770,-21.68,0.34041
16781,-23.77,2.3236
16793,-25.174,3.4263
16805,-21.943,2.1008
16816,-20.62,2.6547
16828,-21.889,1.013
16840,-19.385,-0.36411
16852,-17.836,-0.59574
16863,-18.844,1.6021
16875,-22.187,1.8789
16887,-21.146,2.0157
16898,-20.94,3.0806
16910,-21.269,0.60245
16922,-22.315,1.3808
16934,-22.377,3.0304
16945,-22.115,2.076
16957,-19.757,3.711
16969,-19.604,2.6883
16980,-20.866,1.2016
16992,-20.576,0.082319
17004,-21.602,2.1134
17016,-21.866,3.8173
17027,-20.168,2.0186
17039,-20.803,-0.98081
17051,-23.515,0.5882
17063,-21.033,1.4541
17074,-19.883,0.32935
17086,-18.592,0.050288
17098,-18.372,2.2463
17109,-18.728,2.7203
17121,-21.855,4.2103
17133,-22.328,4.0935
17145,-22.033,2.4379
17156,-21.701,0.66176
17168,-23.931,1.8286
17180,-19.909,-2.1727
17191,-19.885,0.67125
17203,-22.228,1.5311
17215,-23.904,-0.26887
17227,-22.378,0.27072
17238,-23.388,0.48511
17250,-18.862,-1.5116
17262,-19.629,1.0971
17273,-22.102,0.86295
17285,-22.172,0.61107
17297,-22.551,1.4887
17309,-24.038,1.6136
17320,-21.503,-1.6944
17332,-18.003,-1.1345
17344,-21.031,-0.30216
17355,-20.67,1.9772
17367,-20.973,2.9226
17379,-20.59,2.8924
17391,-20.264,3.7396
17402,-20.12,1.3951
17414,-23.143,1.1737
17426,-25.015,2.973
17438,-23.327,0.81879
17449,-20.301,1.3717
17461,-20.244,2.2841
17473,-23.118,2.0661
17484,-22.365,2.3308
17496,-22.025,3.1643
17508,-21.88,2.6643
17520,-22.025,-1.7674
17531,-21.124,-0.78077
17543,-22.241,-0.32082
17555,-22.901,1.2623
17566,-23.932,1.6212
17578,-23.05,0.47741
17590,-19.146,3.8513
17602,-21.035,0.90468
17613,-24.687,-2.0063
17625,-22.262,1.2438
17637,-22.873,3.3236
17648,-22.636,0.94985
17660,-22.385,1.5147
17672,-19.646,1.5493
17684,-18.884,1.293
17695,-20.473,2.1735
17707,-20.74,2.9403
17719,-18.188,3.7446
17730,-19.322,1.6113
17742,-21.685,-4.3897
17754,-23.084,0.51712
17766,-20.896,2.0274
17777,-19.803,-0.51334
17789,-21.814,-2.47
17801,-21.931,-2.3846
17813,-22.546,-0.52985
17824,-23.37,-1.0317
17836,-23.138,1.421
17848,-24.728,1.1864
17859,-24.783,1.7308
17871,-23.019,0.32326
17883,-21.857,-0.67612
17895,-19.999,-0.72675
17906,-21.562,2.7828
17918,-24.29,2.8026
17930,-21.034,-0.062339
17941,-22.849,-1.3687
17953,-24.589,-2.0469
17965,-23.819,-0.53369
17977,-24.339,1.3594
17988,-23.028,2.6993
18000,-24.505,-2.1919
18012,-20.636,-2.1361
18023,-20.29,-3.3578
18035,-24.124,-1.183
18047,-26.92,-1.9235
18059,-23.024,-3.053
18070,-23.437,-0.89205
18082,-25.851,0.19002
18094,-22.576,-0.95855
18105,-22.992,-2.3573
18117,-23.557,-1.2898
18129,-20.272,-0.95931
18141,-21.29,1.8899
18152,-22.508,0.53253
18164,-21.313,0.21946
18176,-22.701,-0.24811
18188,-21.91,1.1887
18199,-21.256,1.7362
18211,-19.961,-0.97834
18223,-22.482,-0.16578
18234,-24.661,-0.054243
18246,-22.596,1.795
18258,-20.46,1.4321
18270,-20.093,1.3611
18281,-20.512,-2.0484
18293,-22.018,1.1018
18305,-24.016,1.4576
18316,-23.844,2.7912
18328,-23.19,1.3894
18340,-24.196,-0.30668
18352,-26.231,0.60898
18363,-23.298,0.45438
18375,-22.45,1.3582
18387,-23.765,1.455
18398,-22.361,-1.5135
18410,-24.039,-2.2389
18422,-27.515,-1.4518
18434,-25.335,0.42087
18445,-25.531,0.91664
18457,-25.395,-0.92051
18469,-23.551,-1.5583
18480,-23.449,-0.43491
18492,-22.329,-0.36042
18504,-19.467,-0.1244
18516,-20.432,-1.8583
18527,-21.303,-0.38626
18539,-17.527,-0.3626
18551,-18.004,-1.1548
18563,-23.824,-0.91595
18574,-24.919,0.028563
18586,-22.053,-1.0733
18598,-21.213,-3.1693
18609,-21.721,0.2763
18621,-20.812,1.7239
18633,-24.332,-0.84509
18645,-25.48,-2.3848
18656,-22.11,-1.53
18668,-23.331,-2.4131
18680,-24.936,-1.8587
18691,-25.108,-2.2896
18703,-23.728,-3.1702
18715,-21.763,-1.2758
18727,-22.309,-1.1933
18738,-23.491,0.91313
18750,-22.74,0.90072
18762,-24.11,3.5507
18773,-23.564,3.7486
18785,-24.603,1.0232
18797,-23.618,-1.4225
18809,-24.564,-0.075346
18820,-22.444,-0.55925
18832,-23.858,-1.0084
18844,-27.656,1.1186
18855,-24.458,2.6737
18867,-23.789,3.8986
18879,-23.437,2.0925
18891,-21.915,-4.0656
18902,-20.187,0.18766
18914,-21.703,1.29
18926,-23.137,-0.58889
18938,-23.913,-2.2769
18949,-26.898,-3.2482
18961,-26.725,-0.9374
18973,-22.509,0.75651
18984,-22.677,-0.72308
18996,-23.654,-1.0175
19008,-23.086,-0.10106
19020,-23.524,0.88397
19031,-23.101,-1.0072
19043,-24.322,-1.8624
19055,-24.625,-2.532
19066,-21.577,-0.94118
19078,-24.603,1.9021
19090,-24.588,2.0648
19102,-24.084,1.0828
19113,-27.633,-0.0023087
19125,-22.461,-2.1676
19137,-21.233,-1.7196
19148,-23.367,-1.1109
19160,-23.907,-1.8508
19172,-25.454,-0.86383
19184,-24.348,-0.15491
19195,-23.14,-4.2215
19207,-26.739,0.38048
19219,-24.693,-2.1628
19230,-24.311,-0.89174
19242,-25.29,0.17541
19254,-25.977,2.4385
19266,-26.907,-0.090622
19277,-24.528,-1.3314
19289,-23.554,-1.6059
19301,-21.788,-3.292
19313,-21.848,-4.344
19324,-22.722,-2.4706
19336,-21.926,-1.7522
19348,-22.11,-2.6044
19359,-22.648,-0.22657
19371,-23.939,-2.2097
19383,-22.622,-2.2584
19395,-23.334,-2.4937
19406,-23.059,-2.9159
19418,-22.897,-3.0826
19430,-24.019,-1.6598
19441,-22.417,-1.1176
19453,-25.098,-1.4446
19465,-24.634,-0.31167
19477,-23.091,-2.3435
19488,-22.88,-0.17736
19500,-24.919,1.5057
19512,-24.144,0.51548
19523,-22.72,0.3027
19535,-23.531,0.15139
19547,-24.777,-3.6944
19559,-22.955,-3.7376
19570,-23.301,0.70102
19582,-26.416,1.751
19594,-24.372,-3.2906
19605,-23.594,0.72099
19617,-23.498,0.77755
19629,-24.963,-1.2828
19641,-24.188,-3.2399
19652,-24.376,-1.7197
19664,-25.868,1.5603
19676,-20.959,0.67023
19688,-24.31,-2.3317
19699,-24.719,-3.9454
19711,-22.869,-0.82089
19723,-23.841,0.644
19734,-26.541,0.28767
19746,-24.957,-2.2258
19758,-23.9,0.83427
19770,-25.098,-1.8885
19781,-24.534,-0.9978
19793,-24.904,-4.8366
19805,-25.96,0.28095
19816,-22.778,1.5786
19828,-21.665,-1.449
19840,-23.612,-2.3139
19852,-27.138,-0.93929
19863,-27.611,-1.569
19875,-27.912,-0.75555
19887,-26.548,0.58145
19898,-25.894,-0.14042
19910,-24.083,0.24439
19922,-22.545,1.6574
19934,-22.044,-0.23874
19945,-25.845,-1.9772
19957,-24.286,-0.12228
19969,-27.629,-1.0123
19980,-25.201,-2.8533
19992,-22.53,-0.83987
20004,-24.265,-0.31786
20016,-23.268,1.4842
20027,-23.576,0.7556
20039,-26.321,-0.35666
20051,-25.602,-1.6512
20063,-27.008,-1.7728
20074,-25.71,0.50368
20086,-25.306,1.2596
20098,-28.21,0.58905
20109,-26.198,-0.068694
20121,-25.693,-0.89514
20133,-25.298,-0.32936
20145,-25.504,-0.12812
20156,-25.287,0.27177
20168,-22.949,1.9545
20180,-22.566,-0.71774
20191,-23.225,-1.5092
20203,-25.232,-0.059492
20215,-25.846,-3.0989
20227,-25.882,-2.8582
20238,-26.31,-0.2664
20250,-25.796,-2.1407
20262,-24.261,-1.3165
20273,-23.208,-0.31566
20285,-24.041,-2.0285
20297,-24.877,-1.632
20309,-26.826,-2.441
20320,-27.094,-2.8547
20332,-26.403,-2.2108
20344,-27.161,-2.4804
20355,-25.479,-3.2775
20367,-24.296,-3.8725
20379,-23.663,-3.4887
20391,-25.78,-1.6229
20402,-23.03,-3.2373
20414,-23.928,-4.242
20426,-27.067,-4.2654
20438,-25.791,-3.0806
20449,-23.309,-3.6421
20461,-24.027,-3.2869
20473,-24.371,-1.7072
20484,-25.352,-1.2107
20496,-25.617,-1.7738
20508,-24.389,0.70371
20520,-24.274,-0.31717
20531,-28.136,-2.5641
20543,-27.033,-0.61027
20555,-26.108,0.19068
20566,-27.063,0.17562
20578,-28.789,-1.0205
20590,-28.22,-3.5944
20602,-27.842,-4.8674
20613,-25.433,-1.2203
20625,-26.074,-0.10777
20637,-24.507,-0.6993
20648,-25.435,-2.5372
20660,-29.389,-4.5626
20672,-25.462,-2.0749
20684,-24.483,-2.6038
20695,-25.691,-4.1417
20707,-23.025,-4.8027
20719,-23.755,-3.9021
20730,-23.832,-1.7791
20742,-23.726,-2.5371
20754,-27.297,-2.13
20766,-23.637,0.02833
20777,-25.676,-0.40212
20789,-26.768,-0.25073
20801,-26.299,0.22554
20813,-28.241,-0.97822
20824,-26.086,-1.1647
20836,-24.766,-0.58516
20848,-25.681,-0.27349
20859,-25.495,-3.0074
20871,-26.991,-2.01
20883,-28.577,-1.4229
20895,-27.563,-1.887
20906,-23.906,-0.61506
20918,-24.515,-0.73743
20930,-23.921,-2.6482
20941,-25.467,-1.9584
20953,-25.597,-1.9741
20965,-23.882,-2.4448
20977,-23.493,-3.8048
20988,-25.999,-0.39776
21000,-25.788,0.20978
21012,-23.38,1.3043
21023,-21.375,-1.0437
21035,-24.258,-3.3316
21047,-26.211,-2.8803
21059,-26.58,-1.5095
21070,-25.897,-3.5775
21082,-24.909,-4.0338
21094,-24.254,-2.5372
21105,-24.439,-3.6377
21117,-26.938,-1.8415
21129,-24.802,-2.9401
21141,-23.964,-0.72511
21152,-24.02,0.23089
21164,-27.359,-3.2831
21176,-27.181,0.50201
21188,-26.41,-0.13082
21199,-28.627,0.49442
21211,-29.435,1.7273
21223,-27.153,1.0985
21234,-26.835,-1.057
21246,-29.427,-3.2385
21258,-30.72,-2.4618
21270,-30.096,0.32232
21281,-28.229,-2.954
21293,-27.955,-3.7811
21305,-28.402,-4.935
21316,-27.419,-1.4218
21328,-27.493,0.47067
21340,-24.503,0.2414
21352,-23.818,-1.2685
21363,-24.877,-1.3857
21375,-26.676,-1.3513
21387,-27.331,-0.53729
21398,-27.122,-1.4597
21410,-28.689,-1.9953
21422,-29.314,-5.2593
21434,-28.699,-6.2541
21445,-27.219,-7.9224
21457,-27.484,-5.043
21469,-29.41,-2.4047
21480,-29.925,-2.9114
21492,-26.683,-2.5
21504,-26.046,-2.618
21516,-25.383,-1.6403
21527,-25.111,-2.3707
21539,-24.447,-5.3927
21551,-25.189,-5.1117
21563,-26.875,-4.0745
21574,-25.311,-3.2565
21586,-26.275,-0.55716
21598,-25.522,-2.2826
21609,-25.257,-0.77993
21621,-26.673,0.71329
21633,-27.771,-0.53804
21645,-26.94,-3.6646
21656,-26.597,-1.8277
21668,-25.109,-6.1318
21680,-25.562,-5.1059
21691,-25.224,-4.6574
21703,-26.019,-0.35587
21715,-28.897,-1.447
21727,-27.755,-3.9612
21738,-28.203,-5.1744
21750,-28.526,-4.0748
21762,-28.699,-3.1646
21773,-30.902,-4.6456
21785,-25.43,-5.5577
21797,-25.498,-2.6335
21809,-27.288,-0.28344
21820,-28.533,-0.61761
21832,-23.98,-0.24613
21844,-22.722,-4.2147
21855,-25.856,-2.2636
21867,-26.875,-4.1793
21879,-24.725,-5.9471
21891,-25.279,-1.5312
21902,-24.827,-0.90909
21914,-28.646,-3.9156
21926,-26.139,-1.9844
21938,-26.348,-2.4925
21949,-23.795,-3.9815
21961,-25.474,-2.856
21973,-27.616,-1.5328
21984,-27.89,-0.48265
21996,-27.459,-2.4671
22008,-28.633,-1.9206
22020,-25.671,-3.2609
22031,-25.496,-3.4116
22043,-28.271,0.3588
22055,-24.995,0.2292
22066,-25.638,-1.3881
22078,-27.255,-3.8636
22090,-27.13,-3.9936
22102,-31.773,-2.168
22113,-29.743,-1.9975
22125,-27.042,-3.5744
22137,-24.978,-5.267
22148,-28.822,-5.5727
22160,-29.049,-6.5045
22172,-29.451,-8.0181
22184,-31.617,-4.907
22195,-28.168,-4.1891
22207,-26.912,-4.7339
22219,-27.682,-6.6767
22230,-26.627,-6.5493
22242,-28.572,-5.076
22254,-26.234,-1.868
22266,-24.796,-2.1893
22277,-25.92,-4.9697
22289,-26.078,-3.2637
22301,-28.756,-3.973
22313,-27.808,-2.3053
22324,-27.36,-2.08
22336,-26.884,-2.8533
22348,-25.794,-6.4807
22359,-26.306,-4.8699
22371,-24.779,-1.2814
22383,-26.803,-2.4875
22395,-28.1,-3.4864
22406,-25.883,-4.8516
22418,-26.082,-2.2903
22430,-25.995,-2.4092
22441,-25.637,-2.8344
22453,-26.146,-0.23818
22465,-24.191,-1.1694
22477,-23.782,-2.1473
22488,-28.037,-2.9054
22500,-25.644,-2.4041
22512,-25.775,-2.4933
22523,-25.342,-3.3985
22535,-24.464,-6.101
22547,-24.267,-3.6475
22559,-24.03,-3.2462
22570,-26.047,-3.6404
22582,-28.468,-3.8806
22594,-29.242,-6.2452
22605,-27.281,-6.2702
22617,-26.573,-3.676
22629,-27.318,-6.1583
22641,-28.704,-4.0358
22652,-29.604,-4.0002
22664,-27.205,-2.5581
22676,-27.604,-4.6417
22688,-27.896,-3.3477
22699,-28.419,-4.6373
22711,-27.891,-1.7497
22723,-28.855,-0.3722
22734,-26.232,-0.97768
22746,-26.235,-1.5923
22758,-28.382,-2.5328
22770,-27.281,-5.3685
22781,-27.536,-3.5968
22793,-27.232,-1.6176
22805,-28.298,-2.9203
22816,-27.116,-3.1596
22828,-27.302,-2.8606
22840,-26.56,-1.3001
22852,-29.315,-2.3198
22863,-26.076,-1.4556
22875,-25.718,-3.5833
22887,-28.301,-7.9345
22898,-28.16,-3.098
22910,-29.394,-1.8612
22922,-27.873,-3.7389
22934,-27.798,-2.9871
22945,-26.444,-2.3686
22957,-25.758,-5.319
22969,-26.428,-5.7925
22980,-27.502,-3.8964
22992,-26.937,-2.9046
23004,-26.031,-2.2264
23016,-28.772,-0.4267
23027,-26.183,-1.5274
23039,-24.884,-1.5997
23051,-27.861,-1.9566
23063,-27.948,-4.3308
23074,-27.651,-4.2063
23086,-26.653,-6.2708
23098,-26.105,-4.3537
23109,-29.189,-5.0267
23121,-31.646,-3.5781
23133,-29.516,-6.7711
23145,-28.059,-4.6779
23156,-27.552,-3.3419
23168,-25.042,-3.1272
23180,-25.966,-4.8982
23191,-26.02,-3.4634
23203,-25.429,-0.44422
23215,-29.298,-4.6698
23227,-26.559,-2.8142
23238,-28.075,-6.0844
23250,-29.355,-4.818
23262,-28.489,-3.8029
23273,-27.303,-5.1339
23285,-27.663,-4.3971
23297,-25.472,-1.7579
23309,-25.183,-2.7131
23320,-24.561,-5.8054
23332,-26.367,-4.6741
23344,-29.659,-3.967
23355,-28.776,-5.2034
23367,-25.585,-1.7007
23379,-25.672,-0.90324
23391,-27.517,-2.7275
23402,-27.776,-0.028615
23414,-27.657,-1.6942
23426,-28.188,-5.641
23438,-25.494,-5.2161
23449,-25.129,-6.3991
23461,-29.098,-3.7604
23473,-28.047,-3.6473
23484,-26.427,-6.6112
23496,-29.728,-4.2461
23508,-26.831,-7.4193
23520,-28.337,-7.512
23531,-29.268,-4.0814
23543,-29.027,-0.48072
23555,-26.101,-1.0389
23566,-24.129,-1.5223
23578,-25.836,-4.9594
23590,-26.135,-6.4923
23602,-28.306,-5.7968
23613,-28.787,-5.05
23625,-27.894,-7.3323
23637,-26.623,-4.5568
23648,-28.171,-3.189
23660,-29.318,-2.6151
23672,-26.839,-3.2711
23684,-25.429,-4.6503
23695,-29.002,-3.3563
23707,-31.233,-2.318
23719,-27.233,-5.2061
23730,-23.716,-6.1683
23742,-23.584,-5.9789
23754,-24.199,-4.3833
23766,-24.285,-2.3214
23777,-25.49,-4.1968
23789,-27.511,-6.5704
23801,-28.698,-5.0641
23813,-29.282,-0.92675
23824,-26.767,-1.3213
23836,-25.669,-4.9638
23848,-28.401,-7.1268
23859,-28.944,-6.161
23871,-27.748,-4.2427
23883,-28.64,-3.911
23895,-30.802,-2.9318
23906,-29.694,-1.4918
23918,-30.879,-3.7771
23930,-28.916,-3.5849
23941,-26.626,-2.9693
23953,-30.073,-2.6828
23965,-31.193,0.14335
23977,-26.197,-0.12869
23988,-24.995,-2.8797
