FFT,Power Spectrum
Frequency[Hz],Level-L[dB],Level-R[dB]
11.719,-20.918,-19.389
23.438,-0.66344,0.087478
35.156,0.70874,5.5301
46.875,2.8905,8.6009
58.594,2.8011,14.839
70.313,3.3733,17.964
82.031,6.6924,18.363
93.75,10.306,19.351
105.47,9.9177,16.033
117.19,5.9515,20.068
128.91,10.546,19.339
140.63,12.852,17.164
152.34,8.3982,20.272
164.06,2.0688,22.478
175.78,5.8097,21.056
187.5,6.2063,21.324
199.22,6.1193,22.857
210.94,6.1177,23.716
222.66,12.191,24.187
234.38,12.567,25.9
246.09,7.9776,26.899
257.81,6.9943,24.309
269.53,5.1262,22.693
281.25,9.0124,27.124
292.97,8.3153,28.185
304.69,5.4657,24.142
316.41,4.4399,23.985
328.13,2.2745,22.781
339.84,2.978,24.733
351.56,5.8703,24.872
363.28,8.803,28.255
375,7.4656,26.172
386.72,6.6703,24.629
398.44,6.5085,26.211
410.16,3.6755,27.256
421.88,6.1233,27.066
433.59,8.871,24.87
445.31,25.171,26.282
457.03,34.861,24.906
468.75,32.268,23.833
480.47,13.573,26.419
492.19,6.659,25.602
503.91,3.4702,24.293
515.63,5.1998,25.1
527.34,3.3333,25.8
539.06,3.3785,25.091
550.78,3.9616,24.336
562.5,4.4875,24.845
574.22,3.5523,25.247
585.94,0.90187,26.367
597.66,3.953,25.399
609.38,4.546,22.814
621.09,6.1538,22.06
632.81,5.1697,23.518
644.53,6.0356,23.126
656.25,7.2761,20.508
667.97,6.3383,19.093
679.69,5.5465,21.422
691.41,4.7216,21.892
703.13,4.6401,25.432
714.84,2.8852,26.446
726.56,4.6461,25.838
738.28,2.8644,23.57
750,4.9263,22.801
761.72,3.6971,24.228
773.44,2.3041,23.355
785.16,6.0773,22.372
796.88,6.8262,20.97
808.59,5.2645,21.804
820.31,4.8366,26.034
832.03,4.8724,26.882
843.75,4.371,24.105
855.47,5.709,24.496
867.19,4.5318,25.604
878.91,4.2678,27.606
890.63,4.8632,26.344
902.34,6.5032,25.038
914.06,9.6055,24.743
925.78,10.26,26.876
937.5,7.9426,26.554
949.22,4.4274,27.336
960.94,8.326,24.583
972.66,7.0136,21.991
984.38,6.3249,24.315
996.09,4.5387,26.102
1007.8,3.5403,24.647
1019.5,5.5761,26.13
1031.3,5.5878,26.53
1043,5.3133,22.257
1054.7,3.9459,23.391
1066.4,2.7277,22.543
1078.1,7.3538,25.168
1089.8,6.8725,26.96
1101.6,6.008,26.06
1113.3,7.0738,24.921
1125,7.5844,25.991
1136.7,5.5432,25.272
1148.4,4.9032,24.742
1160.2,6.1059,25.755
1171.9,6.9496,24.288
1183.6,7.1595,24.502
1195.3,6.48,23.657
1207,3.5401,21.647
1218.8,3.6067,22.553
1230.5,0.92031,23.682
1242.2,0.75225,25.139
1253.9,2.5177,26.864
1265.6,4.5432,22.747
1277.3,5.7512,24.265
1289.1,5.4244,23.9
1300.8,3.2352,24.687
1312.5,5.4322,25.205
1324.2,5.4412,23.925
1335.9,5.8805,23.143
1347.7,5.6365,25.466
1359.4,3.785,24.136
1371.1,2.9222,23.558
1382.8,5.7588,22.051
1394.5,4.1435,23.921
1406.3,6.7563,22.277
1418,6.1397,20.657
1429.7,2.7939,24.487
1441.4,1.9086,25.917
1453.1,3.3851,22.211
1464.8,2.7089,18.383
1476.6,5.2238,19.815
1488.3,6.0373,25.373
1500,4.5817,26.084
1511.7,6.1652,22.34
1523.4,7.186,23.596
1535.2,6.9005,22.649
1546.9,3.6781,21.248
1558.6,0.67512,24.016
1570.3,5.8236,23.979
1582,6.2359,23.521
1593.8,1.2397,23.03
1605.5,0.21905,24.52
1617.2,2.3598,25.394
1628.9,4.5574,23.805
1640.6,3.5723,22.217
1652.3,1.0065,18.776
1664.1,1.2877,21.542
1675.8,3.4416,22.771
1687.5,4.7731,24.11
1699.2,2.7341,24.778
1710.9,3.6426,24.837
1722.7,4.4206,24.42
1734.4,4.1881,25.203
1746.1,2.4286,26.147
1757.8,3.5229,23.6
1769.5,3.1556,21.814
1781.3,3.3519,23.455
1793,6.7337,21.229
1804.7,6.4738,22.069
1816.4,3.1417,22.493
1828.1,2.9054,24.402
1839.8,4.6931,24.628
1851.6,4.1419,20.267
1863.3,3.1145,19.467
1875,3.813,19.697
1886.7,1.8301,22.663
1898.4,0.080212,24.887
1910.2,-0.060974,22.38
1921.9,3.3094,23.919
1933.6,1.2555,23.428
1945.3,1.9337,23.038
1957,1.8483,21.314
1968.8,-1.4202,23.139
1980.5,1.5489,22.713
1992.2,2.2609,23.512
2003.9,2.6181,22.827
2015.6,2.8882,21.532
2027.3,4.4973,20.619
2039.1,3.8634,20.374
2050.8,2.9422,22.25
2062.5,1.4508,24.88
2074.2,0.09124,25.13
2085.9,0.26399,23.568
2097.7,0.9396,20.731
2109.4,2.3318,20.114
2121.1,0.83453,17.729
2132.8,2.3862,19.326
2144.5,3.8626,19.889
2156.3,0.62226,21.542
2168,2.5964,23.911
2179.7,3.7724,22.121
2191.4,1.5206,18.728
2203.1,2.815,19.594
2214.8,3.8074,21.977
2226.6,3.4274,22.444
2238.3,3.0805,20.452
2250,3.2436,18.911
2261.7,1.9833,22.176
2273.4,2.0417,22.514
2285.2,3.3519,21.842
2296.9,-1.6371,22.285
2308.6,3.4126,22.138
2320.3,3.5225,20.397
2332,4.1444,21.726
2343.8,4.5968,22.973
2355.5,1.9747,19.432
2367.2,-0.26667,21.056
2378.9,1.6636,24.399
2390.6,3.2586,24.738
2402.3,2.088,23.535
2414.1,0.77306,22.511
2425.8,-0.64089,20.052
2437.5,-1.4033,22.951
2449.2,-1.4325,22.537
2460.9,-1.065,22.542
2472.7,-0.088517,22.057
2484.4,-0.92399,19.685
2496.1,-2.1943,20.414
2507.8,-0.11377,21.929
2519.5,-0.38838,22.152
2531.3,-2.5862,21.727
2543,1.4508,21.297
2554.7,1.682,18.935
2566.4,1.9097,20.645
2578.1,1.6764,21.37
2589.8,-0.77733,21.952
2601.6,-1.6988,22.348
2613.3,-1.3003,20.279
2625,-3.092,17.502
2636.7,-1.0207,18.718
2648.4,-0.56571,16.304
2660.2,-0.62935,19.698
2671.9,-0.15988,21.753
2683.6,-1.0937,17.799
2695.3,1.2887,20.363
2707,-1.7643,17.43
2718.8,1.0107,18.096
2730.5,0.76524,20.055
2742.2,-1.2972,22.322
2753.9,-0.10462,21.884
2765.6,1.7779,23.013
2777.3,-0.29195,19.941
2789.1,-0.80109,17.523
2800.8,1.4443,18.586
2812.5,2.3453,19.004
2824.2,1.1435,22.135
2835.9,1.7647,21.689
2847.7,1.2918,19.255
2859.4,-0.64709,21.701
2871.1,-1.108,21.602
2882.8,-0.9886,20.788
2894.5,1.4728,19.657
2906.3,1.0462,20.695
2918,-1.781,22.126
2929.7,-3.446,19.411
2941.4,-0.92223,21.377
2953.1,2.4759,19.321
2964.8,0.86534,18.452
2976.6,1.119,20.425
2988.3,0.86472,19.421
3000,-1.1942,19.903
3011.7,-1.3779,22.482
3023.4,-2.3717,21.627
3035.2,-4.1789,21.321
3046.9,-2.9585,23.296
3058.6,1.034,23.043
3070.3,1.042,22.408
3082,-0.32919,21.26
3093.8,-1.9867,20.201
3105.5,0.69091,21.341
3117.2,3.4832,22.527
3128.9,1.1308,19.876
3140.6,-0.94534,16.915
3152.3,0.0052607,20.491
3164.1,-0.82288,21.439
3175.8,0.88311,20.536
3187.5,1.731,20.254
3199.2,2.8448,19.07
3210.9,1.5622,16.718
3222.7,1.3864,22.065
3234.4,-0.61995,22.799
3246.1,-0.76316,19.629
3257.8,0.034305,17.26
3269.5,-0.32676,19.985
3281.3,-0.10678,19.203
3293,-0.95436,20.851
3304.7,1.0331,18.673
3316.4,1.1805,18.772
3328.1,2.8704,18.401
3339.8,1.6417,21.186
3351.6,0.22609,22.022
3363.3,1.094,19.471
3375,4.1689,17.389
3386.7,1.6864,19.137
3398.4,0.080925,20.824
3410.2,-0.9848,18.148
3421.9,-2.4314,20.878
3433.6,-3.9991,19.994
3445.3,-0.54699,20.525
3457,-1.215,19.494
3468.8,-0.98215,18.231
3480.5,1.4633,17.387
3492.2,-3.405,15.424
3503.9,-1.545,14.637
3515.6,-1.345,16.938
3527.3,-0.59228,19.759
3539.1,0.4904,20.558
3550.8,1.3692,19.525
3562.5,1.1567,18.922
3574.2,-0.44223,18.442
3585.9,-0.38944,18.327
3597.7,-1.6853,20.361
3609.4,0.2451,21.911
3621.1,-2.2212,21.139
3632.8,-2.5974,19.097
3644.5,-0.38999,18.139
3656.3,-0.60016,21.088
3668,-3.3466,21.144
3679.7,-4.093,19.894
3691.4,-2.1078,17.753
3703.1,0.39809,18.994
3714.8,-3.5589,19.546
3726.6,-4.5324,17.804
3738.3,-0.91486,18.839
3750,-1.1202,19.545
3761.7,-2.8727,20.707
3773.4,-2.5623,20.599
3785.2,0.38368,16.15
3796.9,0.50442,15.636
3808.6,-1.836,17.559
3820.3,-4.8569,19.168
3832,-3.9019,20.481
3843.8,-4.656,20.262
3855.5,-3.7346,19.013
3867.2,-1.532,19.505
3878.9,-3.8318,19.762
3890.6,-2.5057,19.238
3902.3,-3.8346,16.59
3914.1,-3.002,15.92
3925.8,-1.8252,16.613
3937.5,-3.6912,19.41
3949.2,-1.4722,20.849
3960.9,-0.057087,20.91
3972.7,-0.4602,18.484
3984.4,-0.31368,15.664
3996.1,0.10921,18.93
4007.8,0.19458,18.902
4019.5,0.58738,15.492
4031.3,-0.98275,18.322
4043,-1.9264,17.685
4054.7,-2.6156,17.995
4066.4,-1.0184,19.86
4078.1,-2.352,19.624
4089.8,-3.66,16.959
4101.6,-5.2131,17.221
4113.3,-2.1491,17.526
4125,-2.4581,17.3
4136.7,-2.1717,20.931
4148.4,-0.66394,18.609
4160.2,-1.6491,15.193
4171.9,-5.8429,15.018
4183.6,-5.9111,18.098
4195.3,-4.2635,20.664
4207,-1.6429,17.457
4218.8,-2.5383,17.717
4230.5,-6.0046,15.328
4242.2,-3.7771,15.739
4253.9,-2.4868,16.054
4265.6,-3.7365,16.481
4277.3,-2.6481,15.574
4289.1,-3.2929,13.691
4300.8,-3.2145,19.04
4312.5,-3.6139,18.273
4324.2,-6.2881,17.943
4335.9,-4.9054,21.067
4347.7,-4.5716,21.5
4359.4,-4.2197,18.12
4371.1,-3.7669,17.028
4382.8,-5.1247,16.944
4394.5,-3.7713,16.979
4406.3,-1.0367,14.935
4418,-2.3751,17.377
4429.7,-2.2752,21.122
4441.4,-1.7364,19.76
4453.1,-3.1616,18.92
4464.8,-0.88141,20.503
4476.6,-2.2856,18.748
4488.3,-2.1086,17.366
4500,-0.90176,19.218
4511.7,-3.4888,20.306
4523.4,1.6925,17.554
4535.2,1.8129,17.728
4546.9,-0.43365,18.183
4558.6,-3.048,17.361
4570.3,-3.4643,15.67
4582,-1.8718,14.318
4593.8,-1.8087,17.718
4605.5,-1.4919,19.709
4617.2,-1.7787,20.998
4628.9,-2.1722,18.453
4640.6,-2.8889,16.548
4652.3,-3.961,17.674
4664.1,-3.8863,17.313
4675.8,-4.1704,15.898
4687.5,-4.1622,17.507
4699.2,-3.7786,16.607
4710.9,-4.6675,15.571
4722.7,-6.5879,14.006
4734.4,-3.105,12.196
4746.1,-3.5094,15.497
4757.8,-5.9694,18.313
4769.5,-3.0785,18.927
4781.3,-2.3536,18.57
4793,-2.1641,17.845
4804.7,-3.9075,14.15
4816.4,-4.7713,15.72
4828.1,-4.9862,17.499
4839.8,-2.4989,19.418
4851.6,-2.1097,17.686
4863.3,-1.9749,17.581
4875,-1.767,16.82
4886.7,-4.1586,18.475
4898.4,-5.3736,20.049
4910.2,-2.6087,17.968
4921.9,-3.8851,16.49
4933.6,-3.5742,16.88
4945.3,-2.7612,17.481
4957,-3.5502,18.2
4968.8,-5.3368,15.637
4980.5,-6.4522,14.264
4992.2,-4.0678,14.252
5003.9,-3.3923,16.74
5015.6,-4.2344,16.016
5027.3,-3.8791,16.163
5039.1,-4.1901,15.527
5050.8,-5.7908,14.359
5062.5,-6.076,12.622
5074.2,-6.7623,16.089
5085.9,-4.0921,16.582
5097.7,-3.6545,14.375
5109.4,-4.2034,14.435
5121.1,-3.1146,14.616
5132.8,-2.7931,15.318
5144.5,-2.6821,16.63
5156.3,-3.1422,13.491
5168,-5.8628,16.072
5179.7,-6.262,17.726
5191.4,-4.7989,18.612
5203.1,-5.1851,18.709
5214.8,-6.0138,16.34
5226.6,-4.9218,15.698
5238.3,-6.4155,17.563
5250,-6.3805,16.479
5261.7,-4.7212,15.147
5273.4,-5.847,15.134
5285.2,-7.1527,16.232
5296.9,-5.6502,16.302
5308.6,-7.0322,13.802
5320.3,-7.5864,17.505
5332,-4.2735,15.071
5343.8,-3.4967,14.019
5355.5,-5.1325,15.887
5367.2,-6.3569,17.431
5378.9,-7.4774,17.274
5390.6,-8.1846,15.896
5402.3,-7.1986,16.199
5414.1,-8.1235,15.609
5425.8,-3.7293,16.669
5437.5,-1.4638,15.911
5449.2,-3.753,15.031
5460.9,-6.2391,15.837
5472.7,-5.922,14.647
5484.4,-4.2402,16.266
5496.1,-1.3024,17.594
5507.8,-4.0968,14.339
5519.5,-4.8039,13.706
5531.3,-6.3477,14.563
5543,-5.7853,14.709
5554.7,-4.9111,19.285
5566.4,-5.4174,19.153
5578.1,-4.0706,14.555
5589.8,-3.668,13.259
5601.6,-6.4077,16.783
5613.3,-6.0992,18.256
5625,-6.6242,17.501
5636.7,-5.0036,17.473
5648.4,-4.5655,18.218
5660.2,-5.7036,17.966
5671.9,-5.7879,15.842
5683.6,-5.2629,13.477
5695.3,-2.6459,14.404
5707,-3.3542,13.919
5718.8,-5.3031,13.711
5730.5,-4.734,14.737
5742.2,-5.0727,13.717
5753.9,-5.6215,15.325
5765.6,-6.1681,14.992
5777.3,-5.6905,16.305
5789.1,-5.5786,15.168
5800.8,-4.5462,11.908
5812.5,-5.6924,13.628
5824.2,-6.9293,15.722
5835.9,-5.6175,12.684
5847.7,-5.4712,15.848
5859.4,-7.5281,15.648
5871.1,-5.421,15.47
5882.8,-7.1475,17.399
5894.5,-10.232,18.063
5906.3,-10.772,18.947
5918,-7.6283,19.71
5929.7,-5.71,17.64
5941.4,-4.5939,15.161
5953.1,-3.1273,15.674
5964.8,-4.4824,16.12
5976.6,-2.5571,15.779
5988.3,-2.1592,14.051
6000,-3.8636,14.742
6011.7,-5.6727,16.067
6023.4,-4.2377,16.063
6035.2,-7.8086,17.551
6046.9,-9.8369,16.149
6058.6,-7.4798,14.896
6070.3,-7.4961,19.19
6082,-6.0335,17.18
6093.8,-6.9142,17.67
6105.5,-3.5983,16.493
6117.2,-3.097,13.848
6128.9,-4.8897,12.73
6140.6,-6.834,14.048
6152.3,-6.8461,15.283
6164.1,-6.03,14.325
6175.8,-6.7029,16.489
6187.5,-7.1211,15.244
6199.2,-4.8568,17.71
6210.9,-4.8916,18.308
6222.7,-7.011,17.764
6234.4,-5.2615,16.53
6246.1,-3.6892,15.872
6257.8,-7.479,16.911
6269.5,-7.9265,15.835
6281.3,-3.1951,16.65
6293,-2.6601,15.126
6304.7,-3.754,18.011
6316.4,-3.2486,16.737
6328.1,-3.3508,15.716
6339.8,-4.705,18.387
6351.6,-7.7714,15.659
6363.3,-4.9913,14.311
6375,-5.2553,18.119
6386.7,-5.7928,15.042
6398.4,-6.8446,16.163
6410.2,-4.1203,14.946
6421.9,-3.14,12.309
6433.6,-3.7951,16.194
6445.3,-5.4921,16.268
6457,-4.2323,13.973
6468.8,-4.8644,13.765
6480.5,-6.0323,15.683
6492.2,-6.2201,13.686
6503.9,-6.1138,15.41
6515.6,-6.5767,17.048
6527.3,-7.8686,13.97
6539.1,-5.369,11.2
6550.8,-4.3814,12.396
6562.5,-7.0406,15.916
6574.2,-11.111,15.955
6585.9,-9.2442,16.279
6597.7,-7.1541,14.42
6609.4,-5.1056,13.739
6621.1,-8.7789,15.163
6632.8,-4.7391,14.978
6644.5,-1.8374,14.175
6656.3,-4.9407,18.193
6668,-9.0109,15.753
6679.7,-6.5129,12.77
6691.4,-7.8643,10.708
6703.1,-7.2998,11.973
6714.8,-3.6,10.618
6726.6,-6.703,10.923
6738.3,-7.1461,14.806
6750,-3.3441,14.033
6761.7,-6.0661,12.732
6773.4,-7.7758,13.552
6785.2,-3.5354,16.136
6796.9,-5.6541,16.896
6808.6,-7.7475,13.742
6820.3,-4.257,15.099
6832,-3.2669,13.507
6843.8,-5.3946,12.739
6855.5,-8.7951,14.587
6867.2,-8.625,14.633
6878.9,-5.4827,12.99
6890.6,-6.3421,15.521
6902.3,-6.5043,14.63
6914.1,-3.7568,14.286
6925.8,-4.8349,13.701
6937.5,-5.7514,13.734
6949.2,-6.3215,15.327
6960.9,-8.1349,11.853
6972.7,-6.8781,12.509
6984.4,-8.732,11.245
6996.1,-7.0696,12.567
7007.8,-7.5403,14.133
7019.5,-5.988,13.719
7031.3,-5.6173,12.043
7043,-6.0203,14.316
7054.7,-7.0631,16.191
7066.4,-6.827,15.178
7078.1,-6.2482,12.749
7089.8,-6.0677,14.419
7101.6,-6.9791,14.295
7113.3,-6.6508,11.955
7125,-6.6007,16.12
7136.7,-5.1008,14.039
7148.4,-6.9627,13.8
7160.2,-6.623,12.035
7171.9,-6.902,13.836
7183.6,-5.725,13.05
7195.3,-5.4046,11.87
7207,-7.0702,13.099
7218.8,-8.3976,12.725
7230.5,-5.8593,13.691
7242.2,-7.5057,11.305
7253.9,-6.8621,13.04
7265.6,-4.3291,15.346
7277.3,-6.1505,16.527
7289.1,-6.8677,13.302
7300.8,-5.4961,12.724
7312.5,-6.0272,15.426
7324.2,-5.4962,13.532
7335.9,-8.4791,14.641
7347.7,-6.6462,16.197
7359.4,-6.3447,16.331
7371.1,-8.4865,13.369
7382.8,-5.8632,13.36
7394.5,-6.6731,15.483
7406.3,-11.668,13.459
7418,-8.6344,11.251
7429.7,-7.4854,11.733
7441.4,-7.0569,11.862
7453.1,-7.2436,13.144
7464.8,-7.2819,12.79
7476.6,-5.9956,13.361
7488.3,-6.3952,11.679
7500,-7.476,12.001
7511.7,-10.434,14.632
7523.4,-11.139,15.648
7535.2,-8.9019,13.112
7546.9,-10.91,13.544
7558.6,-8.6141,16.889
7570.3,-7.5171,14.725
7582,-7.7732,16.156
7593.8,-7.9027,13.547
7605.5,-5.5561,12.091
7617.2,-7.8495,12.465
7628.9,-8.7225,12.492
7640.6,-7.9394,16.245
7652.3,-9.6108,14.251
7664.1,-9.1636,11.233
7675.8,-8.6438,12.444
7687.5,-7.8929,13.833
7699.2,-8.6758,13.063
7710.9,-8.808,13.403
7722.7,-7.1662,14.245
7734.4,-9.8442,15.445
7746.1,-8.0682,13.472
7757.8,-7.8074,10.167
7769.5,-7.9522,12.874
7781.3,-6.6628,14.504
7793,-8.1276,9.4481
7804.7,-9.2735,10.545
7816.4,-3.639,11.107
7828.1,-2.6059,13.454
7839.8,-5.1732,14.449
7851.6,-6.8284,12.75
7863.3,-6.995,13.139
7875,-8.8378,13.111
7886.7,-9.8487,14.044
7898.4,-8.4629,14.729
7910.2,-8.9286,12.268
7921.9,-7.5463,13.55
7933.6,-6.9282,12.421
7945.3,-5.5107,10.617
7957,-6.9791,11.419
7968.8,-10.21,12.787
7980.5,-7.0569,14.339
7992.2,-6.7655,13.511
8003.9,-9.1148,12.355
8015.6,-10.307,14.316
8027.3,-9.7886,16.257
8039.1,-11.563,14.158
8050.8,-9.6303,12.121
8062.5,-6.8304,9.7479
8074.2,-8.5216,11.597
8085.9,-9.1322,12.898
8097.7,-12.502,11.909
8109.4,-7.6355,11.294
8121.1,-7.5529,11.112
8132.8,-7.0997,10.474
8144.5,-10.076,11.295
8156.3,-9.4123,12.52
8168,-6.7989,13.506
8179.7,-7.2275,13.926
8191.4,-7.0121,14.208
8203.1,-8.7249,12.616
8214.8,-10.528,10.979
8226.6,-11.167,10.959
8238.3,-10.679,9.7592
8250,-9.3851,11.451
8261.7,-11.259,13.487
8273.4,-9.3516,12.738
8285.2,-8.8839,14.136
8296.9,-8.1497,11.953
8308.6,-7.3466,11.534
8320.3,-8.5666,9.9635
8332,-9.1735,11.388
8343.8,-9.4572,12.549
8355.5,-9.6038,13.111
8367.2,-8.3212,12.789
8378.9,-10.691,13.734
8390.6,-12.733,15.046
8402.3,-14.269,13.145
8414.1,-11.245,12.589
8425.8,-9.2102,12.326
8437.5,-8.637,12.78
8449.2,-6.7908,14.934
8460.9,-4.7667,15.848
8472.7,-5.7649,13.488
8484.4,-8.3812,11.849
8496.1,-10.351,11.316
8507.8,-9.538,11.358
8519.5,-13.921,11.981
8531.3,-10.03,15.494
8543,-8.5426,14.877
8554.7,-8.881,11.147
8566.4,-9.1894,12.455
8578.1,-9.5695,11.879
8589.8,-10.86,11.118
8601.6,-11.423,12.202
8613.3,-12.795,14.262
8625,-11.027,12.966
8636.7,-10.903,10.796
8648.4,-11.415,13.328
8660.2,-7.0571,10.148
8671.9,-9.2724,10.862
8683.6,-14.855,14.516
8695.3,-10.858,14.652
8707,-9.6123,14.67
8718.8,-8.3533,14.427
8730.5,-6.5796,12.416
8742.2,-7.699,10.137
8753.9,-9.015,10.691
8765.6,-12.452,13.933
8777.3,-8.3688,14.043
8789.1,-7.5608,10.307
8800.8,-10.373,8.8668
8812.5,-10.275,10.058
8824.2,-12.66,10.637
8835.9,-11.713,13.482
8847.7,-10.351,13.08
8859.4,-9.1427,11.536
8871.1,-9.1063,10.877
8882.8,-9.6801,10.03
8894.5,-8.5861,12.254
8906.3,-9.5063,10.417
8918,-10.545,9.4245
8929.7,-14.126,13.074
8941.4,-11.2,13.327
8953.1,-8.9676,10.888
8964.8,-8.94,10.445
8976.6,-9.1945,10.106
8988.3,-9.9534,8.2091
9000,-11.704,10.136
9011.7,-9.9471,10.048
9023.4,-13.929,12.767
9035.2,-10.444,12.916
9046.9,-10.042,10.154
9058.6,-11.163,9.3626
9070.3,-12.529,7.6587
9082,-11.056,8.6124
9093.8,-9.9475,10.213
9105.5,-11.374,11.59
9117.2,-11.295,12.421
9128.9,-11.427,14.986
9140.6,-10.947,13.712
9152.3,-13.181,10.409
9164.1,-15.17,11.651
9175.8,-13.189,12.037
9187.5,-11.146,12.385
9199.2,-12.552,14.483
9210.9,-13.34,12.896
9222.7,-8.7898,9.556
9234.4,-8.7148,8.0758
9246.1,-10.239,11.987
9257.8,-11.982,12.935
9269.5,-12.801,12.257
9281.3,-11.005,13.343
9293,-7.9307,10.944
9304.7,-10.249,9.7413
9316.4,-14.209,9.2834
9328.1,-10.612,8.3793
9339.8,-11.418,11.497
9351.6,-15.573,14.286
9363.3,-13.691,13.4
9375,-13.229,11.01
9386.7,-10.033,10.455
9398.4,-8.3547,9.7656
9410.2,-10.538,9.4355
9421.9,-13.937,10.523
9433.6,-14.797,10.592
9445.3,-13.911,10.393
9457,-10.752,12.742
9468.8,-10.165,11.994
9480.5,-12.557,11.025
9492.2,-10.819,11.933
9503.9,-11.695,9.281
9515.6,-10.927,7.68
9527.3,-11.387,8.5347
9539.1,-10.187,8.3367
9550.8,-11.111,9.8048
9562.5,-11.679,6.3079
9574.2,-9.3752,5.5509
9585.9,-8.9383,10.111
9597.7,-9.0778,11.867
9609.4,-10.574,11.116
9621.1,-12.857,11.189
9632.8,-10.648,10.335
9644.5,-12.106,10.973
9656.3,-8.2872,13.354
9668,-7.5203,12.604
9679.7,-11.48,9.922
9691.4,-11.531,8.7526
9703.1,-12.999,8.3298
9714.8,-15.18,8.0328
9726.6,-13.843,11.503
9738.3,-10.194,14.518
9750,-7.9681,14.726
9761.7,-9.8795,14.037
9773.4,-13.099,12.87
9785.2,-10.108,12.995
9796.9,-11.915,12.323
9808.6,-10.912,11.463
9820.3,-14.509,11.27
9832,-15.205,12.329
9843.8,-12.511,12.858
9855.5,-12.477,10.676
9867.2,-10.36,8.6893
9878.9,-9.8984,9.2861
9890.6,-13.782,11.913
9902.3,-11.772,11.532
9914.1,-11.211,7.571
9925.8,-9.6887,8.5726
9937.5,-10.788,10.603
9949.2,-12.668,11.415
9960.9,-13.807,8.2385
9972.7,-12.872,7.4927
9984.4,-10.819,8.4824
9996.1,-10.333,8.1849
10008,-9.5864,7.7766
10020,-10.655,11.374
10031,-12.07,10.338
10043,-10.207,9.7541
10055,-11.274,8.3486
10066,-10.967,7.1121
10078,-6.1569,10.417
10090,-7.0329,11.568
10102,-9.6668,10.139
10113,-10.292,9.49
10125,-9.2512,10.201
10137,-6.722,9.6635
10148,-9.5573,8.3956
10160,-12.622,7.2941
10172,-11.394,9.7288
10184,-12.5,10.041
10195,-11.812,9.6529
10207,-12.113,9.6795
10219,-14.732,12.703
10230,-11.695,14.958
10242,-12.593,13.338
10254,-10.821,10.06
10266,-11.63,9.4794
10277,-11.034,10.859
10289,-11.639,11.971
10301,-10.105,12.509
10313,-11.452,12.346
10324,-13.31,9.9585
10336,-13.963,12.77
10348,-11.969,12.597
10359,-11.312,10.948
10371,-11.488,10.649
10383,-12.875,9.6517
10395,-14.649,6.3325
10406,-14.612,9.9677
10418,-13.005,11.889
10430,-12.872,11.463
10441,-12.401,10.026
10453,-9.8563,8.9706
10465,-10.545,8.1807
10477,-13.147,11.072
10488,-13.117,13.772
10500,-13.854,11.629
10512,-12.002,7.5225
10523,-10.315,7.0214
10535,-12.104,10.161
10547,-12.739,11.345
10559,-11.045,5.9233
10570,-11.223,6.3957
10582,-14.696,6.9643
10594,-14.803,7.7631
10605,-15.826,5.9917
10617,-16.483,7.3485
10629,-12.868,8.3969
10641,-10.813,8.1543
10652,-7.9854,10.356
10664,-9.6439,8.8469
10676,-11.002,9.6931
10688,-12.879,11.989
10699,-13.188,12.918
10711,-13.769,9.0782
10723,-14.676,7.8346
10734,-10.431,10.522
10746,-9.7611,9.0365
10758,-10.077,9.6753
10770,-11.462,7.8569
10781,-9.7431,6.489
10793,-11.06,5.7914
10805,-13.154,8.0039
10816,-13.086,9.8446
10828,-12.731,11.049
10840,-12.658,10.118
10852,-12.405,9.7327
10863,-10.046,8.7923
10875,-10.557,8.4759
10887,-12.79,9.3815
10898,-11.028,7.2191
10910,-10.418,9.9527
10922,-8.1764,8.4524
10934,-10.733,5.1842
10945,-8.7718,7.3776
10957,-10.041,6.6078
10969,-11.009,8.3952
10980,-11.306,9.7611
10992,-10.927,11.232
11004,-12.906,10.648
11016,-15.823,10.679
11027,-14.63,10.493
11039,-11.926,8.1115
11051,-11.318,6.2037
11063,-13.267,10.413
11074,-13.865,11.478
11086,-11.325,11.398
11098,-11.516,11.079
11109,-12.296,7.9461
11121,-11.493,9.6986
11133,-10.453,11.787
11145,-11.989,9.8916
11156,-13.748,8.1289
11168,-12.65,6.9985
11180,-9.8131,9.428
11191,-13.118,6.3429
11203,-14.557,9.0821
11215,-13.281,8.5455
11227,-11.319,10.62
11238,-13.647,9.1628
11250,-13.348,8.3668
11262,-14.737,9.8331
11273,-14.036,10.331
11285,-12.576,8.9428
11297,-10.813,9.5994
11309,-9.8383,8.3484
11320,-10.835,9.2671
11332,-11.163,7.1323
11344,-9.7835,9.7116
11355,-9.9915,9.7342
11367,-12.45,9.333
11379,-15.623,8.8236
11391,-13.873,9.5547
11402,-13.402,10.286
11414,-14.336,4.0651
11426,-15.961,8.9788
11438,-14.137,11.838
11449,-13.126,9.511
11461,-17.41,7.2704
11473,-12.873,4.5301
11484,-11.23,6.2356
11496,-9.8146,10.589
11508,-10.832,11.402
11520,-10.315,11.663
11531,-11.676,8.6909
11543,-12.919,7.9721
11555,-14.873,7.6534
11566,-13.997,8.4065
11578,-14.115,9.9688
11590,-16.124,9.6186
11602,-13.416,6.8742
11613,-14.587,8.5927
11625,-14.851,7.4974
11637,-12.423,6.0208
11648,-13.126,3.7377
11660,-14.95,4.414
11672,-12.286,7.4884
11684,-11.202,9.0761
11695,-11.569,8.5789
11707,-13.709,9.4613
11719,-15.453,10.54
11730,-15.667,11.302
11742,-13.669,8.5937
11754,-15.165,6.1908
11766,-15.518,7.811
11777,-13.09,7.344
11789,-11.237,10.257
11801,-12.461,9.9063
11813,-11.461,8.2395
11824,-10.498,9.492
11836,-11.442,7.9657
11848,-10.103,8.6148
11859,-9.4215,6.853
11871,-11.165,7.5429
11883,-14.549,8.1613
11895,-14.56,9.8345
11906,-14.599,9.0176
11918,-14.85,6.2865
11930,-14.131,11.598
11941,-12.175,7.8364
11953,-12.655,6.8924
11965,-13.644,8.9338
11977,-15.057,8.3082
11988,-15.86,6.3386
12000,-11.724,7.5898
12012,-12.785,8.2196
12023,-13.96,8.5444
12035,-15.837,8.3601
12047,-15.598,6.9474
12059,-14.542,5.2844
12070,-13.714,7.5467
12082,-13.385,8.1742
12094,-15.169,7.828
12105,-16.818,4.5148
12117,-19.404,6.3824
12129,-12.848,8.5942
12141,-11.517,7.5778
12152,-11.682,7.9928
12164,-13.214,9.2665
12176,-12.302,9.8103
12188,-12.92,8.7307
12199,-13.509,3.578
12211,-15.366,5.7194
12223,-10.405,7.2442
12234,-13.04,8.0231
12246,-15.521,7.4094
12258,-14.653,5.9326
12270,-13.686,7.9649
12281,-13.861,6.4677
12293,-12.59,5.0881
12305,-11.136,8.316
12316,-13.622,9.0141
12328,-16.718,7.3947
12340,-14.759,7.0064
12352,-13.33,7.097
12363,-15.32,6.553
12375,-13.827,9.7273
12387,-11.314,10.174
12398,-13.79,6.161
12410,-12.459,7.5757
12422,-13.163,8.6613
12434,-15.978,8.1338
12445,-14.721,7.7513
12457,-11.422,7.9222
12469,-9.1262,5.5503
12480,-10.711,7.3236
12492,-13.105,6.512
12504,-12.977,6.7278
12516,-11.375,6.019
12527,-13.315,6.6472
12539,-10.645,5.7335
12551,-13.384,7.089
12563,-17.444,6.8597
12574,-12.703,4.6761
12586,-14.309,5.9188
12598,-14.827,8.9347
12609,-14.546,9.0939
12621,-13.817,7.4022
12633,-11.419,7.4135
12645,-11.682,7.2516
12656,-14.382,4.2254
12668,-12.913,3.219
12680,-14.174,6.9676
12691,-13.137,9.4364
12703,-14.155,5.206
12715,-12.55,4.0725
12727,-14.279,7.7518
12738,-13.352,7.5477
12750,-11.445,6.7121
12762,-11.522,6.9647
12773,-13.583,4.7746
12785,-15.482,3.8137
12797,-15.81,6.0278
12809,-12.144,6.9212
12820,-11.994,5.4168
12832,-14.422,6.1794
12844,-14.457,8.4573
12855,-14.297,6.3653
12867,-13.295,6.0666
12879,-12.675,6.0767
12891,-13.169,4.2705
12902,-10.947,4.4597
12914,-11.105,5.7836
12926,-14.113,7.5065
12938,-13.604,6.527
12949,-12.911,6.9029
12961,-14.865,7.8229
12973,-13.022,7.3306
12984,-16.088,9.25
12996,-15.585,11.165
13008,-13.487,8.8656
13020,-13.077,6.8959
13031,-17.114,7.3525
13043,-13.839,7.3767
13055,-13.421,5.2372
13066,-15.17,2.904
13078,-16.666,3.1716
13090,-14.627,5.6094
13102,-14.2,9.282
13113,-15.951,9.7041
13125,-17.12,6.5199
13137,-15.192,6.322
13148,-16.013,9.4189
13160,-17.756,7.1209
13172,-12.95,3.0061
13184,-10.858,3.7066
13195,-10.206,7.2821
13207,-14.353,6.2958
13219,-12.306,6.0338
13230,-12.071,6.6166
13242,-16.675,6.3386
13254,-12.847,7.8455
13266,-12.834,7.1596
13277,-14.898,5.0366
13289,-15.027,3.6747
13301,-17.087,6.5106
13313,-14.146,7.322
13324,-16.125,5.311
13336,-16.572,7.3701
13348,-16.37,5.6655
13359,-14.078,0.54798
13371,-15.197,2.7409
13383,-18.415,5.2186
13395,-19.026,5.3403
13406,-14.796,4.4283
13418,-11.278,6.3098
13430,-10.63,8.6369
13441,-14.232,10.024
13453,-14.26,8.4102
13465,-13.128,6.439
13477,-12.894,5.6428
13488,-16.489,6.9036
13500,-17.114,5.9884
13512,-14.7,2.7179
13523,-13.166,6.0565
13535,-11.324,4.9694
13547,-13.331,2.5141
13559,-14.804,1.673
13570,-15.186,4.8815
13582,-13.86,7.4266
13594,-11.462,7.7823
13605,-11.446,7.9837
13617,-14.19,6.9428
13629,-15.511,4.2132
13641,-12.085,3.4638
13652,-13.348,4.2958
13664,-18.536,5.6274
13676,-15.711,5.7328
13688,-16.487,5.3165
13699,-19.285,6.8335
13711,-17.819,7.9149
13723,-16.159,6.7545
13734,-15.208,7.3203
13746,-14.767,4.8339
13758,-16.024,4.8174
13770,-14.668,4.8054
13781,-16.036,3.3893
13793,-15.538,3.3681
13805,-15.298,3.2586
13816,-14.73,3.1721
13828,-16.136,2.1028
13840,-19.184,2.6752
13852,-17.452,2.91
13863,-14.55,3.0577
13875,-14.511,5.7243
13887,-14.879,4.2267
13898,-14.26,2.5797
13910,-13.976,5.9999
13922,-16.471,6.5854
13934,-16.212,6.425
13945,-17.393,7.498
13957,-17.547,7.686
13969,-15.872,6.9923
13980,-15.05,5.9878
13992,-14.103,4.0944
14004,-17.656,4.1599
14016,-17.971,6.8022
14027,-15.104,5.8232
14039,-16.822,2.8923
14051,-14.617,3.5933
14063,-14.314,3.1093
14074,-17.489,6.2058
14086,-15.688,5.6519
14098,-16.076,4.2079
14109,-15.773,8.0294
14121,-14.092,11.246
14133,-15.707,7.2395
14145,-18.499,6.4305
14156,-20.517,6.2233
14168,-18.227,5.4781
14180,-15.392,6.2991
14191,-16.892,6.5417
14203,-15.23,5.2919
14215,-12.972,4.9619
14227,-14.102,5.9942
14238,-17.993,4.5977
14250,-15.382,4.3077
14262,-12.715,4.7272
14273,-15.952,3.4761
14285,-20.288,4.5904
14297,-18.915,6.8061
14309,-16.618,6.0526
14320,-16.153,5.8889
14332,-16.614,8.5931
14344,-15.3,6.503
14355,-13.839,1.7845
14367,-12.188,7.6501
14379,-16.545,6.5492
14391,-16.889,5.844
14402,-16.321,7.2587
14414,-14.871,3.2572
14426,-16.187,4.6113
14438,-17.973,4.0017
14449,-17.953,4.1179
14461,-17.255,4.9677
14473,-14.749,5.5808
14484,-16.32,6.9425
14496,-18.723,5.5183
14508,-14.802,5.0065
14520,-14.105,6.6901
14531,-14.563,4.047
14543,-14.579,6.1614
14555,-15.102,5.3788
14566,-18.546,5.822
14578,-17.824,4.4559
14590,-15.371,3.123
14602,-15.966,4.6245
14613,-17.338,4.4317
14625,-17.703,1.2047
14637,-18.791,4.3253
14648,-14.998,5.0755
14660,-12.758,2.7828
14672,-16.215,4.8001
14684,-15.664,2.5706
14695,-18.369,2.358
14707,-17.436,7.5612
14719,-14.701,9.033
14730,-12.813,8.4927
14742,-12.774,6.4269
14754,-13.475,5.9982
14766,-15.402,8.0062
14777,-16.864,9.9004
14789,-16.336,9.4398
14801,-18.072,6.7929
14813,-19.547,4.409
14824,-18.074,0.33831
14836,-16.279,3.014
14848,-14.915,4.8493
14859,-19.155,3.7264
14871,-19.186,4.2128
14883,-17.231,5.9383
14895,-17.995,5.0777
14906,-17.976,5.9356
14918,-14.998,5.8936
14930,-16.154,5.7088
14941,-16.278,5.4976
14953,-17.932,4.8537
14965,-16.62,4.9108
14977,-13.985,5.2806
14988,-15.983,3.4476
15000,-17.479,3.3341
15012,-19.269,3.9021
15023,-17.77,7.2564
15035,-16.642,6.8966
15047,-18.041,1.8923
15059,-16.964,3.8482
15070,-15.922,3.3971
15082,-16.962,4.0263
15094,-17.724,3.5247
15105,-18.666,6.6943
15117,-17.118,5.9679
15129,-17.01,3.5083
15141,-16.05,5.4764
15152,-15.83,0.4085
15164,-20.691,2.4265
15176,-17.692,2.4081
15188,-15.427,2.891
15199,-16.68,5.5404
15211,-16.26,6.0086
15223,-17.223,5.7424
15234,-18.13,3.0633
15246,-16.34,3.267
15258,-18.053,4.7067
15270,-16.305,6.444
15281,-16.147,6.6107
15293,-19.595,5.1772
15305,-18.792,3.4309
15316,-18.096,4.7575
15328,-16.234,4.171
15340,-16.439,4.2053
15352,-17.081,3.6199
15363,-17.985,3.9787
15375,-16.425,4.7005
15387,-18.191,6.0686
15398,-18.339,5.7504
15410,-18.185,3.7722
15422,-19.015,1.8751
15434,-17.245,2.5999
15445,-16.195,3.6985
15457,-16.145,2.0232
15469,-17.01,1.2731
15480,-19.408,0.44567
15492,-18.64,-0.8069
15504,-20.433,1.2164
15516,-20.851,5.5273
15527,-21.27,4.329
15539,-20.084,3.6371
15551,-19.061,3.4085
15563,-18.345,1.4228
15574,-18.429,3.3079
15586,-18.098,5.2362
15598,-18.606,4.1305
15609,-18.931,5.6829
15621,-17.6,4.1238
15633,-20.261,1.9203
15645,-21.293,1.2269
15656,-17.792,3.4802
15668,-18.051,3.2591
15680,-20.957,2.7195
15691,-21.674,4.7177
15703,-23.127,4.7109
15715,-20.192,3.0689
15727,-19.554,1.6388
15738,-15.912,-1.2859
15750,-15.166,4.6713
15762,-16.639,2.9719
15773,-17.954,-0.61291
15785,-17.979,1.9012
15797,-21.252,3.2696
15809,-22.19,3.8033
15820,-19.543,2.1805
15832,-20.222,2.0047
15844,-20.391,3.1201
15855,-18.64,3.0227
15867,-19.326,2.9677
15879,-20.047,5.4637
15891,-21.119,5.7327
15902,-18.867,1.9593
15914,-22.937,4.2704
15926,-21.405,5.6018
15938,-19.792,3.947
15949,-18.33,4.7517
15961,-20.584,3.5157
15973,-19.372,2.7009
15984,-19.657,3.2676
15996,-19.318,3.2259
16008,-20.127,1.0478
16020,-21.839,4.8597
16031,-21.232,5.4097
16043,-19.899,5.7408
16055,-20.868,4.5465
16066,-15.759,1.8695
16078,-16.932,1.5669
16090,-19.784,2.5604
16102,-21.605,3.0653
16113,-21.092,3.0975
16125,-21.943,3.0916
16137,-20.709,8.516
16148,-17.44,6.2604
16160,-18.668,3.4556
16172,-19.155,2.8212
16184,-17.344,2.5765
16195,-20.045,2.2872
16207,-18.166,3.3225
16219,-18.549,1.3554
16230,-19.381,0.60428
16242,-20.547,1.2646
16254,-20.561,3.8825
16266,-19.912,3.0469
16277,-18.388,3.0555
16289,-18.899,2.7517
16301,-22.936,2.252
16313,-17.964,0.98059
16324,-17.843,2.3197
16336,-20.352,3.3237
16348,-20.884,4.1293
16359,-22.122,5.075
16371,-22.481,1.4256
16383,-23.579,2.8069
16395,-21.563,3.533
16406,-19.814,4.8571
16418,-21.026,4.5531
16430,-20.695,2.1658
16441,-17.915,3.549
16453,-19.146,2.9505
16465,-19.638,1.2925
16477,-20.011,-0.15521
16488,-21.432,3.6325
16500,-18.622,1.7532
16512,-17.649,1.311
16523,-19.315,3.9582
16535,-21.091,5.2848
16547,-21.426,5.4406
16559,-18.783,4.588
16570,-18.355,2.9564
16582,-20.005,2.2733
16594,-20.077,2.2975
16605,-21.543,4.3355
16617,-20.585,4.8121
16629,-20.142,2.8244
16641,-21.862,4.0122
16652,-21.254,3.7086
16664,-21.572,3.6982
16676,-21.271,4.8206
16688,-19.708,3.4975
16699,-21.925,4.6928
16711,-19.438,2.8705
16723,-19.908,2.3497
16734,-18.915,3.9031
16746,-21.707,2.6092
16758,-19.947,0.974
16770,-20.158,2.4383
16781,-21.489,4.2823
16793,-20.579,2.4581
16805,-22.221,3.6421
16816,-20.245,5.824
16828,-18.657,1.6102
16840,-19.07,1.4593
16852,-19.266,2.7748
16863,-19.728,3.0389
16875,-18.328,4.3784
16887,-20.519,3.9539
16898,-19.665,2.0647
16910,-22.311,0.74585
16922,-20.985,4.0729
16934,-21.275,4.6077
16945,-21.66,4.8958
16957,-22.32,3.1115
16969,-22.134,1.0171
16980,-20.963,0.44896
16992,-21.624,1.4236
17004,-22.204,1.8222
17016,-19.423,0.91019
17027,-21.545,1.505
17039,-23.057,4.1034
17051,-21.605,1.2255
17063,-21.095,2.3822
17074,-20.524,3.6547
17086,-25.208,3.6226
17098,-22.04,-0.45609
17109,-19.276,1.0859
17121,-18.541,0.92868
17133,-20.877,2.4124
17145,-21.955,3.0148
17156,-20.326,1.9806
17168,-19.989,3.2952
17180,-19.954,4.1499
17191,-21.983,3.0305
17203,-22.248,1.7521
17215,-17.493,3.139
17227,-17.756,2.9339
17238,-18.056,2.984
17250,-19.802,1.6216
17262,-22.687,2.4903
17273,-22.31,3.6273
17285,-19.824,3.0012
17297,-20.631,3.1546
17309,-23.724,1.2706
17320,-23.028,1.144
17332,-19.678,2.3073
17344,-21.847,1.9942
17355,-22.842,3.2563
17367,-23.174,2.8526
17379,-25.504,2.9898
17391,-21.977,4.1268
17402,-18.803,2.2313
17414,-22.551,1.4646
17426,-24.311,0.60399
17438,-24.413,3.3702
17449,-21.897,3.3714
17461,-21.606,-0.68681
17473,-20.723,0.0065971
17484,-20.565,3.6842
17496,-21.654,2.0282
17508,-20.774,-0.15658
17520,-18.049,1.1705
17531,-18.442,1.8656
17543,-21.15,2.5004
17555,-20.544,1.7919
17566,-21.398,0.10707
17578,-21.483,-0.55937
17590,-23.733,2.9524
17602,-24.059,2.3375
17613,-25.047,1.0282
17625,-24.97,1.5312
17637,-22.765,3.0557
17648,-22.669,3.2027
17660,-23.22,3.3712
17672,-20.816,2.8481
17684,-22.28,2.7424
17695,-19.885,2.3783
17707,-19.053,2.7369
17719,-21.366,0.88051
17730,-23.202,2.5696
17742,-23.604,4.281
17754,-22.806,3.8097
17766,-22.21,2.3014
17777,-22.712,3.3387
17789,-22.956,5.6968
17801,-24.409,2.814
17813,-23.86,1.718
17824,-21.179,4.1873
17836,-20.436,3.5112
17848,-20.86,1.8353
17859,-23.884,0.93861
17871,-21.697,1.4615
17883,-20.042,2.7499
17895,-23.255,4.6098
17906,-21.566,2.9941
17918,-20.208,3.172
17930,-21.289,3.3893
17941,-21.994,1.7738
17953,-22.415,-1.8983
17965,-26.985,-0.67311
17977,-21.946,1.0887
17988,-20.084,3.8868
18000,-21.662,5.5843
18012,-23.55,2.408
18023,-24.045,-1.617
18035,-25.462,2.8162
18047,-22.844,2.9045
18059,-20.448,4.1805
18070,-20.687,3.1249
18082,-22.649,-0.49763
18094,-26.097,0.88776
18105,-24.032,1.3343
18117,-22.33,1.5871
18129,-22.176,1.581
18141,-23.207,4.3476
18152,-24.025,1.9828
18164,-27.66,-0.80613
18176,-25.272,-0.84889
18188,-22.431,0.85008
18199,-22.682,3.4391
18211,-21.277,2.2979
18223,-21.389,-1.6579
18234,-22.315,1.408
18246,-27.026,2.9373
18258,-24.076,3.5457
18270,-22.316,2.3562
18281,-23.317,2.4968
18293,-20.497,2.3869
18305,-20.513,0.98491
18316,-22.234,1.7309
18328,-24.942,0.83218
18340,-24.976,0.92522
18352,-21.466,-0.31851
18363,-20.711,-0.53525
18375,-20.797,-3.8363
18387,-21.161,2.9107
18398,-21.647,3.6875
18410,-22.992,1.8876
18422,-22.329,1.3591
18434,-20.168,-0.11388
18445,-20.617,-2.9246
18457,-22.387,0.20499
18469,-19.824,2.5828
18480,-20.468,1.844
18492,-23.729,-1.0727
18504,-23.207,-0.19953
18516,-22.399,1.5259
18527,-23.557,2.3349
18539,-26.171,0.83675
18551,-24.818,2.6153
18563,-23.626,2.5044
18574,-22.758,2.5196
18586,-24.77,3.4324
18598,-23.588,3.2474
18609,-26.795,1.3751
18621,-24.379,-1.8972
18633,-22.189,-2.172
18645,-24.446,1.2925
18656,-24.211,0.56225
18668,-22.729,-0.092407
18680,-27.471,1.4047
18691,-24.313,-0.034138
18703,-23.627,-3.1466
18715,-22.343,2.3977
18727,-22.776,2.6775
18738,-24.412,-0.70723
18750,-22.828,0.845
18762,-23.93,1.261
18773,-26.245,0.024229
18785,-22.567,0.63733
18797,-23.49,0.90731
18809,-24.378,0.045162
18820,-27.343,0.1574
18832,-27.409,1.3327
18844,-26.653,-0.43575
18855,-23.215,-1.465
18867,-23.934,-0.4398
18879,-24.894,0.5787
18891,-21.77,0.22099
18902,-20.77,1.6887
18914,-21.772,2.2846
18926,-24.982,3.6155
18938,-23.596,2.944
18949,-22.943,1.9337
18961,-27.831,1.6939
18973,-24.453,1.1197
18984,-24.357,-1.0104
18996,-21.605,1.5164
19008,-22.145,-1.3138
19020,-22.818,-1.6472
19031,-21.211,1.8637
19043,-22.36,1.9271
19055,-24.733,0.2457
19066,-23.75,-1.7207
19078,-22.744,-2.4375
19090,-20.518,-1.5225
19102,-22.747,-1.0275
19113,-26.113,1.2382
19125,-23.148,-1.4292
19137,-23.817,-2.3346
19148,-25.746,-1.9795
19160,-26.225,-3.0227
19172,-24.753,-4.7564
19184,-24.078,-3.9189
19195,-24.182,0.36712
19207,-23.247,0.67531
19219,-25.066,-1.9806
19230,-22.388,1.462
19242,-23.52,3.7061
19254,-26.407,1.7528
19266,-23.382,-0.10719
19277,-21.524,-0.40815
19289,-21.281,0.33341
19301,-22.48,1.015
19313,-25.222,-0.46949
19324,-23.699,0.62322
19336,-23.995,2.5394
19348,-27.241,0.63197
19359,-25.999,-0.54745
19371,-22.922,-2.2117
19383,-26.765,-0.035661
19395,-24.644,-0.90977
19406,-25.11,1.4223
19418,-26.149,2.2172
19430,-25.049,1.4336
19441,-25.619,-0.44248
19453,-26.017,-0.6639
19465,-25.314,-0.11081
19477,-26.226,0.53387
19488,-26.633,0.98628
19500,-26.519,1.6559
19512,-25.549,1.7791
19523,-26.09,0.31687
19535,-25.522,-0.26928
19547,-23.35,0.015564
19559,-25.548,0.95079
19570,-25.511,2.4435
19582,-27.083,2.6061
19594,-27.117,1.7758
19605,-27.575,1.6897
19617,-29.252,-0.50924
19629,-27.462,-1.6712
19641,-24.671,-0.26526
19652,-21.538,3.431
19664,-23.066,1.4056
19676,-26.374,-0.73862
19688,-26.326,0.15068
19699,-23.85,0.65363
19711,-24.68,2.5601
19723,-26.428,2.8808
19734,-25.344,-1.1565
19746,-24.457,0.36512
19758,-24.97,0.4031
19770,-24.992,-5.801
19781,-20.007,-1.5596
19793,-22.012,-2.8576
19805,-22.101,-0.64958
19816,-22.905,0.4714
19828,-23.856,-0.35281
19840,-27.35,-2.6733
19852,-25.862,-1.5998
19863,-26.88,-1.4956
19875,-21.923,-4.0414
19887,-22.962,-3.0113
19898,-28.308,-1.5667
19910,-27.839,-1.2531
19922,-24.412,-0.4599
19934,-24.765,0.27974
19945,-25.246,1.4469
19957,-25.697,2.7596
19969,-22.385,2.9711
19980,-22.58,2.3115
19992,-23.682,1.3355
20004,-25.434,-0.56648
20016,-25.874,-2.2118
20027,-26.82,-1.808
20039,-26.388,-2.6288
20051,-27.56,-2.3845
20063,-26.593,0.14446
20074,-23.81,-2.0303
20086,-23.294,-1.3559
20098,-22.204,-1.5487
20109,-23.062,-1.276
20121,-23.858,-3.0484
20133,-22.242,-0.44459
20145,-23.343,-1.0031
20156,-24.904,-2.4628
20168,-23.412,-2.2737
20180,-24.784,-2.4353
20191,-25.344,-4.8639
20203,-24.909,-2.2652
20215,-26.829,-2.2417
20227,-23.667,-2.2831
20238,-24.457,-1.5828
20250,-25.159,-0.44607
20262,-23.723,0.24974
20273,-24.067,-0.2811
20285,-25.502,-3.1622
20297,-25.448,-3.821
20309,-27.449,-1.0691
20320,-25.339,-0.28204
20332,-23.987,-1.1658
20344,-25.386,-2.4339
20355,-26.678,0.23701
20367,-25.026,-0.25932
20379,-24.418,-0.80865
20391,-23.728,0.18434
20402,-26.163,0.62814
20414,-25.098,-0.10399
20426,-24.449,-1.0736
20438,-22.781,-1.908
20449,-26.216,0.35924
20461,-25.825,1.2074
20473,-23.691,-0.61939
20484,-27.771,-1.4557
20496,-23.977,-2.4512
20508,-24.803,-3.9558
20520,-26.32,-0.57889
20531,-25.493,0.073679
20543,-26.078,-0.53347
20555,-27.336,-2.7465
20566,-27.17,-3.9826
20578,-24.068,-4.9186
20590,-22.8,0.013714
20602,-26.662,1.6894
20613,-26.859,0.84375
20625,-23.049,-0.97225
20637,-22.304,1.0827
20648,-25.469,-1.0021
20660,-26.155,0.11668
20672,-27.089,-1.0556
20684,-26.518,1.0847
20695,-28.078,1.5161
20707,-26.063,0.019294
20719,-24.328,-0.68772
20730,-24.367,-3.0948
20742,-26.103,-3.9226
20754,-25.141,-2.051
20766,-26.017,0.19678
20777,-25.475,1.6549
20789,-26.008,0.2661
20801,-29.408,0.53617
20813,-30.685,1.3321
20824,-29.47,1.1701
20836,-27.332,-1.1771
20848,-27.593,-2.032
20859,-26.851,-1.1732
20871,-27.089,2.0512
20883,-26.474,-0.66675
20895,-28.968,-2.2838
20906,-27.527,-2.1065
20918,-25.132,-0.94776
20930,-26.806,-1.2582
20941,-27.008,-2.1567
20953,-27.117,-3.1915
20965,-28.789,-4.97
20977,-28.151,-5.0102
20988,-25.9,-2.196
21000,-24.327,-2.9587
21012,-23.963,-2.3631
21023,-25.666,-1.8327
21035,-26.487,-0.7122
21047,-26.572,0.70463
21059,-27.737,-1.3547
21070,-28.604,-1.2838
21082,-26.297,-0.3598
21094,-24.18,-0.33848
21105,-24.523,-1.2199
21117,-26.531,0.52016
21129,-26.884,-1.0927
21141,-23.822,-4.743
21152,-26.989,-5.1475
21164,-26.954,-4.5595
21176,-22.733,-4.8046
21188,-23.733,-4.1468
21199,-25.266,-2.1485
21211,-24.733,-1.432
21223,-28.531,-2.4283
21234,-27.831,-2.7038
21246,-25.913,-2.3074
21258,-21.872,-3.5846
21270,-23.149,-4.9122
21281,-23.061,-3.8574
21293,-20.871,-2.1557
21305,-24.569,-1.472
21316,-29.128,1.8314
21328,-25.119,0.43924
21340,-23.03,-1.2612
21352,-25.634,-1.2077
21363,-25.689,-0.71323
21375,-23.708,1.7738
21387,-25.402,-4.1372
21398,-24.697,-1.7011
21410,-26.298,0.10906
21422,-24.514,1.1994
21434,-24.382,1.6981
21445,-22.863,1.0846
21457,-24.65,-1.7383
21469,-25.674,-1.745
21480,-23.979,0.037298
21492,-25.119,-0.4542
21504,-26.225,-1.9167
21516,-26.945,-2.3713
21527,-28.912,-1.4887
21539,-27.42,-1.7602
21551,-26.546,-3.5974
21563,-27.101,-0.15467
21574,-26.727,0.61365
21586,-23.921,-3.1477
21598,-24.223,-1.8586
21609,-23.952,-3.2254
21621,-24.653,-4.1024
21633,-25.183,-2.3241
21645,-26.521,-1.5543
21656,-27.349,-2.9188
21668,-28.555,-2.2688
21680,-26.557,-0.29704
21691,-24.874,-0.023713
21703,-25.362,0.097902
21715,-23.325,-2.0549
21727,-24.91,-3.1331
21738,-25.396,-1.7063
21750,-25.551,-1.4264
21762,-25.779,-0.74483
21773,-25.81,-2.301
21785,-26.924,-4.6494
21797,-27.056,-1.7104
21809,-28.947,-1.0306
21820,-27.997,-1.8572
21832,-26.019,-0.53172
21844,-25.559,-0.34772
21855,-26.015,-2.2443
21867,-28.574,-3.2223
21879,-31.124,-2.4623
21891,-27.451,-4.2846
21902,-26.225,-3.6793
21914,-23.831,-0.17541
21926,-26.18,0.19381
21938,-30.721,-2.2845
21949,-26.134,-5.8069
21961,-24.64,-4.2004
21973,-23.14,-1.3708
21984,-22.155,-1.0793
21996,-23.457,-1.5518
22008,-26.015,-1.9856
22020,-26.564,-2.0237
22031,-21.356,-0.21254
22043,-23.651,-0.038531
22055,-26.944,-1.9922
22066,-25.215,-3.7535
22078,-27.931,0.029182
22090,-25.433,1.8284
22102,-25.973,-0.73286
22113,-27.299,0.26081
22125,-28.824,-0.045397
22137,-29.807,-3.8054
22148,-29.891,-5.0053
22160,-29.56,-4.6362
22172,-28.455,-2.0997
22184,-28.498,-0.17096
22195,-23.858,2.0411
22207,-24.346,-0.41854
22219,-26.719,-1.6446
22230,-27.343,-2.3268
22242,-28.798,-5.1976
22254,-24.516,-1.9258
22266,-25.119,-1.4616
22277,-31.168,-1.3032
22289,-28.691,-2.3396
22301,-29.152,-3.7485
22313,-29.665,-0.10225
22324,-27.307,-1.5771
22336,-26.249,-1.796
22348,-26.953,0.20843
22359,-26.546,-2.8342
22371,-25.756,-0.75743
22383,-26.661,-0.10995
22395,-28.893,-4.3844
22406,-27.508,-6.0129
22418,-29.386,-7.0842
22430,-33.414,-4.2759
22441,-26.433,-2.9598
22453,-25.831,-2.1752
22465,-23.887,-2.4046
22477,-25.964,-5.3795
22488,-26.898,-6.2146
22500,-23.571,-4.656
22512,-22.993,-4.3749
22523,-23.436,-5.1172
22535,-24.046,-3.1353
22547,-23.469,-3.7683
22559,-26.001,-5.4087
22570,-26.719,-4.4749
22582,-24.729,-1.8597
22594,-25.713,-3.7559
22605,-29.314,-6.4115
22617,-24.794,-4.2635
22629,-27.373,-2.3002
22641,-31.555,-2.666
22652,-30.934,-10.773
22664,-30.029,-3.8598
22676,-31.372,-1.358
22688,-27.956,-1.0749
22699,-28.952,-2.7204
22711,-26.049,-3.1157
22723,-26.865,-3.7319
22734,-30.108,-6.6825
22746,-32.106,-4.4881
22758,-30.466,-2.246
22770,-30.422,-2.5609
22781,-28.862,-2.5142
22793,-25.093,-3.0866
22805,-22.942,-4.0105
22816,-23.097,-3.5042
22828,-22.725,-4.631
22840,-24.413,-0.51761
22852,-28.994,-0.058946
22863,-29.945,-2.9533
22875,-28.192,-3.6747
22887,-27.447,-5.0477
22898,-27.718,-5.1375
22910,-25.756,-5.5439
22922,-25.928,-8.7157
22934,-25.838,-5.483
22945,-29.875,-2.7539
22957,-29.164,-0.80315
22969,-29.069,-0.14665
22980,-28.622,-5.3013
22992,-31.513,-7.1256
23004,-29.037,-2.6971
23016,-26.334,-0.24621
23027,-26.126,-2.6342
23039,-28.194,-3.8856
23051,-29.299,-2.7084
23063,-31.044,-1.4633
23074,-31.138,-5.4419
23086,-29.227,-3.7387
23098,-28.418,-2.8154
23109,-27.203,-4.6858
23121,-25.583,-3.6801
23133,-24.444,-4.1555
23145,-26.76,-4.7782
23156,-29.039,-3.7512
23168,-29.38,-2.9932
23180,-31.819,-1.3319
23191,-30.903,-0.70577
23203,-29.328,-0.97255
23215,-27.089,-1.2534
23227,-29.179,-3.0687
23238,-27.638,-4.6293
23250,-25.367,-4.9732
23262,-26.296,-4.0845
23273,-27.989,-3.5164
23285,-29.256,-2.6436
23297,-29.773,-3.6584
23309,-26.013,-2.439
23320,-26.739,-3.117
23332,-27.12,-1.4295
23344,-27.883,-2.2637
23355,-29.685,-3.6552
23367,-29.157,-2.7438
23379,-26.344,-3.1343
23391,-29.138,-3.4011
23402,-29.001,-4.9798
23414,-25.996,-1.4577
23426,-28.622,-1.4049
23438,-27.395,-2.8768
23449,-29.103,-5.6299
23461,-26.575,-4.9562
23473,-26.268,-3.7854
23484,-27.935,-1.7941
23496,-26.162,-3.1548
23508,-29.159,-2.7848
23520,-28.692,-2.1608
23531,-27.819,-5.226
23543,-26.681,-4.979
23555,-26.35,-5.0705
23566,-26.151,-5.7576
23578,-27.285,-4.4233
23590,-30.003,-4.0341
23602,-32.874,-5.4411
23613,-28.941,-4.217
23625,-28.067,-3.5234
23637,-28.745,-4.4115
23648,-26.285,-3.6514
23660,-26.026,-4.5266
23672,-27.572,-5.3339
23684,-28.293,-4.7861
23695,-31.845,-3.4022
23707,-32.726,-5.1589
23719,-29.278,-3.7506
23730,-26.297,-2.8512
23742,-24.606,-3.2613
23754,-26.007,-3.4538
23766,-24.546,-5.6963
23777,-26.658,-7.4729
23789,-28.612,-3.6859
23801,-28.181,-3.9384
23813,-28.044,-4.6904
23824,-29.178,-3.4901
23836,-26.754,-2.6801
23848,-27.69,-4.282
23859,-26.194,-3.3716
23871,-25.516,-1.2248
23883,-28.463,-2.6206
23895,-27.864,-5.7337
23906,-28.281,-4.7447
23918,-27.282,-5.357
23930,-28.812,-4.5382
23941,-29.406,-2.499
23953,-24.575,-2.7968
23965,-25.995,-3.1291
23977,-26.481,-6.4264
23988,-28.253,-4.3388
