FFT,Power Spectrum
Frequency[Hz],Level-L[dB],Level-R[dB]
11.719,-19.556,-18.795
23.438,0.43546,0.30909
35.156,-2.1302,5.115
46.875,3.7674,9.1516
58.594,3.1566,12.185
70.313,1.3931,14.964
82.031,3.15,16.729
93.75,8.8219,16.441
105.47,8.0465,16.117
117.19,9.4396,19.675
128.91,9.078,21.427
140.63,12.429,18.113
152.34,8.6147,18.928
164.06,3.521,22.078
175.78,0.20822,21.944
187.5,4.13,21.742
199.22,4.2174,22.824
210.94,3.6452,22.78
222.66,4.0025,21.781
234.38,7.0811,19.366
246.09,5.1333,23.149
257.81,7.1378,25.944
269.53,6.1697,27.292
281.25,7.8842,25.684
292.97,6.8887,21.225
304.69,4.9275,24.029
316.41,5.009,26.098
328.13,7.4222,26.194
339.84,7.8066,26.292
351.56,6.7421,23.556
363.28,4.4153,24.617
375,7.9006,27.131
386.72,8.887,24.223
398.44,7.9132,25.74
410.16,8.2499,27.483
421.88,10.741,26.949
433.59,11.559,24.469
445.31,31.305,25.317
457.03,40.819,27.814
468.75,37.976,25.958
480.47,18.296,24.779
492.19,4.0807,26.345
503.91,3.7229,26.908
515.63,4.7562,26.012
527.34,5.3288,23.916
539.06,5.1359,25.133
550.78,3.9253,26.481
562.5,3.5005,23.373
574.22,7.2273,24.058
585.94,7.3077,27.894
597.66,5.006,25.066
609.38,5.8293,23.39
621.09,4.9279,25.674
632.81,4.4517,27.234
644.53,5.2429,25.699
656.25,5.3845,24.791
667.97,5.4113,25.571
679.69,5.1611,25.881
691.41,5.7162,25.657
703.13,3.148,24.726
714.84,1.9534,25.472
726.56,3.6691,25.542
738.28,4.7705,24.879
750,7.6513,24.186
761.72,7.7139,23.78
773.44,6.8188,26.43
785.16,6.3675,26.087
796.88,6.6623,22.928
808.59,2.5678,23.718
820.31,4.5482,23.848
832.03,6.0836,23.024
843.75,7.0544,24.229
855.47,3.8683,24.02
867.19,5.0988,25.781
878.91,3.0542,27.029
890.63,6.0942,26.209
902.34,7.3974,21.458
914.06,8.3841,25.391
925.78,7.3819,25.438
937.5,4.3664,24.822
949.22,3.5814,25.522
960.94,4.0051,25.194
972.66,6.9605,24.323
984.38,6.1561,24.325
996.09,3.9724,19.632
1007.8,5.8791,22.339
1019.5,6.5915,26.272
1031.3,6.279,27.965
1043,6.6562,24.949
1054.7,7.9522,20.676
1066.4,7.5691,23.85
1078.1,5.2463,24.653
1089.8,5.3411,23.879
1101.6,3.5523,23.486
1113.3,4.8542,23.274
1125,4.8082,20.768
1136.7,6.1188,23.762
1148.4,5.1269,24.923
1160.2,5.9002,21.636
1171.9,5.4724,24.518
1183.6,3.9472,24.774
1195.3,5.1746,21.744
1207,5.6692,20.714
1218.8,2.7969,21.214
1230.5,4.0118,24.507
1242.2,6.1319,23.643
1253.9,5.1546,22.602
1265.6,4.3252,24.72
1277.3,7.815,25.174
1289.1,8.2147,24.693
1300.8,2.7402,25.292
1312.5,2.5254,25.466
1324.2,1.6734,21.372
1335.9,1.4753,23.914
1347.7,3.4416,25.069
1359.4,3.9786,24.423
1371.1,5.1678,22.201
1382.8,6.3208,22.95
1394.5,5.9721,25.432
1406.3,5.7987,20.599
1418,2.2105,21.903
1429.7,2.411,24.728
1441.4,2.4652,22.651
1453.1,4.4259,19.989
1464.8,5.6886,21.147
1476.6,2.6932,19.789
1488.3,5.1311,24.069
1500,5.4697,23.937
1511.7,6.8182,24.127
1523.4,5.6434,23.209
1535.2,3.7887,22.532
1546.9,4.2598,21.732
1558.6,3.9448,22.19
1570.3,6.9986,21.466
1582,6.209,21.443
1593.8,3.9269,22.366
1605.5,1.5569,20.444
1617.2,0.41026,21.689
1628.9,4.0853,22.602
1640.6,4.1743,22.324
1652.3,1.4648,24.842
1664.1,3.9872,25.744
1675.8,3.2772,25.292
1687.5,5.142,24.325
1699.2,4.7703,23.901
1710.9,5.0867,22.291
1722.7,2.1363,20.466
1734.4,0.27527,19.839
1746.1,0.95902,20.554
1757.8,0.70746,21.726
1769.5,3.0161,21.271
1781.3,4.1264,21.036
1793,8.4578,23.703
1804.7,7.1341,23.729
1816.4,4.4725,22.058
1828.1,4.2138,20.831
1839.8,5.4538,22.677
1851.6,3.0467,22.02
1863.3,4.1198,21.903
1875,5.8138,19.9
1886.7,5.2605,17.546
1898.4,4.1943,19.389
1910.2,0.068513,23.817
1921.9,-0.43305,23.006
1933.6,-1.5835,19.579
1945.3,1.5564,19.982
1957,5.0405,20.443
1968.8,3.2374,22.004
1980.5,1.1515,20.342
1992.2,2.6815,20.507
2003.9,1.7667,20.21
2015.6,2.8495,20.391
2027.3,1.4577,20.717
2039.1,-0.74583,22.777
2050.8,0.0016228,21.752
2062.5,1.8549,20.17
2074.2,2.6971,19.654
2085.9,1.668,18.862
2097.7,3.4718,19.245
2109.4,3.3845,20.599
2121.1,0.96857,23.041
2132.8,2.8266,23.222
2144.5,4.0316,21.398
2156.3,4.8435,19.177
2168,4.7853,21.68
2179.7,1.8872,19.396
2191.4,0.27772,19.558
2203.1,2.4507,22.923
2214.8,2.2923,18.13
2226.6,5.6886,22.527
2238.3,6.6195,22.77
2250,4.2348,21.515
2261.7,1.8836,19.681
2273.4,2.7245,15.848
2285.2,2.841,20.879
2296.9,3.8734,21.52
2308.6,5.0805,19.753
2320.3,3.2787,21.428
2332,1.9313,21.745
2343.8,3.5172,20.896
2355.5,4.5945,17.996
2367.2,4.9726,18.444
2378.9,0.88649,21.608
2390.6,1.186,22.426
2402.3,2.434,23.364
2414.1,2.4137,23.355
2425.8,0.6073,21.263
2437.5,4.4379,22.84
2449.2,2.2641,19.901
2460.9,-0.44111,18.138
2472.7,-1.6682,20.957
2484.4,-0.66451,21.895
2496.1,-0.6933,21.748
2507.8,2.0924,22.356
2519.5,2.796,22.706
2531.3,1.5322,18.314
2543,-0.12002,19.423
2554.7,0.12058,19.612
2566.4,1.6999,21.434
2578.1,1.784,23.584
2589.8,1.7944,24.283
2601.6,1.7426,22.76
2613.3,2.1518,20.841
2625,-1.1402,19.6
2636.7,-1.1657,19.438
2648.4,0.82266,21.961
2660.2,-0.73921,23.422
2671.9,-0.97073,18.983
2683.6,0.18688,17.103
2695.3,1.1811,17.722
2707,-2.1847,19.849
2718.8,-0.75895,20.533
2730.5,-1.0957,19.413
2742.2,0.046418,23.273
2753.9,-2.1398,23.102
2765.6,-3.1849,20.462
2777.3,-0.82118,20.169
2789.1,-1.276,23.714
2800.8,-3.1933,22.321
2812.5,0.97436,20.166
2824.2,1.394,19.851
2835.9,-0.47621,18.249
2847.7,-0.56062,17.999
2859.4,-2.8618,15.774
2871.1,-5.8671,18.064
2882.8,0.11773,17.718
2894.5,-0.54415,17.029
2906.3,-0.3996,18.041
2918,-0.096568,20.149
2929.7,-3.5081,22.691
2941.4,-2.1799,22.695
2953.1,0.18701,18.404
2964.8,1.4042,21.976
2976.6,0.87169,23.144
2988.3,4.7614,20.157
3000,3.1251,18.546
3011.7,0.72963,18.238
3023.4,-2.029,17.818
3035.2,-0.40531,15.886
3046.9,-0.33421,18.503
3058.6,-1.7853,17.888
3070.3,-1.1913,19.164
3082,0.7864,21.324
3093.8,-1.2179,19.005
3105.5,-3.0828,16.943
3117.2,1.7339,21.023
3128.9,2.6455,22.674
3140.6,-1.8492,21.271
3152.3,1.7559,16.833
3164.1,2.8858,18.946
3175.8,0.17161,17.472
3187.5,-3.1956,18.789
3199.2,-1.8235,20.142
3210.9,-3.233,19.914
3222.7,-2.8556,17.539
3234.4,-3.5636,19.648
3246.1,-1.5369,20.189
3257.8,0.736,19.842
3269.5,0.29987,16.962
3281.3,0.86608,17.18
3293,0.59697,20.558
3304.7,-2.6274,19.194
3316.4,-0.29021,16.213
3328.1,0.78749,16.895
3339.8,0.68396,18.057
3351.6,0.47745,18.025
3363.3,1.4924,16.209
3375,-0.059768,16.537
3386.7,-2.1591,19.955
3398.4,-1.1566,19.922
3410.2,0.44631,17.876
3421.9,-1.4821,18.011
3433.6,-2.9997,18.527
3445.3,-0.86518,19.758
3457,-2.9525,20.866
3468.8,-0.10185,21.156
3480.5,-1.9327,17.937
3492.2,-1.0035,19.85
3503.9,-2.0356,19.36
3515.6,-0.15706,17.634
3527.3,0.11056,17.086
3539.1,0.89133,15.977
3550.8,-1.7909,16.399
3562.5,-1.0963,20.354
3574.2,0.15198,20.813
3585.9,-0.3432,18.806
3597.7,-0.79262,15.4
3609.4,-0.65045,19.488
3621.1,-4.4803,19.529
3632.8,-3.383,18.3
3644.5,-4.2027,19.598
3656.3,-0.33563,17.481
3668,-0.17825,16.507
3679.7,-2.5957,20.029
3691.4,-1.2664,19.212
3703.1,-1.2537,21.101
3714.8,-1.8393,18.742
3726.6,-2.3186,18.038
3738.3,-4.1214,16.014
3750,-1.3269,15.547
3761.7,0.63088,16.413
3773.4,-2.2257,16.612
3785.2,-4.4676,17.649
3796.9,-5.5489,17.956
3808.6,-2.3161,16.773
3820.3,-1.3633,15.768
3832,0.36797,15.839
3843.8,0.24838,16.371
3855.5,-0.13331,17.351
3867.2,0.93454,18.917
3878.9,0.13442,17.193
3890.6,-1.639,17.416
3902.3,-2.5721,19.921
3914.1,-1.2916,18.401
3925.8,-2.1426,17.747
3937.5,-0.62672,19.964
3949.2,-4.8678,19.354
3960.9,-4.3356,21.898
3972.7,-2.4295,19.628
3984.4,-1.7938,19.763
3996.1,-2.6004,19.905
4007.8,-3.8025,14.061
4019.5,-3.0807,13.667
4031.3,-3.626,15.241
4043,-4.3001,14.187
4054.7,-3.6903,19.68
4066.4,-3.3479,20.39
4078.1,-3.048,18.49
4089.8,-1.3575,16.798
4101.6,-2.3046,16.381
4113.3,-5.2765,15.948
4125,-2.6465,17.171
4136.7,-2.8674,17.21
4148.4,-1.1026,18.096
4160.2,-2.5161,18.621
4171.9,-0.87796,20.792
4183.6,-3.9823,18.313
4195.3,-3.9916,17.83
4207,-2.8856,17.555
4218.8,-3.4491,17.453
4230.5,-4.2229,16.198
4242.2,-4.8223,17.425
4253.9,-4.3234,17.797
4265.6,-1.754,15.37
4277.3,1.6035,17.357
4289.1,-1.1738,14.207
4300.8,-3.538,17.297
4312.5,-4.1579,15.182
4324.2,-1.3798,16.031
4335.9,-1.8045,15.555
4347.7,-7.0153,17.527
4359.4,-4.6269,18.337
4371.1,-1.9516,19.572
4382.8,-1.953,18.025
4394.5,-2.2999,13.684
4406.3,-2.182,15.39
4418,-1.5338,17.891
4429.7,-1.5916,15.554
4441.4,-4.0547,15.704
4453.1,-7.2011,18.341
4464.8,-7.0839,18.305
4476.6,-2.3262,16.846
4488.3,-2.369,18.146
4500,-3.6035,16.931
4511.7,-6.3526,16.05
4523.4,-4.7692,19.285
4535.2,-3.8156,18.459
4546.9,-2.9105,16.528
4558.6,-2.2059,15.396
4570.3,-3.9149,17.248
4582,-4.6299,18.519
4593.8,-7.4211,16.315
4605.5,-4.8631,15.528
4617.2,-4.0091,17.831
4628.9,-1.7563,17.863
4640.6,-3.5289,19.059
4652.3,-6.2067,19.49
4664.1,-3.3898,15.07
4675.8,-1.33,16.904
4687.5,-2.8214,15.312
4699.2,-4.7786,14.063
4710.9,-4.2922,12.92
4722.7,-2.6554,13.039
4734.4,-4.2335,15.403
4746.1,-5.5885,16.632
4757.8,-4.5032,16.992
4769.5,-3.8592,15.505
4781.3,-4.1874,16.643
4793,-5.2989,16.727
4804.7,-3.3956,17.343
4816.4,-2.3917,16.887
4828.1,-3.4194,16.252
4839.8,-0.63837,14.5
4851.6,-0.021071,16.901
4863.3,0.24072,19.099
4875,-1.1063,19.195
4886.7,-2.5375,15.353
4898.4,-4.9526,13.43
4910.2,-4.4615,16.307
4921.9,-1.7735,16.141
4933.6,-4.699,15.464
4945.3,-5.0082,16.324
4957,-5.2498,17.412
4968.8,-6.3568,18.429
4980.5,-4.2487,15.283
4992.2,-3.0771,13.554
5003.9,-5.2827,15.199
5015.6,-3.104,15.251
5027.3,-3.7837,17.289
5039.1,-1.4463,18.053
5050.8,1.5014,17.073
5062.5,0.41955,16.206
5074.2,-3.2178,17.717
5085.9,-2.4896,16.931
5097.7,-2.3746,15.412
5109.4,-3.6937,15.773
5121.1,-2.7949,17.002
5132.8,-3.3348,15.665
5144.5,-3.5868,14.788
5156.3,-4.1014,15.248
5168,-4.4281,13.658
5179.7,-2.6684,16.998
5191.4,-5.469,16.392
5203.1,-6.5895,15.078
5214.8,-2.4006,15.315
5226.6,-1.0508,16.329
5238.3,-2.9894,13.63
5250,-4.1469,9.3245
5261.7,-5.959,14.187
5273.4,-5.4653,15.216
5285.2,-1.8219,15.532
5296.9,-2.3117,14.902
5308.6,-2.5948,13.626
5320.3,-1.9984,14.908
5332,-2.6352,16.21
5343.8,-2.9655,17.398
5355.5,-4.3883,16.211
5367.2,-4.0757,13.143
5378.9,-2.4784,15.062
5390.6,-4.7876,16
5402.3,-5.3892,19.07
5414.1,-5.0291,17.303
5425.8,-7.2883,16.022
5437.5,-7.0424,16.368
5449.2,-3.3315,15.956
5460.9,-2.9491,14.07
5472.7,-4.4934,13.534
5484.4,-5.1772,11.631
5496.1,-4.9172,15.53
5507.8,-2.5908,17.536
5519.5,-3.2871,15.529
5531.3,-4.9199,15.535
5543,-5.7638,12.661
5554.7,-6.0182,13.427
5566.4,-6.5819,14.737
5578.1,-7.5853,15.031
5589.8,-2.0452,12.825
5601.6,-1.4927,14.771
5613.3,-1.7264,14.36
5625,-1.7413,14.926
5636.7,-3.3372,15.379
5648.4,-4.6919,13.398
5660.2,-4.4151,12.808
5671.9,-5.2123,14.489
5683.6,-3.6304,14.303
5695.3,-3.5775,14.017
5707,-5.5682,12.248
5718.8,-5.2121,12.51
5730.5,-4.9194,10.438
5742.2,-5.1004,12.058
5753.9,-1.8987,12.83
5765.6,-6.3573,14.966
5777.3,-6.5664,17.745
5789.1,-3.2249,15.263
5800.8,-3.2615,11.083
5812.5,-5.8313,13.948
5824.2,-6.1447,11.88
5835.9,-8.8062,12.889
5847.7,-7.1905,13.56
5859.4,-4.2285,12.729
5871.1,-1.7327,12.127
5882.8,-3.409,14.12
5894.5,-3.6602,16.689
5906.3,-1.8805,14.646
5918,-2.2185,13.333
5929.7,-6.8561,14.645
5941.4,-7.0739,17.229
5953.1,-6.2748,16.675
5964.8,-6.0324,14.957
5976.6,-7.8738,15.514
5988.3,-8.7928,13.821
6000,-4.3545,14.175
6011.7,-3.0221,15.968
6023.4,-5.141,15.214
6035.2,-5.8547,14.412
6046.9,-2.5508,14.767
6058.6,-5.5851,14.621
6070.3,-3.737,14.92
6082,-4.1939,13.467
6093.8,-6.2687,13.022
6105.5,-8.0294,14.397
6117.2,-5.4387,12.766
6128.9,-3.2202,14.039
6140.6,-3.9203,14.345
6152.3,-5.0056,14.105
6164.1,-6.0319,14.934
6175.8,-7.0694,16.83
6187.5,-4.5751,18.391
6199.2,-2.6683,14.986
6210.9,-3.6951,14.12
6222.7,-5.5735,11.635
6234.4,-4.44,16.129
6246.1,-2.5878,17.465
6257.8,-1.7165,14.914
6269.5,-6.8577,13.631
6281.3,-6.5103,13.057
6293,-5.1018,15.644
6304.7,-7.8025,13.38
6316.4,-8.2059,14.433
6328.1,-5.3467,14.829
6339.8,-4.6135,13.912
6351.6,-3.5679,12.381
6363.3,-6.2055,12.929
6375,-5.0826,14.764
6386.7,-4.3179,13.449
6398.4,-4.3249,11.992
6410.2,-5.6619,14.399
6421.9,-5.6774,10.383
6433.6,-7.6592,11.864
6445.3,-9.9644,12.594
6457,-7.0384,13.721
6468.8,-6.6359,14.786
6480.5,-9.7265,13.095
6492.2,-7.7255,12.274
6503.9,-6.6026,11.698
6515.6,-6.6175,12.315
6527.3,-8.2352,14.137
6539.1,-9.0168,15.04
6550.8,-5.0916,15.715
6562.5,-3.6902,15.623
6574.2,-2.8296,12.486
6585.9,-3.968,11.512
6597.7,-5.6211,10.164
6609.4,-7.2929,14.64
6621.1,-4.2277,16.528
6632.8,-5.1565,15.152
6644.5,-5.9642,13.95
6656.3,-4.3978,11.228
6668,-6.7919,12.629
6679.7,-8.2827,12.445
6691.4,-8.7296,14.417
6703.1,-7.2509,13.588
6714.8,-6.0689,13.075
6726.6,-6.2428,14.497
6738.3,-7.5535,13.373
6750,-6.653,14.123
6761.7,-7.9636,15.799
6773.4,-8.3688,16.461
6785.2,-6.6786,15.771
6796.9,-7.4012,13.907
6808.6,-8.9188,15.587
6820.3,-10.78,13.028
6832,-7.349,16.32
6843.8,-6.7322,15.928
6855.5,-8.5139,16.17
6867.2,-7.1461,15.085
6878.9,-5.8436,13.453
6890.6,-1.6882,12.304
6902.3,-0.27494,15.313
6914.1,-3.9839,14.327
6925.8,-9.1605,14.187
6937.5,-8.3435,13.609
6949.2,-7.9448,13.972
6960.9,-8.2311,12.936
6972.7,-3.8592,13.459
6984.4,-4.0402,16.658
6996.1,-7.612,15.478
7007.8,-7.2005,15.622
7019.5,-4.4944,15.374
7031.3,-5.6263,15.14
7043,-9.0314,15.187
7054.7,-9.3118,13.984
7066.4,-5.2697,10.819
7078.1,-5.7038,12.939
7089.8,-8.1913,14.449
7101.6,-6.1657,15.251
7113.3,-7.0682,14.276
7125,-7.4807,9.3089
7136.7,-5.7723,10.939
7148.4,-4.9159,13.715
7160.2,-5.9368,13.111
7171.9,-6.2937,14.783
7183.6,-7.5939,14.233
7195.3,-8.5106,12.455
7207,-7.5862,11.178
7218.8,-8.4839,9.9422
7230.5,-5.7265,10.318
7242.2,-6.5153,9.9468
7253.9,-7.5239,10.311
7265.6,-7.7337,11.433
7277.3,-10.289,13.9
7289.1,-9.7945,13.042
7300.8,-5.676,9.7113
7312.5,-4.1044,12.074
7324.2,-6.5446,12.121
7335.9,-9.7001,13.064
7347.7,-6.1657,14.491
7359.4,-4.7268,14.33
7371.1,-8.7241,12.53
7382.8,-10.039,9.4056
7394.5,-11.336,11.879
7406.3,-6.635,8.666
7418,-4.551,9.988
7429.7,-8.125,10.614
7441.4,-11.128,16.059
7453.1,-7.863,15.989
7464.8,-7.7426,13.264
7476.6,-9.0994,14.694
7488.3,-11.299,14.377
7500,-11.133,14.943
7511.7,-7.8209,14.73
7523.4,-6.3485,13.675
7535.2,-9.265,12.038
7546.9,-9.3906,11.006
7558.6,-9.5122,10.893
7570.3,-10.222,9.3476
7582,-12.13,12.571
7593.8,-9.5286,12.515
7605.5,-8.938,13.753
7617.2,-8.4437,13.774
7628.9,-5.2842,10.125
7640.6,-6.9367,10.335
7652.3,-10.94,12.382
7664.1,-8.2486,12.9
7675.8,-6.5212,14.503
7687.5,-6.5843,14.908
7699.2,-8.7396,12.401
7710.9,-5.5686,11.933
7722.7,-6.3179,11.28
7734.4,-8.4457,9.9549
7746.1,-8.1401,14.56
7757.8,-10.477,15.231
7769.5,-10.926,12.922
7781.3,-7.9614,10.312
7793,-8.2451,10.536
7804.7,-11.376,11.311
7816.4,-13.312,10.774
7828.1,-11.192,11.176
7839.8,-7.6699,11.255
7851.6,-8.2341,12.187
7863.3,-9.9446,11.24
7875,-9.8379,13.678
7886.7,-7.0503,12.862
7898.4,-8.6787,9.1394
7910.2,-10.965,11.25
7921.9,-10.682,13.102
7933.6,-8.1876,12.586
7945.3,-8.307,12.597
7957,-11.042,10.2
7968.8,-9.4808,15.83
7980.5,-8.5328,14.291
7992.2,-7.7569,11.988
8003.9,-8.092,14.601
8015.6,-10.7,11.529
8027.3,-13.19,8.8302
8039.1,-10.234,11.946
8050.8,-8.7135,11.515
8062.5,-7.6723,13.03
8074.2,-5.7085,11.448
8085.9,-6.5222,9.5508
8097.7,-8.791,9.6213
8109.4,-8.8276,11.75
8121.1,-9.2786,11.656
8132.8,-10.479,12.645
8144.5,-10.446,12.179
8156.3,-8.2876,12.777
8168,-8.7312,12.594
8179.7,-7.746,7.8489
8191.4,-7.9566,9.7462
8203.1,-8.2527,8.2069
8214.8,-8.1504,10.195
8226.6,-8.063,11.166
8238.3,-10.028,8.4117
8250,-9.0086,6.3307
8261.7,-10.747,8.9207
8273.4,-12.37,10.723
8285.2,-10.597,8.5169
8296.9,-8.1382,9.1298
8308.6,-8.2484,11.284
8320.3,-12.694,11.227
8332,-11.098,10.143
8343.8,-9.8123,10.631
8355.5,-9.7596,12.539
8367.2,-8.8652,12.502
8378.9,-9.2896,14.198
8390.6,-13.926,12.872
8402.3,-9.187,9.7154
8414.1,-7.3916,9.5137
8425.8,-7.7889,9.5515
8437.5,-6.714,9.4536
8449.2,-11.127,7.108
8460.9,-10.633,13.086
8472.7,-10.725,12.051
8484.4,-8.9774,8.6965
8496.1,-9.4888,10.405
8507.8,-8.5248,10.132
8519.5,-8.9854,11.714
8531.3,-8.3424,10.204
8543,-6.4423,10.551
8554.7,-6.6247,13.978
8566.4,-6.4138,11.15
8578.1,-4.866,7.0218
8589.8,-5.625,9.4617
8601.6,-9.5555,10.341
8613.3,-10.813,7.0903
8625,-7.9975,9.2979
8636.7,-4.9627,13.84
8648.4,-8.1428,13.933
8660.2,-9.8051,11.233
8671.9,-6.8992,10.411
8683.6,-7.8736,11.639
8695.3,-8.3866,10.05
8707,-11.824,8.0658
8718.8,-12.127,9.191
8730.5,-9.965,9.9011
8742.2,-8.7094,9.8877
8753.9,-8.5176,5.4824
8765.6,-12.087,9.1442
8777.3,-11.14,9.2496
8789.1,-11.255,6.2803
8800.8,-9.9651,8.6354
8812.5,-5.6862,8.3725
8824.2,-5.8319,9.4268
8835.9,-9.8862,10.449
8847.7,-10.015,11.668
8859.4,-10.317,11.042
8871.1,-9.4811,10.555
8882.8,-8.3346,11.405
8894.5,-10.129,10.748
8906.3,-10.213,7.2925
8918,-11.988,11.437
8929.7,-13.009,9.8767
8941.4,-9.9044,9.2048
8953.1,-8.3337,10.701
8964.8,-8.1344,10.531
8976.6,-9.2288,9.0509
8988.3,-8.0874,9.8116
9000,-8.3356,10.166
9011.7,-10.215,9.6081
9023.4,-11.195,10.559
9035.2,-10.338,9.4573
9046.9,-11.122,8.2191
9058.6,-12.033,7.4704
9070.3,-11.716,9.0622
9082,-11.133,11.077
9093.8,-11.231,9.2155
9105.5,-10.486,6.3821
9117.2,-11.96,7.1639
9128.9,-11.397,7.9434
9140.6,-9.9422,8.6012
9152.3,-7.2546,8.6506
9164.1,-7.2718,8.5713
9175.8,-10.116,7.8939
9187.5,-12.738,9.5849
9199.2,-11.881,8.381
9210.9,-7.5223,11.484
9222.7,-8.5969,12.122
9234.4,-13.296,10.869
9246.1,-11.669,10.198
9257.8,-11.008,11.711
9269.5,-10.86,11.085
9281.3,-10.776,9.4083
9293,-13.828,7.403
9304.7,-11.948,8.273
9316.4,-9.2992,8.6006
9328.1,-8.2051,9.8356
9339.8,-9.1913,10.216
9351.6,-10.817,10.079
9363.3,-8.7173,10.861
9375,-8.2462,10.073
9386.7,-11.621,8.7607
9398.4,-11.067,7.6951
9410.2,-10.176,6.8781
9421.9,-9.2439,9.5683
9433.6,-10.638,9.9379
9445.3,-10.712,10.765
9457,-9.2774,9.8972
9468.8,-9.379,10.473
9480.5,-11.666,12.046
9492.2,-12.065,11.553
9503.9,-11.617,14.168
9515.6,-10.024,11.836
9527.3,-12.161,7.4251
9539.1,-11.302,7.7849
9550.8,-12.398,8.855
9562.5,-11.441,10.312
9574.2,-9.0192,10.973
9585.9,-9.2456,8.5322
9597.7,-9.8792,7.357
9609.4,-11.215,8.9607
9621.1,-11.473,6.783
9632.8,-9.5595,8.2672
9644.5,-11.435,7.7475
9656.3,-10.5,8.7876
9668,-9.3896,10.064
9679.7,-8.9495,9.6153
9691.4,-9.8478,10.156
9703.1,-15.955,10.696
9714.8,-12.037,10.137
9726.6,-13.003,9.9903
9738.3,-8.8899,9.9465
9750,-9.6723,9.525
9761.7,-10.388,11.838
9773.4,-12.828,9.0039
9785.2,-9.7685,9.3252
9796.9,-9.0204,8.2753
9808.6,-11.681,9.7168
9820.3,-11.212,9.7337
9832,-12.118,8.1819
9843.8,-11.681,7.8513
9855.5,-11.739,9.3142
9867.2,-13.282,10.912
9878.9,-12.503,9.5249
9890.6,-9.8499,10.129
9902.3,-10.102,9.9395
9914.1,-11.079,7.3169
9925.8,-9.7755,7.6104
9937.5,-10.068,8.0744
9949.2,-8.9858,7.6625
9960.9,-10.457,10.704
9972.7,-12.054,11.109
9984.4,-11.682,10.522
9996.1,-11.548,9.7473
10008,-9.0742,7.7945
10020,-12.205,8.9808
10031,-13.423,8.3322
10043,-13.381,9.951
10055,-14.998,11.141
10066,-13.197,8.9136
10078,-12.36,7.9479
10090,-14.21,8.0106
10102,-11.948,6.4956
10113,-10.306,8.0065
10125,-12.424,6.468
10137,-12.122,9.2596
10148,-9.677,12.399
10160,-9.1668,11.894
10172,-9.2979,6.8781
10184,-9.32,8.3517
10195,-10.987,7.2799
10207,-10.919,6.7817
10219,-10.601,8.7318
10230,-12.623,9.6718
10242,-11.388,6.8077
10254,-11.398,9.8008
10266,-11.742,7.9166
10277,-8.6588,7.2348
10289,-9.615,7.5252
10301,-10.147,7.3314
10313,-11.367,8.3556
10324,-10.817,7.0699
10336,-8.7057,11.03
10348,-13.733,10.657
10359,-11.145,8.5079
10371,-10.926,7.5554
10383,-10.795,11.218
10395,-10.584,10.435
10406,-13.71,5.9417
10418,-15.5,7.4551
10430,-10.361,8.8383
10441,-9.7064,8.3118
10453,-11.645,7.9392
10465,-13.594,5.7557
10477,-13.295,7.591
10488,-11.578,6.8146
10500,-13.517,8.678
10512,-12.949,10.255
10523,-12.733,9.005
10535,-11.853,8.5357
10547,-10.582,7.8663
10559,-11.046,7.7618
10570,-11.192,9.9824
10582,-14.176,8.7937
10594,-14.508,9.0186
10605,-11.567,8.5662
10617,-9.5156,8.6496
10629,-10.311,8.3246
10641,-11.502,7.7513
10652,-9.3943,8.5243
10664,-11.412,8.8972
10676,-10.728,8.3806
10688,-15.404,8.6589
10699,-10.752,9.9659
10711,-10.528,8.752
10723,-11.059,9.0329
10734,-12.23,5.6075
10746,-11.118,9.5533
10758,-11.943,11.309
10770,-10.474,8.5263
10781,-9.0169,9.4379
10793,-11.315,10.843
10805,-13.914,12.376
10816,-11.675,12.612
10828,-12.979,9.4111
10840,-13.381,8.8455
10852,-14.143,10.555
10863,-15.163,10.57
10875,-15.908,8.8239
10887,-13.908,8.0016
10898,-13.27,6.9806
10910,-13.144,8.1156
10922,-10.843,7.8543
10934,-12.675,7.2835
10945,-11.565,8.446
10957,-11.824,7.6733
10969,-13.003,7.3256
10980,-13.664,6.2838
10992,-13.243,9.835
11004,-13.201,8.2491
11016,-11.594,4.4437
11027,-11.405,1.8857
11039,-13.507,7.9733
11051,-12.677,9.0185
11063,-11.551,7.7003
11074,-13.47,9.3544
11086,-14.573,7.5836
11098,-12.999,8.8504
11109,-12.846,8.0029
11121,-10.385,6.4633
11133,-11.37,7.5728
11145,-12.014,5.0807
11156,-12.992,6.6014
11168,-11.966,8.7581
11180,-8.8447,5.1874
11191,-7.8804,6.6123
11203,-9.1955,7.8554
11215,-13.139,8.1724
11227,-14.387,7.8691
11238,-12.334,8.7406
11250,-10.428,7.0575
11262,-10.309,8.1136
11273,-10.087,7.8104
11285,-10.76,5.0423
11297,-10.983,6.084
11309,-11.828,8.5658
11320,-11.493,7.6968
11332,-10.531,6.6864
11344,-12.047,7.8244
11355,-13.233,6.7929
11367,-11.956,5.9068
11379,-10.784,9.4928
11391,-12.356,6.9715
11402,-13.885,4.0261
11414,-17.233,9.8914
11426,-16.806,9.0461
11438,-13.203,9.879
11449,-11.395,8.3731
11461,-12.54,6.5745
11473,-13.919,8.2871
11484,-12.338,7.5808
11496,-12.49,6.7438
11508,-16.061,8.71
11520,-16.75,8.8873
11531,-12.914,4.652
11543,-11.577,10.449
11555,-11.513,14.118
11566,-11.82,11.15
11578,-12.049,6.3971
11590,-10.044,4.8226
11602,-10.37,7.1017
11613,-9.7133,9.5414
11625,-11.516,7.7754
11637,-11.272,5.6742
11648,-15.728,4.5964
11660,-15.987,1.4751
11672,-15.388,5.727
11684,-11.92,8.018
11695,-14.727,7.9491
11707,-15.905,6.8429
11719,-16.944,3.6821
11730,-11.688,3.8439
11742,-10.244,7.3209
11754,-13.937,7.319
11766,-12.101,6.6131
11777,-10.488,4.2314
11789,-10.205,4.0045
11801,-12.395,8.0097
11813,-17.17,9.0044
11824,-15.391,9.6022
11836,-15.342,7.7292
11848,-12.987,5.2427
11859,-14.12,5.3116
11871,-15.468,3.4333
11883,-15.651,8.4648
11895,-10.706,8.8693
11906,-11.799,4.2164
11918,-12.092,7.2428
11930,-10.522,7.5203
11941,-11.976,6.7889
11953,-14.84,7.6194
11965,-15.088,8.0393
11977,-13.78,6.186
11988,-12.303,8.4205
12000,-10.828,8.4313
12012,-10.795,6.3731
12023,-10.368,5.3647
12035,-11.592,5.1424
12047,-12.349,6.8078
12059,-15.03,9.8449
12070,-14.057,8.277
12082,-12.936,9.2345
12094,-17.045,6.992
12105,-15.861,5.2069
12117,-13.68,7.7595
12129,-13.162,8.5408
12141,-10.813,7.2457
12152,-12.062,6.9132
12164,-12.687,6.0912
12176,-13.493,6.076
12188,-15.739,7.0297
12199,-12.788,6.0998
12211,-12.703,4.0747
12223,-13.622,6.7196
12234,-11.45,8.5431
12246,-10.979,4.864
12258,-11.29,4.8576
12270,-12.615,8.3939
12281,-13.258,8.3635
12293,-15.212,6.328
12305,-17.479,6.0447
12316,-17.216,5.777
12328,-12.975,6.4574
12340,-12.46,7.5245
12352,-17.812,7.8309
12363,-17.603,6.4672
12375,-15.544,8.9111
12387,-15.624,6.5894
12398,-11.919,7.125
12410,-9.0447,7.8222
12422,-12.532,7.3963
12434,-13.377,7.297
12445,-10.79,8.1737
12457,-13.705,8.3161
12469,-14.321,9.3833
12480,-14.871,8.4141
12492,-15.049,5.0474
12504,-15.364,4.0709
12516,-13.374,4.7988
12527,-12.145,3.9722
12539,-10.307,5.3504
12551,-13.097,7.908
12563,-14.079,8.6498
12574,-15.116,6.8231
12586,-14.08,6.6997
12598,-11.532,4.8662
12609,-12.539,5.3377
12621,-12.151,6.7864
12633,-13.393,7.123
12645,-16.425,6.9037
12656,-18.179,7.1414
12668,-16.126,6.664
12680,-13.969,7.4657
12691,-11.27,8.3119
12703,-13.274,6.4564
12715,-14.483,7.8951
12727,-12.71,8.3757
12738,-14.71,5.3986
12750,-14.983,7.0733
12762,-13.292,6.7596
12773,-13.503,7.423
12785,-12.722,7.2415
12797,-10.166,3.3202
12809,-15.504,4.3111
12820,-12.409,6.6566
12832,-12.08,6.8365
12844,-15.701,8.1316
12855,-15.61,8.1051
12867,-16.376,4.7404
12879,-13.275,8.3038
12891,-13.239,6.0658
12902,-13.195,3.6457
12914,-14.209,3.6043
12926,-11.15,3.9923
12938,-11.5,7.4249
12949,-14.182,6.0746
12961,-13.225,3.1698
12973,-13.251,3.3426
12984,-10.168,5.6559
12996,-11.399,5.2483
13008,-15.529,8.0466
13020,-13.255,8.027
13031,-14.81,7.1813
13043,-14.172,6.7552
13055,-12.436,5.5557
13066,-12.513,2.4382
13078,-13.83,5.2302
13090,-14.589,5.9647
13102,-15.871,6.5876
13113,-14.874,6.0061
13125,-11.229,5.2474
13137,-12.689,4.0915
13148,-15.518,6.74
13160,-14.245,5.8737
13172,-13.894,5.1342
13184,-14.91,7.8594
13195,-14.148,6.8677
13207,-15.501,3.7309
13219,-14.466,2.8588
13230,-15.968,5.9327
13242,-15.263,8.8446
13254,-12.302,6.9752
13266,-13.56,4.5433
13277,-14.285,6.4714
13289,-13.692,7.3211
13301,-12.614,4.8413
13313,-11.596,3.9511
13324,-15.459,3.9997
13336,-15.81,5.7331
13348,-14.466,6.7673
13359,-17.013,6.2441
13371,-16.864,7.404
13383,-18.325,5.4829
13395,-13.614,4.567
13406,-12.898,5.053
13418,-17.57,5.9222
13430,-14.555,5.9193
13441,-14.575,5.4348
13453,-15.044,4.3778
13465,-15.196,6.4746
13477,-14.777,5.3815
13488,-14.594,6.3014
13500,-17.006,6.7211
13512,-17.396,5.0346
13523,-14.565,7.9874
13535,-12.299,9.124
13547,-13.22,4.9393
13559,-14.412,3.9096
13570,-17.376,6.1692
13582,-17.801,6.1481
13594,-14.37,6.6009
13605,-12.177,4.6656
13617,-13.812,3.15
13629,-17.448,4.3184
13641,-15.02,5.2973
13652,-12.066,5.9671
13664,-10.829,3.9971
13676,-12.434,4.3386
13688,-13.492,5.4066
13699,-14.376,5.9388
13711,-11.972,3.6375
13723,-11.162,6.1369
13734,-13.53,4.5289
13746,-14.993,4.2016
13758,-11.982,6.7453
13770,-14.38,8.9744
13781,-17.051,7.6462
13793,-13.269,4.9254
13805,-14.271,3.4866
13816,-13.98,2.1735
13828,-14.503,5.7334
13840,-15.866,5.6689
13852,-18.169,3.8031
13863,-16.976,3.4604
13875,-13.965,1.42
13887,-14.923,4.3054
13898,-15.471,6.42
13910,-12.88,4.2704
13922,-14.206,4.4248
13934,-14.979,7.4383
13945,-13.586,5.8721
13957,-16.092,3.0009
13969,-18.853,3.3703
13980,-16.66,2.383
13992,-18.213,1.7084
14004,-15.714,3.6766
14016,-15.537,5.7302
14027,-15.178,4.4943
14039,-16.022,1.3289
14051,-16.016,2.097
14063,-17.509,2.4565
14074,-19.095,-0.034661
14086,-18.879,3.9126
14098,-15.752,4.3082
14109,-15.12,7.5773
14121,-19.145,5.4115
14133,-15.92,3.7042
14145,-13.238,6.9461
14156,-14.554,6.4916
14168,-15.566,5.583
14180,-15.965,4.6782
14191,-15.67,4.4215
14203,-16.162,4.7599
14215,-17.055,5.9976
14227,-15.046,5.1887
14238,-15.284,5.3742
14250,-15.896,2.9138
14262,-17.4,1.8753
14273,-17.211,0.82787
14285,-12.518,5.3079
14297,-15.339,6.2335
14309,-16.701,1.9187
14320,-13.769,2.2177
14332,-15.168,2.9608
14344,-15.992,3.214
14355,-14.975,1.3487
14367,-17.941,3.959
14379,-14.968,7.2239
14391,-15.769,6.4399
14402,-18.571,6.7029
14414,-17.754,6.8624
14426,-14.202,4.017
14438,-13.963,2.6226
14449,-17.373,3.3081
14461,-18.762,2.3651
14473,-17.097,4.4368
14484,-14.371,6.4319
14496,-16.533,8.1121
14508,-17.277,7.7214
14520,-15.666,3.7178
14531,-15.092,0.79827
14543,-14.822,1.2668
14555,-16.862,0.87381
14566,-16.688,2.1403
14578,-14.528,1.3147
14590,-13.017,3.668
14602,-12.973,3.9361
14613,-16.757,1.5395
14625,-16.66,5.3678
14637,-15.726,3.797
14648,-16.415,2.6249
14660,-16.034,3.1184
14672,-16.494,3.449
14684,-17.313,2.6571
14695,-15.608,1.217
14707,-17.787,-0.99796
14719,-19.271,2.9331
14730,-13.281,6.0117
14742,-13.548,3.7418
14754,-15.684,3.1896
14766,-16.37,3.9649
14777,-15.538,5.2105
14789,-13.989,5.9714
14801,-15.616,4.0769
14813,-16.836,1.9266
14824,-17.532,2.2535
14836,-20.117,1.2694
14848,-18.658,4.1924
14859,-17.415,6.4364
14871,-18.558,6.1834
14883,-15.944,5.3292
14895,-16.961,2.7057
14906,-18.651,1.4708
14918,-16.063,3.0492
14930,-14.933,2.4603
14941,-13.603,2.9444
14953,-13.454,4.6997
14965,-14.578,4.3213
14977,-16,4.5178
14988,-16.905,5.3334
15000,-17.11,3.7069
15012,-14.532,3.3982
15023,-16.29,2.677
15035,-21.64,2.5139
15047,-18.85,4.1349
15059,-19.035,5.0828
15070,-19.454,2.9991
15082,-19.795,2.639
15094,-17.765,4.8098
15105,-17.245,4.228
15117,-18.146,2.3676
15129,-18.797,0.39495
15141,-18.706,3.3314
15152,-19.817,4.6318
15164,-17.515,4.1135
15176,-20.357,5.3598
15188,-20.878,6.0904
15199,-17.47,4.9165
15211,-20.019,2.3368
15223,-16.418,5.8794
15234,-17.728,5.6416
15246,-20.591,4.6612
15258,-17.108,3.3786
15270,-14.878,1.6471
15281,-15.97,3.9165
15293,-17.695,4.9945
15305,-19.091,6.3836
15316,-17.763,6.1758
15328,-16.893,4.0711
15340,-15.643,3.7758
15352,-17.52,2.4464
15363,-20.32,4.7745
15375,-17.865,3.7007
15387,-17.073,2.529
15398,-17.59,2.4738
15410,-17.113,3.7498
15422,-20.153,3.5849
15434,-17.775,3.6979
15445,-16.414,3.5731
15457,-19.301,2.6217
15469,-19.181,2.6737
15480,-19.101,1.8942
15492,-18.485,4.8934
15504,-18.562,7.0556
15516,-18.57,5.1239
15527,-17.656,3.0496
15539,-19.977,4.202
15551,-20.372,5.2114
15563,-20.312,4.1024
15574,-18.151,3.5351
15586,-17.293,4.1821
15598,-17.819,3.8096
15609,-18.761,0.76286
15621,-19.745,2.5118
15633,-22.762,3.0595
15645,-17.698,1.0503
15656,-17.851,1.7711
15668,-16.27,0.3533
15680,-17.851,1.8549
15691,-17.368,3.9657
15703,-16.957,2.8262
15715,-18.264,4.5384
15727,-16.704,5.2226
15738,-18.058,3.4711
15750,-21.693,3.6889
15762,-20.483,3.1235
15773,-17.603,1.3628
15785,-18.291,4.2229
15797,-19.435,4.2964
15809,-22.087,1.5853
15820,-20.04,0.92768
15832,-22.431,-0.20634
15844,-20.809,3.517
15855,-16.935,6.7022
15867,-16.582,1.9219
15879,-16.666,2.8016
15891,-16.148,3.3554
15902,-17.2,1.5178
15914,-18.088,1.7973
15926,-19.658,-0.93754
15938,-21.718,-0.87709
15949,-19.112,2.4702
15961,-19.033,4.0512
15973,-19.406,3.3173
15984,-20.75,0.34804
15996,-22.292,0.50146
16008,-21.205,0.88381
16020,-21.718,2.5863
16031,-24.236,1.627
16043,-19.011,-0.087011
16055,-17.134,-2.6672
16066,-19.201,-1.1808
16078,-19.207,3.0935
16090,-19.916,4.6354
16102,-20.431,2.0337
16113,-19.509,1.9012
16125,-19.762,1.0047
16137,-22.129,1.1796
16148,-18.253,-0.21013
16160,-17.9,2.2477
16172,-20.601,3.5716
16184,-18.742,3.7334
16195,-18.566,3.0129
16207,-18.652,0.67637
16219,-18.487,2.4347
16230,-19.839,1.4391
16242,-19.141,1.5005
16254,-21.32,1.9657
16266,-19.645,-0.2095
16277,-17.396,-1.4106
16289,-18.125,0.13962
16301,-19.064,2.8761
16313,-17.56,1.052
16324,-21.027,3.6765
16336,-17.874,3.5691
16348,-16.239,2.6743
16359,-18.342,1.8534
16371,-19.201,-2.186
16383,-22.264,1.1553
16395,-18.901,0.39073
16406,-19.12,-0.19576
16418,-22.684,0.9477
16430,-20.877,-0.53041
16441,-21.028,1.4897
16453,-19.994,0.074514
16465,-20.359,-0.27373
16477,-18.862,-0.3618
16488,-19.535,1.6633
16500,-21.687,3.6605
16512,-20.734,-0.42697
16523,-19.514,1.9289
16535,-18.906,2.0757
16547,-22.752,-1.521
16559,-21.432,-1.1147
16570,-22.56,1.0087
16582,-21.207,0.57458
16594,-19.737,2.5792
16605,-20.798,3.0419
16617,-18.966,2.0452
16629,-16.762,-1.5302
16641,-18.336,-3.5598
16652,-20.251,0.23527
16664,-18.698,3.0439
16676,-17.481,0.88104
16688,-17.297,0.98173
16699,-20.501,-0.68618
16711,-21.694,0.28296
16723,-22.145,0.68196
16734,-22.778,0.72781
16746,-23.818,-0.63838
16758,-23.915,1.6953
16770,-23.985,2.8777
16781,-17.441,2.6636
16793,-17.361,5.4844
16805,-20.104,3.2866
16816,-19.73,3.4547
16828,-21.162,1.3431
16840,-22.655,0.21477
16852,-23.368,0.37459
16863,-23.036,1.8499
16875,-21.844,3.0228
16887,-20.682,6.2727
16898,-22.333,2.1857
16910,-23.868,0.42343
16922,-21.49,0.85387
16934,-21.782,0.92788
16945,-23.452,1.7341
16957,-22.271,1.7253
16969,-19.992,-3.5628
16980,-21.811,-1.4406
16992,-21.984,0.55397
17004,-19.34,0.94182
17016,-21.558,1.8895
17027,-21.088,0.64748
17039,-19.144,0.48929
17051,-20.712,0.63571
17063,-21.186,3.0148
17074,-24.432,3.136
17086,-25.304,-1.2174
17098,-23.928,1.8872
17109,-21.875,0.26108
17121,-22.465,1.1911
17133,-22.284,0.7394
17145,-22.309,0.2393
17156,-20.064,1.1546
17168,-20.05,3.3517
17180,-21.071,-0.13356
17191,-20.82,2.2109
17203,-21.878,3.5281
17215,-23.112,1.4927
17227,-19.464,-0.43869
17238,-22.213,0.93896
17250,-21.195,0.16235
17262,-21.924,2.0388
17273,-23.166,2.4467
17285,-20.714,2.6261
17297,-20.089,1.0349
17309,-23.462,-0.83392
17320,-22.226,0.79566
17332,-20.271,0.30187
17344,-18.113,0.10323
17355,-18.385,-0.87289
17367,-20.185,1.5339
17379,-20.288,2.4928
17391,-22.439,2.6361
17402,-21.637,3.5244
17414,-18.806,1.1248
17426,-19.784,2.7068
17438,-19.71,2.9008
17449,-20.772,-2.24
17461,-21.697,-1.3407
17473,-22.175,-2.5852
17484,-20.218,-1.4896
17496,-19.975,1.0733
17508,-20.995,4.0912
17520,-21.266,2.1267
17531,-22.457,0.74464
17543,-25.568,1.5939
17555,-20.531,-0.45441
17566,-21.047,1.6037
17578,-23.006,3.8437
17590,-23.159,5.0049
17602,-21.601,3.9016
17613,-20.138,3.5345
17625,-18.961,3.0185
17637,-22.902,1.2789
17648,-22.404,0.78192
17660,-19.219,1.3009
17672,-20.292,2.5139
17684,-20.112,1.2217
17695,-20.867,2.209
17707,-21.817,2.6583
17719,-20.995,0.34304
17730,-21.846,1.8253
17742,-22.702,1.2108
17754,-23.269,-3.0555
17766,-22.089,0.50024
17777,-20.197,0.31842
17789,-20.52,-2.091
17801,-21.757,2.2522
17813,-20.896,1.1544
17824,-21.085,-0.63557
17836,-24.824,-0.12172
17848,-21.395,2.4397
17859,-23.211,4.6703
17871,-20.329,4.5673
17883,-18.903,1.6786
17895,-21.961,0.03007
17906,-24.423,0.69221
17918,-23.827,2.3025
17930,-22.654,0.2285
17941,-21.418,0.22567
17953,-22.123,2.3366
17965,-22.765,0.87371
17977,-24.541,-0.35949
17988,-22.73,0.81215
18000,-20.846,0.27852
18012,-21.786,-0.14377
18023,-22.462,1.4441
18035,-20.801,1.4492
18047,-20.787,0.98399
18059,-20.5,0.49363
18070,-21.132,-1.6929
18082,-23.466,0.29642
18094,-21.916,2.2606
18105,-24.34,1.8756
18117,-22.785,-1.1518
18129,-23.46,-2.9772
18141,-23.147,-3.1213
18152,-21.302,-1.266
18164,-21.955,-1.8323
18176,-22.816,1.8046
18188,-21.897,-0.3374
18199,-25.39,2.2852
18211,-23.147,1.4959
18223,-23.212,0.63575
18234,-20.052,-1.2157
18246,-20.417,1.0109
18258,-22.843,0.96269
18270,-22.366,-1.9385
18281,-23.169,1.9935
18293,-22.81,0.034178
18305,-20.62,2.1651
18316,-22.326,2.0985
18328,-23.387,-0.063326
18340,-21.598,-2.6547
18352,-20.398,-2.3872
18363,-23.302,0.060797
18375,-25.708,-0.31065
18387,-23.949,0.47817
18398,-24.07,1.7344
18410,-20.368,-0.58308
18422,-19.803,-2.3605
18434,-22.003,0.66103
18445,-23.573,0.73076
18457,-23.369,-0.078847
18469,-19.943,-1.8807
18480,-22.018,-2.3976
18492,-21.516,-2.0988
18504,-24.071,-3.0513
18516,-23.789,-0.44375
18527,-23.615,0.21841
18539,-22.479,0.17407
18551,-22.919,-0.24351
18563,-25.313,-1.3838
18574,-26.116,-1.3377
18586,-26.825,0.35665
18598,-24.848,1.5526
18609,-24.496,2.7854
18621,-23.474,2.0463
18633,-20.886,2.7791
18645,-19.441,2.7813
18656,-20.364,2.1957
18668,-21.281,1.7262
18680,-22.634,-2.083
18691,-23.662,-3.6303
18703,-25.113,-2.0818
18715,-27.55,-1.4711
18727,-25.249,-1.4147
18738,-25.554,-1.2857
18750,-27.527,0.72072
18762,-22.3,-0.34734
18773,-21.529,-0.88873
18785,-22.582,0.33545
18797,-22.741,0.41459
18809,-23.074,-3.5797
18820,-23.13,-2.2123
18832,-21.324,-2.9501
18844,-23.291,-1.793
18855,-25.859,-1.7748
18867,-26.277,-4.5155
18879,-28.034,-2.4008
18891,-28.129,-0.029623
18902,-24.102,-0.38705
18914,-21.889,-1.6454
18926,-19.826,0.35585
18938,-24.206,0.13532
18949,-25.745,0.16367
18961,-22.82,0.041841
18973,-24.971,-2.0631
18984,-22.883,-0.44869
18996,-21.659,0.14404
19008,-23.471,-2.1747
19020,-25.447,0.78367
19031,-24.748,3.3724
19043,-21.879,2.5629
19055,-21.46,-0.73606
19066,-23.227,-1.5396
19078,-20.86,1.0358
19090,-22.218,0.30708
19102,-21.874,-2.3948
19113,-21.981,-1.0811
19125,-20.8,-0.68485
19137,-25.29,1.9788
19148,-26.871,0.63065
19160,-25.08,0.93635
19172,-25.066,0.49663
19184,-23.674,1.015
19195,-23.281,-1.5024
19207,-24.322,-0.9324
19219,-24.951,-1.6578
19230,-22.687,-4.4257
19242,-22.522,-1.7657
19254,-25.379,-0.18549
19266,-26.262,-1.1932
19277,-25.774,-0.28956
19289,-24.345,0.67648
19301,-24.647,0.69413
19313,-23.306,-1.1217
19324,-22.337,1.6175
19336,-21.472,1.5144
19348,-23.129,-1.3719
19359,-24.206,-3.7066
19371,-23.098,-0.32594
19383,-22.693,-0.41242
19395,-25.254,-3.1517
19406,-26.119,-3.329
19418,-25.902,-4.3443
19430,-23.532,-4.3973
19441,-24.057,-1.8938
19453,-25.736,-1.4581
19465,-24.566,-3.0156
19477,-23.609,-4.152
19488,-22.722,-1.5719
19500,-23.932,-0.69382
19512,-24.634,-1.2203
19523,-25.14,-1.6039
19535,-25.819,-0.88034
19547,-23.062,-1.7015
19559,-24.459,-1.5915
19570,-25.665,0.017097
19582,-27.643,-1.1734
19594,-28.369,-2.1846
19605,-24.871,3.634
19617,-24.019,-0.65689
19629,-26.425,-3.0587
19641,-24.535,-1.1468
19652,-20.481,-3.1052
19664,-21.498,-1.6271
19676,-24.33,-0.82297
19688,-23.906,-0.47256
19699,-23.876,0.56588
19711,-26.455,0.70543
19723,-24.156,-0.41428
19734,-23.105,-0.81249
19746,-23.088,-2.7851
19758,-27.7,-0.26415
19770,-29.078,-2.3609
19781,-24.462,-0.64321
19793,-25.797,0.34789
19805,-22.498,-0.23523
19816,-22.171,-0.41316
19828,-27.181,-1.7482
19840,-25.186,0.41298
19852,-21.865,-0.097413
19863,-19.723,0.70046
19875,-23.424,2.2484
19887,-28.768,-0.70654
19898,-26.97,-0.38454
19910,-24.245,-2.4019
19922,-25.127,-6.2422
19934,-24.599,-0.92923
19945,-23.158,-0.36818
19957,-23.552,-3.3006
19969,-26.16,-4.3567
19980,-27.942,-0.5071
19992,-24.627,0.95693
20004,-21.734,1.3011
20016,-23.036,-2.4962
20027,-24.687,-8.9903
20039,-22.43,-5.2756
20051,-21.323,-5.2926
20063,-23.773,-2.5349
20074,-26.093,-3.3312
20086,-23.859,-3.0096
20098,-23.376,-1.9691
20109,-27.332,-0.28763
20121,-22.4,-3.9008
20133,-21.993,-3.0257
20145,-23.851,-1.604
20156,-26.454,-1.7196
20168,-26.348,-3.7617
20180,-23.758,-3.0941
20191,-22.231,-2.6201
20203,-22.988,-1.9807
20215,-22.265,-0.59428
20227,-24.789,-0.60459
20238,-26.873,-3.422
20250,-26.029,-3.2873
20262,-25.371,-4.4904
20273,-25.521,-1.1007
20285,-25.192,1.2917
20297,-26.216,0.23935
20309,-23.841,-1.833
20320,-23.322,-0.28428
20332,-25.882,1.6724
20344,-26.395,0.35233
20355,-26.524,-1.8731
20367,-25.389,0.11048
20379,-25.947,0.18769
20391,-26.123,0.031959
20402,-26.394,-1.927
20414,-28.575,-0.45019
20426,-25.296,-0.66817
20438,-27.554,-3.5789
20449,-27.718,-1.1404
20461,-22.438,-5.5197
20473,-22.34,-1.9849
20484,-27.469,-0.91313
20496,-24.304,-1.3958
20508,-25.448,-1.1553
20520,-24.583,-0.4013
20531,-26.878,1.1008
20543,-26.54,0.47139
20555,-24.51,-3.1987
20566,-22.582,-5.1952
20578,-23.439,-1.1666
20590,-26.666,-0.96886
20602,-24.524,-1.1868
20613,-26.077,-3.6934
20625,-25.603,-3.9643
20637,-26.586,-1.8277
20648,-26.098,-4.2898
20660,-25.247,-5.1882
20672,-24.576,-2.3424
20684,-25.348,0.60388
20695,-27.275,-0.996
20707,-28.836,-0.023928
20719,-25.699,-1.8259
20730,-27.09,-3.3451
20742,-27.038,-3.0222
20754,-26.767,-2.108
20766,-26.822,-0.78048
20777,-28.016,0.71524
20789,-27.673,-0.35806
20801,-26.455,-0.23669
20813,-23.265,-0.94448
20824,-25.166,-0.02725
20836,-27.702,0.39192
20848,-25.95,-1.5221
20859,-23.067,-0.07559
20871,-27.26,0.1261
20883,-27.195,-0.9296
20895,-25.078,-0.53343
20906,-24.546,1.7723
20918,-25.207,-0.89924
20930,-26.331,-6.0042
20941,-26.121,-4.192
20953,-26.999,-4.8032
20965,-27.966,-1.0692
20977,-27.966,0.48853
20988,-26.916,-1.4555
21000,-25.558,-6.2602
21012,-25.599,-2.9081
21023,-28.871,-5.1235
21035,-26.792,-4.1971
21047,-25.345,-4.4806
21059,-24.652,-2.0609
21070,-25.472,-2.0708
21082,-24.706,0.14037
21094,-26.141,-2.8869
21105,-22.125,-4.3579
21117,-21.954,-4.6391
21129,-27.437,-5.2883
21141,-25.413,-0.33997
21152,-25.546,-2.5928
21164,-27.318,-2.984
21176,-27.304,-1.5669
21188,-29.434,-2.0555
21199,-26.966,-2.2202
21211,-25.751,-1.7877
21223,-25.783,-2.6873
21234,-26.803,-4.4828
21246,-27.178,-5.1273
21258,-27.548,-3.9273
21270,-24.844,-2.4287
21281,-25.369,-2.5556
21293,-22.977,-2.3625
21305,-22.823,-2.1752
21316,-26.303,0.023738
21328,-28.236,-0.8969
21340,-27.651,-4.9672
21352,-25.818,-2.448
21363,-26.017,-2.0233
21375,-23.77,-1.06
21387,-25.398,-3.2067
21398,-28.076,-4.1172
21410,-27.983,-3.6594
21422,-24.749,-3.168
21434,-23.925,-3.4444
21445,-22.882,-1.2958
21457,-24.286,0.30495
21469,-24.959,-2.9317
21480,-25.604,-1.7477
21492,-26.005,-0.70943
21504,-27.201,-2.6456
21516,-25.352,-5.427
21527,-25.694,-4.5851
21539,-24.85,-2.1598
21551,-26.154,-2.4398
21563,-23.468,-4.0495
21574,-24.024,-1.7421
21586,-25.754,-3.0816
21598,-23.642,-1.7081
21609,-26.687,-2.3688
21621,-27.527,-2.4802
21633,-26.353,-0.51337
21645,-28.824,-0.90086
21656,-27.135,-1.9351
21668,-26.203,-2.21
21680,-24.731,-4.7674
21691,-26.908,-3.2243
21703,-26.812,-3.1407
21715,-24.909,-5.2509
21727,-26.172,-3.8358
21738,-28.412,-1.8435
21750,-26.038,-2.056
21762,-27.885,-4.2019
21773,-29.052,-4.6205
21785,-27.017,-3.0829
21797,-26.071,-3.5565
21809,-25.657,0.85329
21820,-25.587,-0.20329
21832,-27.643,-2.8706
21844,-24.2,-4.9394
21855,-25.547,-4.2435
21867,-26.49,-4.488
21879,-26.047,-4.7188
21891,-25.363,-2.2068
21902,-26.702,-1.8461
21914,-27.925,-0.48896
21926,-25.623,0.61579
21938,-27.886,1.0045
21949,-30.11,-1.6657
21961,-30.916,0.33172
21973,-29.361,-2.4531
21984,-26.066,-1.1963
21996,-25.015,-1.7218
22008,-24.356,-2.4109
22020,-24.055,-2.3626
22031,-27.589,-3.1264
22043,-24.959,-2.7263
22055,-28.274,-0.80857
22066,-28.394,-2.0952
22078,-28.331,-4.9088
22090,-29.773,-4.6517
22102,-27.92,-3.4721
22113,-25.551,-3.8666
22125,-24.38,-3.105
22137,-23.339,-5.1686
22148,-23.454,-4.5657
22160,-26.255,-2.7141
22172,-23.139,-2.2356
22184,-27.04,-5.8586
22195,-28.119,-3.5054
22207,-28.107,-2.6539
22219,-26.736,-5.8735
22230,-27.638,-2.0766
22242,-28.544,-1.4329
22254,-28.072,-5.1265
22266,-26.998,-5.4668
22277,-26.885,-5.4969
22289,-28.047,-2.8317
22301,-28.952,-2.877
22313,-28.274,-6.6801
22324,-30.006,-8.806
22336,-30.731,-6.5424
22348,-25.862,-1.767
22359,-25.361,-0.50982
22371,-26.169,-3.9668
22383,-28.489,-5.1696
22395,-27.556,-4.7401
22406,-26.964,-4.9129
22418,-28.083,-8.4523
22430,-29.263,-6.8622
22441,-30.142,-5.5333
22453,-27.201,-5.9762
22465,-26.174,-6.9716
22477,-27.321,-3.2235
22488,-27.077,-2.7727
22500,-25.999,-3.18
22512,-26.078,-5.2879
22523,-24.736,-4.8691
22535,-26.218,-3.9956
22547,-25.695,0.016135
22559,-26.803,-0.90125
22570,-27.984,-2.8655
22582,-29.046,-2.1113
22594,-27.655,-2.3025
22605,-28.11,-2.1852
22617,-30.333,-4.7252
22629,-27.679,-1.7017
22641,-26.105,-0.68802
22652,-25.569,-4.5982
22664,-25.511,-7.1233
22676,-28.634,-1.0584
22688,-29.989,-2.2077
22699,-28.027,-3.0323
22711,-25.498,-2.3724
22723,-27.108,-3.6604
22734,-28.124,-3.922
22746,-28.512,-6.8942
22758,-29.483,-6.7771
22770,-28.999,-5.2613
22781,-26.143,-4.6054
22793,-26.62,-4.2753
22805,-26.976,-3.5426
22816,-26.9,-3.1969
22828,-27.647,-3.3197
22840,-24.572,-7.7149
22852,-23.763,-3.5171
22863,-27.145,-1.6115
22875,-29.816,-7.4845
22887,-27.518,-7.8301
22898,-24.945,-7.4476
22910,-30.235,-6.0062
22922,-28.655,-4.0706
22934,-27.209,-4.3207
22945,-30.789,-2.6877
22957,-27.326,-6.0146
22969,-27.145,-4.4472
22980,-27.94,-1.644
22992,-26.107,-4.7566
23004,-27.128,-2.3318
23016,-27.927,-1.0352
23027,-29.746,-1.1448
23039,-27.782,-1.7092
23051,-26.884,-2.5335
23063,-26.473,-5.2117
23074,-26.457,-4.2846
23086,-27.638,-6.5804
23098,-27.763,-9.2645
23109,-30.268,-7.7491
23121,-26.145,-4.9457
23133,-27.093,-6.0644
23145,-31.574,-7.464
23156,-26.852,-5.6438
23168,-26.879,-2.2708
23180,-30.579,-2.5458
23191,-26.595,-6.8727
23203,-24.915,-7.6888
23215,-24.795,-4.9906
23227,-27.748,-3.9564
23238,-31.976,-2.8404
23250,-29.116,-2.9645
23262,-26.783,-4.2955
23273,-27.948,-5.0534
23285,-28.017,-6.5049
23297,-28.382,-4.5424
23309,-31.593,-2.4055
23320,-33.445,-4.231
23332,-28.78,-3.0568
23344,-28.649,-3.2755
23355,-28.874,-5.6488
23367,-27.717,-5.5638
23379,-29.834,-8.0682
23391,-29.427,-8.002
23402,-26.567,-2.4168
23414,-26.927,-3.1237
23426,-29.413,-7.4011
23438,-27.628,-3.2587
23449,-27.311,-1.0801
23461,-30.922,-1.7766
23473,-27.625,-5.5307
23484,-27.075,-6.3469
23496,-27.37,-3.8784
23508,-29.589,-3.1451
23520,-28.41,-3.3632
23531,-28.371,-3.4869
23543,-27.316,-5.2778
23555,-28.012,-9.0897
23566,-27.349,-9.9115
23578,-28.395,-6.4777
23590,-29.437,-6.1413
23602,-29.83,-2.1397
23613,-28.167,-0.33868
23625,-28.499,-2.6687
23637,-27.987,-3.0968
23648,-26.448,-4.5928
23660,-25.361,-5.7656
23672,-26.244,-6.0848
23684,-29.918,-6.253
23695,-26.144,-5.3861
23707,-25.77,-4.985
23719,-28.568,-3.5682
23730,-25.071,-2.9228
23742,-22.305,-3.9718
23754,-24.782,-5.6277
23766,-26.009,-6.0135
23777,-29.148,-4.4683
23789,-28.655,-5.9956
23801,-28.625,-6.8575
23813,-26.867,-7.028
23824,-27.415,-9.523
23836,-33.014,-7.0408
23848,-29.064,-4.5952
23859,-29.281,-4.0653
23871,-27.264,-1.2478
23883,-27.499,-3.7377
23895,-28.144,-6.5819
23906,-27.857,-3.4659
23918,-29.12,-3.0798
23930,-29.577,-3.2323
23941,-28.394,-2.5809
23953,-26.69,-3.5591
23965,-25.041,-3.9551
23977,-25.495,-6.8724
23988,-28.028,-7.3468
