FFT,Power Spectrum
Frequency[Hz],Level-L[dB],Level-R[dB]
11.719,-22.197,-19.92
23.438,-1.5796,-0.60484
35.156,-2.2629,6.9617
46.875,1.1196,6.7774
58.594,-1.3587,13.701
70.313,2.2518,16.924
82.031,4.7692,16.406
93.75,7.8339,17.988
105.47,8.9234,17.426
117.19,7.6727,20.711
128.91,13.155,19.042
140.63,13.937,15.876
152.34,8.1993,17.513
164.06,2.8657,16.683
175.78,4.8829,17.213
187.5,9.4198,21.614
199.22,8.9576,25.512
210.94,8.4823,23.731
222.66,10.055,24.61
234.38,9.6798,25.355
246.09,7.853,24.031
257.81,3.2329,24.816
269.53,3.7246,24.422
281.25,9.7373,23.583
292.97,10.386,27.178
304.69,8.4522,27.269
316.41,6.3494,26.555
328.13,8.7158,25.224
339.84,8.0107,22.341
351.56,6.6288,22.713
363.28,7.077,25.157
375,7.5855,24.534
386.72,6.4801,25.756
398.44,7.283,24.808
410.16,8.8111,23.6
421.88,15.886,27.473
433.59,26.16,24.514
445.31,49.487,30.321
457.03,58.809,37.076
468.75,55.752,34.358
480.47,34.231,26.181
492.19,20.323,24.768
503.91,11.433,25.688
515.63,9.3692,25.689
527.34,7.5779,26.222
539.06,4.4163,26.295
550.78,2.8869,27.708
562.5,5.397,26.567
574.22,8.5944,26.832
585.94,3.888,25.356
597.66,5.4778,26.645
609.38,4.4571,22.805
621.09,4.7532,21.955
632.81,6.249,20.691
644.53,4.5451,19.263
656.25,4.4714,22.589
667.97,5.2433,21.332
679.69,4.7792,20.847
691.41,2.836,25.176
703.13,2.8767,24.728
714.84,3.1559,26.201
726.56,3.9092,25.949
738.28,8.196,22.762
750,6.7823,22.47
761.72,3.1479,22.581
773.44,4.2407,23.102
785.16,6.1962,25.859
796.88,6.8728,25.545
808.59,5.3665,26.271
820.31,2.5837,25.763
832.03,1.7439,23.321
843.75,7.73,22.236
855.47,7.9844,24.259
867.19,6.4844,27.129
878.91,3.5933,28.971
890.63,4.3637,26.669
902.34,6.6808,18.445
914.06,7.6371,21.848
925.78,3.6231,23.85
937.5,4.9358,23.072
949.22,5.1565,23.43
960.94,5.7946,24.415
972.66,7.2273,25.535
984.38,7.1687,22.864
996.09,5.6263,26.109
1007.8,5.0039,27.579
1019.5,3.9379,28.848
1031.3,4.2367,29.205
1043,5.4664,26.203
1054.7,4.8659,24.643
1066.4,5.0039,22.154
1078.1,8.3564,21.052
1089.8,8.6888,22.931
1101.6,9.5708,23.512
1113.3,6.8003,26.695
1125,8.4089,27.049
1136.7,7.2589,24.785
1148.4,6.8765,23.37
1160.2,6.672,25.468
1171.9,2.3916,24.717
1183.6,-0.22902,20.505
1195.3,5.9258,22.419
1207,4.9706,22.135
1218.8,3.7259,22.975
1230.5,4.3858,25.371
1242.2,2.874,26.104
1253.9,4.4016,23.76
1265.6,5.067,26.6
1277.3,4.2782,23.128
1289.1,7.399,23.969
1300.8,4.1849,23.725
1312.5,4.0927,22.395
1324.2,4.1552,19.617
1335.9,4.2418,20.392
1347.7,4.2207,25.308
1359.4,-0.82455,24.809
1371.1,4.1763,20.303
1382.8,5.4247,22.217
1394.5,2.1603,23.208
1406.3,3.5577,26.969
1418,6.4024,25.053
1429.7,5.4309,23.18
1441.4,-0.71378,23.96
1453.1,1.2516,22.584
1464.8,1.8059,18.18
1476.6,1.6321,22.536
1488.3,3.1822,22.947
1500,3.8536,19.888
1511.7,2.6908,22.661
1523.4,0.56374,25.472
1535.2,2.7588,23.607
1546.9,5.2278,24.344
1558.6,2.4206,24.883
1570.3,6.2515,22.086
1582,6.6231,26.285
1593.8,0.46739,25.245
1605.5,1.0263,22.523
1617.2,1.0158,21.102
1628.9,5.0447,22.543
1640.6,9.2444,26.008
1652.3,7.2538,24.288
1664.1,1.4603,20.37
1675.8,4.4028,23.379
1687.5,2.165,25.847
1699.2,1.6046,21.497
1710.9,3.1822,22.549
1722.7,3.5216,20.456
1734.4,5.08,25.692
1746.1,2.069,22.731
1757.8,3.0446,17.163
1769.5,2.4657,16.29
1781.3,2.3325,19.586
1793,4.2289,24.044
1804.7,3.2832,25.701
1816.4,1.3628,24.226
1828.1,1.7603,23.875
1839.8,0.69113,23.38
1851.6,2.4291,19.398
1863.3,4.8934,21.053
1875,2.9264,21.737
1886.7,1.8096,22.95
1898.4,0.43316,25.051
1910.2,0.73005,24.04
1921.9,3.7817,22.295
1933.6,3.5911,24.903
1945.3,4.1134,23.182
1957,2.8076,21.193
1968.8,3.5634,18.333
1980.5,2.1604,16.393
1992.2,3.727,17.017
2003.9,4.2113,21.908
2015.6,-0.24286,24.55
2027.3,-2.0915,22.337
2039.1,-0.85965,19.715
2050.8,1.3257,20.917
2062.5,1.3335,19.626
2074.2,3.8794,20.711
2085.9,2.9708,20.937
2097.7,0.90346,20.048
2109.4,-1.3832,22.751
2121.1,3.7247,23.124
2132.8,4.0654,21.827
2144.5,2.902,18.594
2156.3,4.6898,23.464
2168,4.8052,20.962
2179.7,3.6595,19.461
2191.4,2.838,20.994
2203.1,4.0277,22.48
2214.8,4.1019,22.196
2226.6,1.9868,20.941
2238.3,1.6452,20.473
2250,3.3042,18.808
2261.7,2.6806,21.876
2273.4,4.4317,22.405
2285.2,3.7153,23.449
2296.9,2.4506,22.921
2308.6,2.1173,24.168
2320.3,0.71738,24.509
2332,2.6216,23.49
2343.8,0.95566,21.334
2355.5,0.50063,24.491
2367.2,1.9424,24.546
2378.9,2.2705,22.056
2390.6,-0.69228,20.262
2402.3,1.399,22.063
2414.1,1.9934,22.845
2425.8,4.1922,22.151
2437.5,5.1811,19.112
2449.2,3.972,18.138
2460.9,0.28403,17.621
2472.7,-2.0998,18.207
2484.4,2.0332,21.811
2496.1,2.0426,23.57
2507.8,-0.387,24.735
2519.5,0.19038,23.769
2531.3,-0.97941,22.035
2543,-3.633,17.542
2554.7,-1.1384,18.72
2566.4,0.86772,20.529
2578.1,2.6536,20.292
2589.8,2.6783,19.786
2601.6,1.4923,18.167
2613.3,0.41261,22.505
2625,0.94964,22.064
2636.7,2.4657,16.334
2648.4,4.1014,21.16
2660.2,1.1105,23.26
2671.9,0.62839,23.311
2683.6,1.4821,25.161
2695.3,2.0125,23.66
2707,2.1056,25.2
2718.8,3.2112,21.514
2730.5,3.7171,20.894
2742.2,1.8138,20.001
2753.9,-2.5768,19.123
2765.6,-2.5824,18.434
2777.3,-0.74269,20.851
2789.1,1.0428,19.635
2800.8,-0.45064,18.863
2812.5,-0.25149,20.883
2824.2,-1.5345,22.973
2835.9,-1.5668,23.243
2847.7,-1.4743,23.027
2859.4,-4.8178,22.05
2871.1,-0.65301,19.659
2882.8,1.1251,20.227
2894.5,-1.6557,20.593
2906.3,-2.0807,21.581
2918,0.856,18.298
2929.7,1.6688,18.051
2941.4,1.0183,20.253
2953.1,0.78296,20.453
2964.8,0.80878,20.966
2976.6,2.7444,22.568
2988.3,1.893,22.505
3000,2.062,20.608
3011.7,1.2996,20.66
3023.4,-1.6924,20.102
3035.2,0.63868,18.647
3046.9,1.3231,18.639
3058.6,-2.673,19.507
3070.3,-0.74522,16.621
3082,-1.3604,17.628
3093.8,-0.1188,18.059
3105.5,-0.93095,20.712
3117.2,-2.6849,18.109
3128.9,-2.4197,19.38
3140.6,-0.44328,20.957
3152.3,2.398,21.29
3164.1,2.5338,18.815
3175.8,0.33207,17.544
3187.5,-1.9595,20.453
3199.2,-1.7413,19.315
3210.9,-1.3147,15.543
3222.7,-1.9488,19.576
3234.4,-1.6684,22.176
3246.1,-3.4716,19
3257.8,-1.1973,18.771
3269.5,-0.41126,18.469
3281.3,-1.7924,18.432
3293,-0.050185,18.139
3304.7,-1.0255,19.639
3316.4,-1.0174,20.361
3328.1,0.37254,18.723
3339.8,0.54006,17.231
3351.6,-0.74091,17.844
3363.3,-3.7998,18.76
3375,-0.53243,19.289
3386.7,-0.32181,18.263
3398.4,-2.8812,17.363
3410.2,-1.1999,19.354
3421.9,0.15355,16.194
3433.6,-1.6822,18.297
3445.3,-4.5444,18.356
3457,-4.811,20.026
3468.8,-3.3083,22.824
3480.5,-1.1316,22.046
3492.2,-0.44523,20.48
3503.9,1.0335,19.707
3515.6,-0.94239,18.839
3527.3,-5.1166,18.672
3539.1,-2.9194,19.024
3550.8,-0.76271,19.538
3562.5,-1.4498,20.433
3574.2,-0.88605,20.344
3585.9,-1.1952,19.315
3597.7,-1.1895,20.197
3609.4,-3.0182,21.142
3621.1,-2.8043,21.239
3632.8,-2.3618,19.535
3644.5,-0.58898,16.549
3656.3,-0.091862,17.074
3668,-1.487,14.499
3679.7,-0.95653,16.449
3691.4,-4.4322,17.007
3703.1,-4.3306,17.686
3714.8,-4.8383,18.834
3726.6,1.2122,13.808
3738.3,2.3275,15.823
3750,1.3333,17.895
3761.7,1.303,16.21
3773.4,-0.79726,16.826
3785.2,-2.4123,18.931
3796.9,-3.0677,18.466
3808.6,-2.6409,18.964
3820.3,-2.644,19.36
3832,0.33504,19.368
3843.8,-0.74733,19.513
3855.5,0.82257,16.81
3867.2,0.014847,17.846
3878.9,-5.266,18.021
3890.6,-1.0491,15.461
3902.3,-1.778,19.146
3914.1,-2.8907,20.416
3925.8,-1.9239,18.523
3937.5,-1.4409,16.157
3949.2,-3.0212,20.313
3960.9,-2.8674,20.148
3972.7,0.67888,16.729
3984.4,-0.50648,14.444
3996.1,-0.8248,16.946
4007.8,-1.5372,17.464
4019.5,-2.8083,15.616
4031.3,0.93761,16.81
4043,0.2337,14.392
4054.7,-1.2684,15.954
4066.4,-1.5555,16.43
4078.1,-4.0255,16.977
4089.8,-3.4308,20.668
4101.6,-1.665,20.55
4113.3,0.11367,19.489
4125,-1.3463,18.9
4136.7,-1.8442,19.581
4148.4,-2.5984,19.867
4160.2,-4.8302,18.68
4171.9,-3.445,15.946
4183.6,-2.2581,17.418
4195.3,-2.4596,19.515
4207,-2.4046,19.63
4218.8,0.1011,19.739
4230.5,0.40843,21.362
4242.2,-0.28205,21.042
4253.9,-0.42281,14.98
4265.6,-1.0066,16.445
4277.3,-3.7559,20.028
4289.1,-5.6912,21.495
4300.8,-5.1455,20.103
4312.5,-2.5724,17.355
4324.2,-2.3954,17.278
4335.9,-5.5783,14.944
4347.7,-0.7415,10.966
4359.4,-0.46976,13.802
4371.1,-3.0964,14.316
4382.8,-0.82581,16.99
4394.5,-0.62699,18.497
4406.3,-0.057207,14.908
4418,-0.531,17.525
4429.7,-4.8808,19.523
4441.4,-1.2866,18.27
4453.1,-1.329,16.535
4464.8,-3.9319,15.852
4476.6,-2.5102,15.419
4488.3,-7.4709,14.46
4500,-4.0572,15.476
4511.7,-2.9094,15.319
4523.4,-3.8861,16.236
4535.2,-4.6545,15.613
4546.9,-4.6409,14.788
4558.6,-2.5492,15.215
4570.3,-0.50085,16.213
4582,0.86734,15.322
4593.8,0.58576,17.982
4605.5,-1.2523,17.882
4617.2,-2.2755,15.251
4628.9,-5.6107,17.369
4640.6,-4.7369,17.619
4652.3,-0.88004,13.66
4664.1,-0.4705,15.641
4675.8,-3.3105,14.121
4687.5,-4.9483,16.267
4699.2,-3.2683,17.036
4710.9,-2.2236,17.488
4722.7,-5.9681,19.05
4734.4,-5.942,17.681
4746.1,-5.1892,15.726
4757.8,-6.1194,19.138
4769.5,-4.9741,19.643
4781.3,-4.4388,19.118
4793,-5.503,17.337
4804.7,-7.9581,15.565
4816.4,-4.8726,18.096
4828.1,-4.3638,18.74
4839.8,-4.0187,19.377
4851.6,-2.9761,20.893
4863.3,-3.5267,17.829
4875,-1.6477,17.557
4886.7,-1.5256,17.431
4898.4,-1.468,15.627
4910.2,-0.97603,14.374
4921.9,0.1938,16.306
4933.6,-0.2357,18.893
4945.3,-2.8614,18.533
4957,-5.2087,13.866
4968.8,-4.9236,17.173
4980.5,-3.294,21.131
4992.2,-6.9733,18.89
5003.9,-5.3352,17.403
5015.6,-3.9398,15.456
5027.3,-3.7326,13.909
5039.1,-4.4145,16.161
5050.8,-5.2895,20.189
5062.5,-6.8464,19.033
5074.2,-4.0875,18.606
5085.9,-2.7831,15.084
5097.7,-8.5124,17.675
5109.4,-3.4747,19.388
5121.1,-4.0982,17.448
5132.8,-3.5092,13.588
5144.5,-5.4813,12.902
5156.3,-4.2886,15.824
5168,-2.5347,16.755
5179.7,-2.9659,17.964
5191.4,-2.6791,20.556
5203.1,-1.2605,20.438
5214.8,-1.6221,15.5
5226.6,-2.4831,17.702
5238.3,-0.42222,17.037
5250,-0.79792,16.466
5261.7,-2.5684,15.838
5273.4,-1.9706,15
5285.2,-4.8404,18.584
5296.9,-4.2976,17.767
5308.6,-2.086,13.612
5320.3,-4.1511,12.884
5332,-2.9958,13.647
5343.8,-2.0998,15.177
5355.5,-5.348,16.425
5367.2,-5.315,15.085
5378.9,-5.6996,16.118
5390.6,-3.8055,16.015
5402.3,-4.5671,15.957
5414.1,-5.5773,16.012
5425.8,-4.1308,17.04
5437.5,-2.0141,17.804
5449.2,-6.0179,17.124
5460.9,-4.8966,13.708
5472.7,-4.778,19.564
5484.4,-6.6251,17.839
5496.1,-5.1511,16.809
5507.8,-2.4184,16.109
5519.5,-3.6079,13.893
5531.3,-7.1917,15.562
5543,-3.9179,14.961
5554.7,-6.1303,14.053
5566.4,-2.8497,16.267
5578.1,-2.6162,17.021
5589.8,-3.5759,14.549
5601.6,-5.8029,12.768
5613.3,-3.9052,12.663
5625,-4.6372,14.879
5636.7,-4.5313,16.256
5648.4,-2.9627,14.593
5660.2,-3.7576,11.71
5671.9,-4.6929,14.706
5683.6,-1.9191,15.718
5695.3,-3.8876,13.757
5707,-5.1567,12.354
5718.8,-5.7218,13.477
5730.5,-4.8185,16.851
5742.2,-2.9846,16.64
5753.9,-5.8026,13.398
5765.6,-7.569,15.509
5777.3,-4.5768,15.807
5789.1,-3.9559,15.109
5800.8,-4.7084,13.319
5812.5,-4.9137,16.4
5824.2,-6.2834,16.787
5835.9,-5.1561,17.482
5847.7,-3.0939,18.417
5859.4,-4.4753,19.108
5871.1,-7.2274,14.438
5882.8,-6.7897,14.825
5894.5,-6.1248,15.574
5906.3,-3.0293,16.474
5918,-6.3455,13.141
5929.7,-8.7806,13.502
5941.4,-8.3614,15.524
5953.1,-6.003,18.211
5964.8,-2.1496,17.779
5976.6,-0.29319,16.164
5988.3,-4.1213,15.671
6000,-5.5548,14.796
6011.7,-3.5768,15.621
6023.4,-8.4168,16.409
6035.2,-8.3342,12.857
6046.9,-5.9468,16.519
6058.6,-4.9193,16.969
6070.3,-4.933,15.782
6082,-6.7386,13.966
6093.8,-4.8921,14.848
6105.5,-5.6651,12.329
6117.2,-5.2974,13.856
6128.9,-6.3152,14.892
6140.6,-6.8205,14.762
6152.3,-6.2706,14.043
6164.1,-8.1577,11.482
6175.8,-11.274,14.795
6187.5,-7.2927,15.355
6199.2,-7.7939,13.57
6210.9,-5.7334,13.295
6222.7,-5.2763,15.544
6234.4,-6.837,15.082
6246.1,-6.5664,16.603
6257.8,-9.7254,17.591
6269.5,-10.167,16.245
6281.3,-5.2294,14.147
6293,-2.3283,14.817
6304.7,-2.4077,13.436
6316.4,-4.9798,12.244
6328.1,-7.6392,13.854
6339.8,-10.369,14.3
6351.6,-8.4642,11.189
6363.3,-6.6707,14.976
6375,-4.0642,17.164
6386.7,-5.1128,15.803
6398.4,-7.4777,14.782
6410.2,-8.914,18.21
6421.9,-5.8947,17.833
6433.6,-4.4155,16.32
6445.3,-7.3869,16.768
6457,-9.7133,14.845
6468.8,-8.3374,17.55
6480.5,-4.4262,17.068
6492.2,-4.0995,15.88
6503.9,-5.222,10.316
6515.6,-6.5422,11.991
6527.3,-8.9806,14.232
6539.1,-9.3851,14.055
6550.8,-9.9069,15.823
6562.5,-8.7605,16.341
6574.2,-8.1859,16.239
6585.9,-6.1696,14.016
6597.7,-6.2949,9.6312
6609.4,-9.3456,11.946
6621.1,-6.4458,15.384
6632.8,-6.6985,16.196
6644.5,-8.4811,14.04
6656.3,-7.6749,12.926
6668,-7.5196,14.337
6679.7,-4.0074,15.474
6691.4,-5.8706,15.421
6703.1,-5.0956,15.399
6714.8,-4.9603,16.15
6726.6,-7.1553,15.635
6738.3,-6.1275,13.211
6750,-7.1875,15.187
6761.7,-6.9706,15.231
6773.4,-7.9487,14.439
6785.2,-5.8091,12.6
6796.9,-5.8245,11.204
6808.6,-4.8748,15.554
6820.3,-5.6537,16.115
6832,-7.8701,12.965
6843.8,-7.0967,14.488
6855.5,-5.9033,13.075
6867.2,-4.5588,11.809
6878.9,-7.4376,12.852
6890.6,-6.5544,12.38
6902.3,-7.032,16.181
6914.1,-10.435,14.573
6925.8,-7.3098,13.012
6937.5,-5.4287,12.972
6949.2,-6.1175,13.354
6960.9,-6.7037,14.378
6972.7,-9.023,14.479
6984.4,-9.8933,11.961
6996.1,-11.636,14.067
7007.8,-9.0537,15.267
7019.5,-6.5564,15.192
7031.3,-8.7474,10.693
7043,-7.571,9.0123
7054.7,-6.4997,13.684
7066.4,-7.9855,10.679
7078.1,-5.7004,11.819
7089.8,-5.0615,14.897
7101.6,-10.422,13.179
7113.3,-11.022,12.47
7125,-7.815,12.78
7136.7,-9.5099,8.3803
7148.4,-9.7141,11.448
7160.2,-5.9206,15.592
7171.9,-4.0379,12.288
7183.6,-5.6401,12.641
7195.3,-5.7349,13.588
7207,-6.3129,14.247
7218.8,-6.0429,15.004
7230.5,-4.2497,15.574
7242.2,-6.4427,14.246
7253.9,-8.5937,13.288
7265.6,-6.1898,12.129
7277.3,-7.7827,10.974
7289.1,-10.041,11.127
7300.8,-7.5855,11.149
7312.5,-6.9022,11.479
7324.2,-4.6479,12.375
7335.9,-3.9541,12.394
7347.7,-4.8695,10.839
7359.4,-4.2468,9.5502
7371.1,-6.7497,12.274
7382.8,-4.9065,12.803
7394.5,-4.6372,13.472
7406.3,-6.5985,14.15
7418,-7.4601,16.199
7429.7,-8.6336,15.265
7441.4,-7.9326,12.369
7453.1,-9.6648,13.477
7464.8,-7.5989,13.361
7476.6,-10.751,12.912
7488.3,-4.695,11.557
7500,-4.7088,10.622
7511.7,-6.4417,12.121
7523.4,-8.7021,10.11
7535.2,-10.543,10.461
7546.9,-8.9529,15.497
7558.6,-7.6574,17.099
7570.3,-8.0872,14.616
7582,-10.102,13.017
7593.8,-9.4764,12.58
7605.5,-8.9216,10.918
7617.2,-8.3693,12.503
7628.9,-8.4543,15.492
7640.6,-7.2779,15.515
7652.3,-6.9412,15.279
7664.1,-8.3464,11.497
7675.8,-6.9133,13.142
7687.5,-7.1852,15.092
7699.2,-7.3007,14.191
7710.9,-8.7229,11.277
7722.7,-10.532,11.718
7734.4,-10.002,10.561
7746.1,-7.9048,7.7504
7757.8,-5.053,8.6659
7769.5,-7.4266,12.681
7781.3,-10.454,14.758
7793,-9.1333,11.809
7804.7,-8.5021,15.866
7816.4,-8.8233,16.236
7828.1,-11.06,17.953
7839.8,-12.865,16.344
7851.6,-9.0672,12.712
7863.3,-6.8632,8.7363
7875,-9.2321,12.735
7886.7,-13.065,14.017
7898.4,-10.268,13.448
7910.2,-11.81,11.711
7921.9,-8.6588,12.499
7933.6,-8.0955,12.532
7945.3,-10.126,10.885
7957,-11.439,11.994
7968.8,-8.4163,13.48
7980.5,-7.4699,11.475
7992.2,-9.5579,13.027
8003.9,-7.0499,13.236
8015.6,-8.5598,10.212
8027.3,-7.9828,11.81
8039.1,-7.0348,11.259
8050.8,-10.651,10.871
8062.5,-9.3988,11.392
8074.2,-8.141,12.352
8085.9,-6.2395,12.005
8097.7,-6.6399,15.762
8109.4,-7.0547,13.312
8121.1,-10.912,7.2294
8132.8,-11.109,6.9824
8144.5,-10.991,9.6208
8156.3,-8.296,10.04
8168,-8.7023,9.3379
8179.7,-9.7601,10.617
8191.4,-12.823,8.4118
8203.1,-9.7046,13.539
8214.8,-8.4249,15.686
8226.6,-9.0592,15.766
8238.3,-8.6124,15.025
8250,-9.1796,15.088
8261.7,-8.3422,12.054
8273.4,-7.4571,10.201
8285.2,-8.3902,11.084
8296.9,-8.0019,12.148
8308.6,-9.9992,10.315
8320.3,-9.4842,12.251
8332,-8.9718,10.453
8343.8,-7.5723,10.882
8355.5,-6.0568,14.737
8367.2,-7.6885,15.1
8378.9,-10.02,11.287
8390.6,-8.1706,10.283
8402.3,-9.4029,9.9828
8414.1,-7.4164,11.289
8425.8,-7.7649,12.557
8437.5,-10.061,9.2412
8449.2,-8.5649,9.5115
8460.9,-7.4206,12.191
8472.7,-9.2763,15.203
8484.4,-6.451,15.536
8496.1,-6.6263,13.585
8507.8,-7.0132,13.079
8519.5,-8.6256,11.901
8531.3,-10.641,6.6556
8543,-10.278,10.277
8554.7,-11.285,10.425
8566.4,-9.2441,10.547
8578.1,-8.7745,13.173
8589.8,-9.426,13.38
8601.6,-13.459,9.9323
8613.3,-11.555,12.272
8625,-11.85,12.941
8636.7,-10.314,11.116
8648.4,-11.538,11.504
8660.2,-11.591,11.358
8671.9,-11.027,13.781
8683.6,-9.825,12.933
8695.3,-11.626,9.8724
8707,-11.076,10.847
8718.8,-9.4954,12.038
8730.5,-9.8274,11.642
8742.2,-9.5731,13.111
8753.9,-8.1569,13.158
8765.6,-9.5799,13.079
8777.3,-10.304,12.299
8789.1,-7.5645,10.204
8800.8,-6.945,11.338
8812.5,-7.9324,12.75
8824.2,-11.159,8.7288
8835.9,-10.545,8.4219
8847.7,-8.6798,7.4663
8859.4,-11.249,9.4222
8871.1,-8.7043,9.2004
8882.8,-8.4821,8.6951
8894.5,-12.341,6.7506
8906.3,-12.162,9.7734
8918,-10.734,11.903
8929.7,-12.021,8.7598
8941.4,-14.79,6.3381
8953.1,-14.544,8.9999
8964.8,-14.033,14.191
8976.6,-9.8895,14.613
8988.3,-8.588,13.44
9000,-7.3409,11.177
9011.7,-8.7576,9.7445
9023.4,-7.9879,10.891
9035.2,-11.881,10.728
9046.9,-10.391,13.042
9058.6,-8.1599,13.312
9070.3,-9.1965,12.289
9082,-8.6802,13.811
9093.8,-11.448,15.231
9105.5,-11.873,15.388
9117.2,-10.012,14.169
9128.9,-9.134,14.32
9140.6,-10.349,13.517
9152.3,-10.043,16.151
9164.1,-9.3727,13.184
9175.8,-11.708,9.2832
9187.5,-12.283,11.809
9199.2,-11.392,11.063
9210.9,-8.4765,10.995
9222.7,-10.087,11.966
9234.4,-15.099,9.0077
9246.1,-12.425,10.149
9257.8,-12.026,9.6546
9269.5,-11.765,10.022
9281.3,-10.338,9.7935
9293,-9.6813,9.2653
9304.7,-11.825,8.7505
9316.4,-10.982,12.935
9328.1,-9.6361,13.096
9339.8,-11.366,9.683
9351.6,-13.923,10.464
9363.3,-12.635,11.05
9375,-10.814,11.154
9386.7,-10.926,8.5227
9398.4,-8.5548,8.9888
9410.2,-8.6317,10.347
9421.9,-10.986,8.9333
9433.6,-11.938,8.4116
9445.3,-10.333,7.6515
9457,-9.4896,8.19
9468.8,-10.13,8.2162
9480.5,-11.531,9.4309
9492.2,-11.691,13.376
9503.9,-8.5733,10.434
9515.6,-8.2378,9.7761
9527.3,-5.8671,10.892
9539.1,-9.9126,8.4907
9550.8,-11.818,9.5399
9562.5,-9.8878,13.156
9574.2,-11.25,12.082
9585.9,-13.025,8.699
9597.7,-7.7946,7.6619
9609.4,-9.7153,12.263
9621.1,-10.281,12.564
9632.8,-10.058,12.406
9644.5,-9.8762,11.545
9656.3,-13.085,9.3725
9668,-13.265,10.725
9679.7,-12.031,11.193
9691.4,-10.328,11.297
9703.1,-9.398,12.162
9714.8,-8.9877,12.482
9726.6,-9.1993,10.605
9738.3,-8.4159,11.043
9750,-8.824,11.038
9761.7,-10.978,6.5038
9773.4,-10.027,6.7678
9785.2,-10.977,6.387
9796.9,-10.94,10.615
9808.6,-11.976,12.397
9820.3,-9.725,10.47
9832,-9.3013,3.9407
9843.8,-10.199,8.6327
9855.5,-14.046,9.2978
9867.2,-10.49,9.4293
9878.9,-11.284,11.38
9890.6,-12.663,10.891
9902.3,-9.8075,8.3551
9914.1,-10.253,8.0608
9925.8,-11.15,6.7819
9937.5,-11.95,11.253
9949.2,-11.716,11.956
9960.9,-11.995,7.7915
9972.7,-10.973,7.5424
9984.4,-12.434,6.938
9996.1,-12.749,11.176
10008,-10.367,11.601
10020,-8.8399,8.6507
10031,-9.2173,10.214
10043,-9.6396,11.391
10055,-12.201,10.121
10066,-12.395,8.7648
10078,-12.529,7.6005
10090,-12.062,10.974
10102,-11.942,12.258
10113,-12.744,9.7574
10125,-10.581,10.9
10137,-8.0351,9.6511
10148,-9.6612,9.8302
10160,-11.436,10.449
10172,-11.255,11.999
10184,-12.458,12.374
10195,-9.3566,8.9671
10207,-10.694,7.0942
10219,-11.347,9.7232
10230,-12.484,8.0986
10242,-10.444,8.9881
10254,-13.824,9.5774
10266,-15.024,8.941
10277,-12.566,9.5258
10289,-11.097,8.3011
10301,-7.4184,12.003
10313,-8.7472,7.6542
10324,-12.109,10.037
10336,-13.896,9.5126
10348,-11.899,10.027
10359,-10.118,8.2496
10371,-11.551,9.7299
10383,-9.4177,10.7
10395,-6.6321,11.145
10406,-9.3977,9.8452
10418,-10.342,8.4661
10430,-13.573,7.0042
10441,-12.751,8.7244
10453,-11.052,12.18
10465,-10.365,11.985
10477,-11.458,12.483
10488,-13.628,10.174
10500,-13.526,8.8828
10512,-12.907,6.8314
10523,-12.233,8.5479
10535,-11.564,9.0081
10547,-11.534,6.1057
10559,-13.151,7.8321
10570,-10.646,8.0723
10582,-11.358,7.1223
10594,-14.354,8.2244
10605,-10.398,9.8603
10617,-10.232,7.6835
10629,-11.052,7.5963
10641,-11.836,7.5878
10652,-12.982,9.2127
10664,-11.362,7.073
10676,-9.7855,6.2947
10688,-10.901,6.7231
10699,-11.976,6.8896
10711,-12.848,9.1741
10723,-13.771,7.8408
10734,-13.97,7.3855
10746,-14.232,6.5609
10758,-12.024,9.1476
10770,-10.311,5.8284
10781,-13.282,5.5067
10793,-12.743,8.8272
10805,-10.995,7.779
10816,-10.816,7.6874
10828,-10.897,4.0655
10840,-11.55,5.3052
10852,-12.665,8.7772
10863,-12.478,8.6509
10875,-11.925,7.7125
10887,-12.018,2.3557
10898,-11.892,1.6917
10910,-11.127,5.4492
10922,-14.112,9.7892
10934,-13.655,9.3649
10945,-12.272,10.119
10957,-14.161,10.914
10969,-13.912,10.236
10980,-14.253,8.4958
10992,-14.991,11.144
11004,-13.243,11.82
11016,-10.744,9.8855
11027,-12.931,10.781
11039,-14.108,9.6076
11051,-15.33,8.1873
11063,-11.01,10.685
11074,-10.115,11.668
11086,-14.082,9.7646
11098,-13.019,7.0283
11109,-11.573,4.7605
11121,-12.704,8.4035
11133,-12.955,7.7429
11145,-9.0647,4.6901
11156,-11.471,4.7925
11168,-13.055,5.2175
11180,-12.582,5.6474
11191,-13.664,4.3097
11203,-11.859,6.8218
11215,-9.8807,8.6608
11227,-12.203,5.6136
11238,-12.225,10.146
11250,-15.756,10.835
11262,-13.117,9.4794
11273,-10.507,8.5042
11285,-9.8365,8.7022
11297,-11.368,5.8898
11309,-13.635,10.972
11320,-13.025,9.3123
11332,-11.97,9.1677
11344,-13.617,8.0571
11355,-14.396,5.4626
11367,-11.782,5.6587
11379,-10.975,8.7752
11391,-9.8675,9.0517
11402,-11.613,6.3199
11414,-10.78,8.3027
11426,-9.1602,12.481
11438,-11.292,7.4146
11449,-12.585,6.4
11461,-8.7935,6.3895
11473,-9.9504,3.1442
11484,-11.391,3.5339
11496,-10.722,6.1486
11508,-10.44,7.897
11520,-10.32,6.6642
11531,-11.646,4.411
11543,-10.956,3.3943
11555,-10.006,6.8879
11566,-14.384,7.4912
11578,-12.688,8.5856
11590,-11.036,10.384
11602,-13.133,6.8917
11613,-13.591,6.0852
11625,-14.272,5.1117
11637,-13.478,5.7583
11648,-14.181,3.3625
11660,-13.11,6.8347
11672,-13.277,6.4194
11684,-11.622,3.6125
11695,-10.962,6.4556
11707,-9.1522,7.1296
11719,-11.344,4.694
11730,-10.604,6.4986
11742,-12.048,7.4313
11754,-15.074,6.136
11766,-11.964,6.1358
11777,-12.52,6.1108
11789,-11.607,5.576
11801,-12.545,6.3895
11813,-10.515,4.8724
11824,-10.433,6.4618
11836,-15.019,6.9888
11848,-13.214,6.9432
11859,-13.741,5.3659
11871,-10.25,6.6012
11883,-11.306,11.059
11895,-11.82,10.948
11906,-13.365,9.1852
11918,-13.14,9.067
11930,-12.405,8.759
11941,-9.9741,7.9185
11953,-10.212,6.9418
11965,-10.721,8.5021
11977,-12.369,7.495
11988,-12.51,3.6136
12000,-12.727,7.1611
12012,-13.166,9.9822
12023,-13.851,10.106
12035,-12.886,7.972
12047,-13.218,3.7603
12059,-12.583,3.1596
12070,-10.161,6.9851
12082,-9.8611,8.3484
12094,-11.975,8.5928
12105,-12.263,7.6927
12117,-13.389,6.3012
12129,-12.93,8.9393
12141,-14.69,10.494
12152,-12.909,9.3177
12164,-12.457,6.1708
12176,-11.827,9.0769
12188,-14.476,9.6953
12199,-11.99,8.1486
12211,-11.987,7.0801
12223,-12.53,7.1302
12234,-9.0557,8.9083
12246,-9.7839,10.06
12258,-13.12,5.2542
12270,-10.526,7.0113
12281,-10.52,10.784
12293,-12.112,10.368
12305,-16.637,7.0685
12316,-13.561,8.3625
12328,-14.86,5.5243
12340,-15.364,4.258
12352,-14.468,4.6618
12363,-11.093,4.0717
12375,-12.718,4.7738
12387,-13.54,9.7033
12398,-12.204,11.147
12410,-9.0175,9.6858
12422,-11.51,5.2973
12434,-11.626,7.9994
12445,-11.683,8.0865
12457,-12.473,7.9118
12469,-15.009,11.68
12480,-13.871,9.3347
12492,-13.354,5.1714
12504,-13.281,7.5886
12516,-10.764,7.6443
12527,-10.009,4.4228
12539,-11.257,4.138
12551,-11.612,8.8688
12563,-13.418,9.4783
12574,-15.295,7.1113
12586,-16.97,8.7
12598,-16.174,8.1556
12609,-13.164,7.7058
12621,-12.438,6.2487
12633,-11.149,3.8775
12645,-13.219,7.1785
12656,-13.667,9.7108
12668,-11.381,8.4845
12680,-11.818,6.2518
12691,-13.641,6.4928
12703,-13.683,9.5757
12715,-11.58,7.6492
12727,-10.234,7.8307
12738,-9.4876,7.5642
12750,-12.503,7.5309
12762,-12.898,5.5981
12773,-13.187,6.2513
12785,-13.48,5.0785
12797,-17.413,4.4056
12809,-9.8405,6.8977
12820,-11.066,6.7982
12832,-15.516,6.7177
12844,-13.879,6.9331
12855,-13.734,8.6368
12867,-15.163,5.9335
12879,-13.131,2.7948
12891,-11.596,9.3558
12902,-12.952,10.826
12914,-15.701,9.9345
12926,-15.232,8.5572
12938,-14.116,4.5755
12949,-14.61,6.2252
12961,-12.37,7.2163
12973,-12.189,7.1272
12984,-13.114,7.5984
12996,-12.716,8.4688
13008,-12.491,9.9005
13020,-10.947,8.425
13031,-13.25,7.6233
13043,-12.346,8.597
13055,-10.125,7.8032
13066,-12.533,6.5301
13078,-12.943,7.6285
13090,-12.523,7.1038
13102,-12.874,7.398
13113,-15.062,5.5971
13125,-15.246,2.6492
13137,-12.315,5.4469
13148,-11.958,7.0115
13160,-13.032,6.5054
13172,-11.877,6.9654
13184,-11.655,5.9671
13195,-14.267,6.7363
13207,-14.619,7.7848
13219,-12.705,3.8604
13230,-14.563,4.5534
13242,-13.599,3.815
13254,-12.86,6.6639
13266,-14.143,7.079
13277,-14.48,5.5808
13289,-13.712,6.6039
13301,-15.592,8.5892
13313,-13.062,10.614
13324,-14.132,6.1764
13336,-16.236,5.0539
13348,-14.177,6.7432
13359,-14.754,7.6635
13371,-14.405,9.7813
13383,-14.921,9.2019
13395,-12.899,4.1083
13406,-17.9,6.4149
13418,-12.941,6.0242
13430,-12.098,6.4232
13441,-15.45,3.6868
13453,-16.256,4.3151
13465,-13.52,5.9311
13477,-12.096,5.7634
13488,-15.519,6.0815
13500,-10.998,4.1809
13512,-11.374,2.8141
13523,-13.79,6.4812
13535,-14.304,7.9664
13547,-16.15,3.8284
13559,-14.957,3.5462
13570,-15.139,5.4169
13582,-12.759,6.1917
13594,-13.762,3.8765
13605,-15.266,6.1221
13617,-11.907,8.1917
13629,-13.565,5.0941
13641,-15.032,3.7198
13652,-15.253,6.0877
13664,-16.16,1.5454
13676,-14.461,6.9566
13688,-16.947,6.5083
13699,-16.048,4.8883
13711,-14.663,4.3714
13723,-17.565,2.8504
13734,-14.725,6.5257
13746,-12.551,7.1464
13758,-13.486,5.0557
13770,-15.188,6.7522
13781,-14.505,7.6762
13793,-13.936,5.3375
13805,-13.835,2.7704
13816,-13.156,2.3828
13828,-15.048,4.6031
13840,-13.768,7.4212
13852,-14.497,6.4696
13863,-14.987,6.6835
13875,-16.819,6.0951
13887,-16.786,5.5329
13898,-17.215,5.0177
13910,-15.009,4.7189
13922,-16.474,2.6033
13934,-16.393,2.175
13945,-16.761,2.7814
13957,-14.509,5.3037
13969,-13.533,3.3997
13980,-14.934,2.7854
13992,-17.686,2.3678
14004,-17.434,0.053292
14016,-16.317,5.3557
14027,-15.279,9.085
14039,-15.421,4.7774
14051,-17.66,6.5958
14063,-17.73,9.0769
14074,-15.762,7.5101
14086,-14.42,7.1295
14098,-13.691,5.7395
14109,-13.379,3.5891
14121,-15.069,3.8586
14133,-14.29,6.5786
14145,-14.571,7.2065
14156,-14.607,4.3907
14168,-15.428,5.9817
14180,-15.938,2.1495
14191,-16.955,4.8312
14203,-15.681,6.2208
14215,-13.019,3.6171
14227,-17.073,0.66138
14238,-16.869,3.8533
14250,-15.176,2.9098
14262,-14.937,6.3817
14273,-15.869,6.4949
14285,-14.842,6.2913
14297,-12.986,5.6785
14309,-13.908,4.3347
14320,-16.965,3.3024
14332,-19.277,5.1607
14344,-17.704,8.7517
14355,-17.087,7.5127
14367,-18.05,3.6418
14379,-15.431,1.9837
14391,-16.962,3.7082
14402,-18.557,7.0186
14414,-15.418,4.6189
14426,-12.494,2.111
14438,-14.013,3.2623
14449,-16.253,-1.0032
14461,-15.249,1.755
14473,-15.161,4.9112
14484,-16.64,8.189
14496,-15.919,9.0513
14508,-17.884,7.3617
14520,-13.833,5.4102
14531,-16.857,6.2527
14543,-16.204,3.9808
14555,-15.795,0.89912
14566,-16.143,4.385
14578,-17.207,3.6304
14590,-14.371,1.0644
14602,-14.223,2.2568
14613,-17.258,6.9066
14625,-15.391,6.8968
14637,-16.628,4.4867
14648,-17.614,3.2233
14660,-16.754,5.1099
14672,-16.328,4.5061
14684,-15.547,2.9046
14695,-16.963,0.15583
14707,-18.527,4.3165
14719,-16.773,4.7147
14730,-17.08,2.899
14742,-18.424,5.5822
14754,-15.993,7.4371
14766,-16.169,5.3738
14777,-14.212,5.6015
14789,-16.274,4.4232
14801,-17.644,1.0321
14813,-17.967,1.9126
14824,-19.578,3.2637
14836,-18.172,4.9175
14848,-17.167,7.8486
14859,-15.277,6.2802
14871,-16.746,5.616
14883,-18.823,3.2611
14895,-16.264,4.0065
14906,-16.522,2.9022
14918,-19.109,4.836
14930,-18.503,7.0922
14941,-17.32,5.835
14953,-21.103,2.8425
14965,-17.977,3.8047
14977,-16.525,2.7064
14988,-19.205,3.1165
15000,-20.5,6.8297
15012,-20.349,5.3164
15023,-15.436,3.6629
15035,-15.173,3.6858
15047,-16.521,4.7926
15059,-16.929,6.5412
15070,-17.375,3.2371
15082,-18.843,4.2882
15094,-16.764,2.4319
15105,-16.92,4.0716
15117,-19.087,3.4181
15129,-18.163,1.2636
15141,-15.253,0.95838
15152,-13.97,1.3019
15164,-18.353,4.9401
15176,-18.192,4.0246
15188,-17.591,1.7281
15199,-19.423,3.1055
15211,-21.156,5.1046
15223,-19.852,3.467
15234,-21.917,4.4225
15246,-18.523,5.575
15258,-18.834,-0.038591
15270,-19.688,7.0542
15281,-19.419,7.2422
15293,-18.473,6.6012
15305,-17.6,2.6309
15316,-18.878,4.0144
15328,-19.109,3.271
15340,-18.63,4.0405
15352,-16.568,3.1111
15363,-18.356,4.1344
15375,-19.766,4.3594
15387,-17.844,3.7647
15398,-17.288,2.1633
15410,-18.05,2.4345
15422,-17.84,7.0513
15434,-17.742,4.532
15445,-19.465,1.2575
15457,-20.136,0.73747
15469,-16.317,-1.1097
15480,-15.346,1.9938
15492,-16.411,4.7779
15504,-18.43,3.9674
15516,-19.025,1.636
15527,-18.5,1.9556
15539,-18.138,2.0758
15551,-16.76,4.7483
15563,-19.18,6.1339
15574,-19.386,3.4223
15586,-19.38,3.1993
15598,-18.075,6.8635
15609,-18.907,7.4061
15621,-20.063,7.6698
15633,-17.461,7.5368
15645,-16.91,4.0272
15656,-18.15,3.1167
15668,-18.373,2.9912
15680,-16.063,2.6775
15691,-16.386,0.47756
15703,-18.49,6.7612
15715,-21.131,6.2084
15727,-21.477,3.5033
15738,-20.937,-0.21715
15750,-18.301,1.0564
15762,-17.464,2.8217
15773,-20.996,2.5023
15785,-19.039,1.7836
15797,-16.062,2.3433
15809,-16.475,2.5097
15820,-20.971,1.7218
15832,-21.193,5.0164
15844,-20.7,4.0995
15855,-19.735,2.8091
15867,-17.411,3.0483
15879,-17.659,2.4361
15891,-18.104,4.3317
15902,-19.075,6.7674
15914,-18.66,5.222
15926,-18.98,3.0218
15938,-18.603,5.6898
15949,-21.151,5.7088
15961,-18.208,2.1825
15973,-17.91,5.3718
15984,-19.17,4.5752
15996,-19.981,3.0223
16008,-17.824,4.5856
16020,-18.264,1.4887
16031,-20.825,3.8301
16043,-19.959,0.033104
16055,-19.067,0.34497
16066,-18.429,0.68148
16078,-19.783,0.64271
16090,-21.436,2.3364
16102,-19.917,4.8736
16113,-19.915,4.0694
16125,-17.844,7.8853
16137,-21.121,6.2138
16148,-19.853,1.582
16160,-18.666,-0.74314
16172,-20.602,1.8404
16184,-21.101,4.2181
16195,-20.758,2.5369
16207,-22.023,2.7838
16219,-21.24,1.7523
16230,-21.976,3.8378
16242,-23.883,6.7278
16254,-19.94,6.3693
16266,-18.422,2.1734
16277,-20.701,3.0792
16289,-23.164,3.2547
16301,-21.112,6.3557
16313,-17.992,3.4904
16324,-20.486,2.6069
16336,-23.357,4.8188
16348,-23.36,4.8883
16359,-20.602,5.0485
16371,-19.058,3.7497
16383,-19.842,1.9852
16395,-23.094,0.64034
16406,-23.011,1.7285
16418,-23.431,2.6211
16430,-23.299,2.2072
16441,-21.07,1.1814
16453,-20.483,3.0886
16465,-21.562,4.3464
16477,-22.099,-0.97087
16488,-21.482,2.405
16500,-19.917,4.2089
16512,-22.488,3.6189
16523,-22.594,0.84737
16535,-19.971,0.84289
16547,-21.188,1.378
16559,-22.426,0.1427
16570,-22.544,0.12203
16582,-18.559,3.3194
16594,-17.385,4.7841
16605,-20.728,3.3477
16617,-19.545,2.8082
16629,-19.827,-0.29326
16641,-24.409,-0.47016
16652,-25.535,-2.3899
16664,-20.978,2.6006
16676,-20.585,4.5607
16688,-24.697,2.4282
16699,-21.895,2.471
16711,-20.363,1.6046
16723,-19.789,2.704
16734,-18.323,-0.063131
16746,-18.705,2.7032
16758,-19.923,2.3156
16770,-19.808,1.2792
16781,-20.203,0.54924
16793,-22.46,-0.58503
16805,-23.747,0.65012
16816,-22.508,3.9255
16828,-20.567,3.6151
16840,-18.811,5.9726
16852,-19.496,5.4736
16863,-22.869,3.5142
16875,-22.574,1.9663
16887,-21.737,2.4658
16898,-22.346,2.7972
16910,-23.968,1.4195
16922,-23.046,5.2133
16934,-22.505,6.4747
16945,-24.064,3.7132
16957,-23.246,1.1013
16969,-22.757,0.82369
16980,-22.578,4.0128
16992,-19.016,5.0462
17004,-23.488,1.564
17016,-23.26,-2.0096
17027,-22.532,-0.44362
17039,-20.174,-0.33398
17051,-18.588,1.161
17063,-16.51,2.385
17074,-17.1,1.9883
17086,-17.893,1.1464
17098,-23.049,2.1784
17109,-19.946,-1.9319
17121,-18.724,2.8096
17133,-21.8,3.2216
17145,-21.135,5.3181
17156,-21.989,1.1048
17168,-20.803,1.5686
17180,-22.699,2.9411
17191,-23.268,2.0666
17203,-22.037,2.2092
17215,-22.597,1.2981
17227,-23.414,3.3702
17238,-23.871,4.4149
17250,-21.758,3.9934
17262,-19.661,2.6083
17273,-20.994,0.49719
17285,-21.795,-1.2593
17297,-23.782,-1.3674
17309,-22.241,2.1151
17320,-22.198,1.8487
17332,-23.692,1.9736
17344,-20.434,1.8319
17355,-21.354,2.2799
17367,-22.621,1.6991
17379,-20.695,-0.20446
17391,-19.182,-0.56889
17402,-19.38,-4.7363
17414,-21.467,-1.5766
17426,-22.501,-0.1533
17438,-24.508,-0.81245
17449,-24.553,2.3629
17461,-21.406,2.0581
17473,-19.413,-0.82983
17484,-23.023,-2.2478
17496,-24.265,-0.39738
17508,-23.115,2.8228
17520,-20.615,3.6318
17531,-20.447,2.3035
17543,-22.569,0.6248
17555,-21.705,0.24285
17566,-19.964,0.50228
17578,-20.992,4.8609
17590,-21.142,6.9393
17602,-22.991,5.0352
17613,-21.894,0.85282
17625,-21.621,3.1711
17637,-21.47,3.1036
17648,-20.074,0.69813
17660,-18.488,3.4464
17672,-21.943,3.8176
17684,-25.555,0.766
17695,-23.896,1.8204
17707,-20.803,-0.24087
17719,-20.238,0.98478
17730,-21.432,3.2925
17742,-22.843,2.0375
17754,-22.28,1.0959
17766,-23.917,-0.98987
17777,-23.835,0.44423
17789,-20.458,3.549
17801,-21.864,3.6023
17813,-20.546,4.5957
17824,-21.412,2.83
17836,-20.767,3.2654
17848,-21.714,1.8903
17859,-19.57,-1.6909
17871,-23.104,-1.232
17883,-25.065,-0.3083
17895,-23.397,1.3863
17906,-22.215,1.4068
17918,-21.384,2.2198
17930,-24.305,1.1414
17941,-24.467,3.024
17953,-25.037,2.911
17965,-20.885,-1.3547
17977,-18.475,1.8617
17988,-20.622,3.8042
18000,-19.998,1.6171
18012,-22.091,-1.0687
18023,-23.461,2.7361
18035,-21.604,4.729
18047,-22.079,-0.58271
18059,-23.936,0.44162
18070,-25.794,3.3895
18082,-23.438,2.3514
18094,-22.426,-1.5669
18105,-25.864,-0.33113
18117,-23.69,-1.7472
18129,-23.756,0.71903
18141,-23.088,1.5872
18152,-23.845,3.7979
18164,-22.124,2.7434
18176,-23.302,1.9346
18188,-22.36,2.4895
18199,-23.861,3.7567
18211,-22.469,-0.13829
18223,-21.127,-3.5374
18234,-24.241,-1.0381
18246,-26.077,0.80347
18258,-24.268,1.5521
18270,-20.885,-0.3077
18281,-21.98,-0.34714
18293,-23.038,1.0236
18305,-20.902,3.4302
18316,-21.21,2.1944
18328,-23.181,-0.30168
18340,-25.836,-1.312
18352,-23.163,-0.8608
18363,-23.418,-0.39945
18375,-26.185,0.46028
18387,-24.189,0.92536
18398,-23.143,0.015875
18410,-23.588,-0.50546
18422,-20.78,0.2154
18434,-24.569,2.5092
18445,-20.967,2.493
18457,-21.261,3.0427
18469,-22.199,3.164
18480,-23.396,0.037116
18492,-23.473,2.0053
18504,-22.076,0.1364
18516,-21.85,-1.8652
18527,-20.979,0.54471
18539,-20.503,0.20242
18551,-23.422,0.80802
18563,-25.662,0.88787
18574,-26.12,1.799
18586,-27.722,-0.68758
18598,-27.221,0.7841
18609,-25.212,-0.31634
18621,-24.711,-0.66497
18633,-21.152,2.1192
18645,-19.997,3.9209
18656,-23.634,0.16394
18668,-19.585,0.59706
18680,-22.048,0.40698
18691,-22.734,1.4359
18703,-20.499,0.93524
18715,-23.422,-1.041
18727,-24.312,2.1713
18738,-24.141,5.263
18750,-21.229,-1.1985
18762,-21.333,-1.1676
18773,-21.298,0.40273
18785,-24.286,1.3495
18797,-25.548,-0.64671
18809,-24.181,0.11986
18820,-23.08,-0.37766
18832,-23.336,-3.3369
18844,-23.512,-2.1985
18855,-25.207,0.36474
18867,-25.921,-2.7811
18879,-27.222,-4.4809
18891,-23.505,-2.1814
18902,-23.734,1.6436
18914,-25.108,-0.54747
18926,-22.962,-1.7734
18938,-21.04,1.348
18949,-21.536,4.014
18961,-23.033,3.5245
18973,-23.698,-0.046553
18984,-21.173,-1.7429
18996,-23.198,-1.5438
19008,-25.086,-3.8628
19020,-25.433,-3.67
19031,-24.881,-2.4679
19043,-26.323,-2.3823
19055,-23.448,0.98903
19066,-25.171,-0.055257
19078,-24.993,-0.70875
19090,-24.885,-0.34134
19102,-25.013,0.66724
19113,-25.822,-0.33237
19125,-23.698,2.0267
19137,-22.365,1.4987
19148,-20.93,1.4511
19160,-20.595,0.15898
19172,-20.67,-0.30927
19184,-22.952,-0.84199
19195,-22.993,-1.8047
19207,-23.514,-0.3101
19219,-23.542,0.12762
19230,-26.301,-3.3819
19242,-24.471,-0.72593
19254,-23.307,1.4685
19266,-21.74,0.77392
19277,-21.623,-0.9624
19289,-21.114,-3.2916
19301,-24.431,-3.2305
19313,-24.934,-3.3829
19324,-22.906,-3.7475
19336,-26.635,-5.9492
19348,-24.305,-5.0941
19359,-25.991,-2.3606
19371,-24.701,-2.14
19383,-22.542,2.5832
19395,-24.829,-1.3784
19406,-23.378,-1.2591
19418,-22.287,-1.6407
19430,-23.686,-1.6398
19441,-23.538,0.84435
19453,-20.714,1.7938
19465,-21.7,2.2565
19477,-22.146,1.6976
19488,-23.368,1.0915
19500,-24.998,1.6067
19512,-23.205,-0.23905
19523,-21.274,-2.0116
19535,-21.647,-2.632
19547,-24.783,-4.5202
19559,-25.587,-4.0371
19570,-25.258,-1.7375
19582,-25.376,-0.64832
19594,-24.021,0.45954
19605,-24.936,0.51166
19617,-28.635,0.26767
19629,-25.522,-2.3218
19641,-25.058,-0.53721
19652,-27.174,-2.7892
19664,-25.65,-5.1749
19676,-21.019,-1.2367
19688,-19.721,1.9774
19699,-21.513,2.714
19711,-24.593,1.4259
19723,-24.269,0.97231
19734,-23.764,-0.052181
19746,-20.632,-2.2309
19758,-23.419,-2.6448
19770,-25.025,0.060352
19781,-24.855,1.705
19793,-25.926,2.1078
19805,-24.094,1.9402
19816,-22.028,0.51138
19828,-22.549,0.48468
19840,-24.321,-1.1844
19852,-26.856,-2.5639
19863,-26.021,0.95458
19875,-23.895,-0.098752
19887,-22.049,-2.4177
19898,-23.887,-3.9069
19910,-22.547,-3.3266
19922,-21.222,-3.7095
19934,-23.418,-1.4089
19945,-27.708,0.71919
19957,-22.319,-0.34844
19969,-22.742,-4.534
19980,-23.319,-1.3848
19992,-23.451,-0.78138
20004,-20.749,-1.4903
20016,-23.1,-1.5551
20027,-27.553,-1.3878
20039,-25.611,0.52189
20051,-23.41,0.089579
20063,-25.151,1.5443
20074,-24.337,-0.949
20086,-24.426,-2.0037
20098,-23.657,-1.7899
20109,-24.756,-4.4723
20121,-24.131,-2.4202
20133,-24.738,-5.8581
20145,-25.429,-2.6104
20156,-24.632,-1.108
20168,-22.243,-1.7523
20180,-21.758,-3.3382
20191,-24.512,-1.0176
20203,-24.114,1.0938
20215,-25.599,-0.68652
20227,-24.32,0.10957
20238,-24.133,-0.14437
20250,-25.021,-1.5374
20262,-25.719,-1.3325
20273,-27.302,0.20618
20285,-30.203,2.0842
20297,-28.669,-0.22983
20309,-24.519,0.064631
20320,-22.482,-1.1354
20332,-22.854,-2.3628
20344,-25.437,-1.6949
20355,-26.062,-0.90346
20367,-24.28,1.3235
20379,-21.534,0.72832
20391,-21.949,-4.518
20402,-25.494,-2.8295
20414,-26.514,-3.7657
20426,-24.153,-4.092
20438,-25.007,-2.5326
20449,-25.743,-0.96228
20461,-24.635,-2.318
20473,-23.178,-1.706
20484,-24.522,0.89278
20496,-28.311,0.63096
20508,-26.526,-0.49497
20520,-26.201,-0.017341
20531,-25.098,1.9142
20543,-23.125,2.0911
20555,-24.121,0.8725
20566,-26.616,-0.12403
20578,-24.074,0.44958
20590,-24.76,-0.77055
20602,-28.229,-1.7853
20613,-27.755,-2.6998
20625,-25.635,-2.5297
20637,-28.981,-1.4996
20648,-27.083,-2.97
20660,-26.146,-7.0494
20672,-26.29,-4.5196
20684,-26.375,-4.9034
20695,-25.226,-2.5545
20707,-25.3,-1.0323
20719,-28.04,-1.4725
20730,-27.071,-3.1369
20742,-25.224,-3.0496
20754,-22.364,-4.9695
20766,-22.48,-4.4886
20777,-26.091,-2.2735
20789,-26.578,-0.018754
20801,-23.843,-0.67167
20813,-24.686,-3.8353
20824,-24.54,-3.6332
20836,-24.012,-1.3724
20848,-25.713,-3.2195
20859,-26.643,-3.3547
20871,-28.37,-2.5075
20883,-23.868,-2.4956
20895,-20.497,-1.6442
20906,-22.209,-1.2259
20918,-24.769,-4.2011
20930,-23.119,-4.037
20941,-23.33,-0.46291
20953,-23.889,-4.4604
20965,-24.146,0.18439
20977,-25.367,-0.43923
20988,-26.388,-3.0045
21000,-24.369,-2.9684
21012,-23.442,-4.2574
21023,-24.948,-2.9079
21035,-26.158,-2.2509
21047,-28.096,-1.9293
21059,-26.23,-4.1165
21070,-27.381,-6.7367
21082,-26.872,-3.4419
21094,-28.144,-0.12428
21105,-25.133,-1.8164
21117,-22.544,-2.5007
21129,-24.652,1.1616
21141,-25.499,1.7972
21152,-27.727,0.75211
21164,-29.449,-3.6983
21176,-26.473,-1.6838
21188,-26.234,-3.298
21199,-26.35,-3.3925
21211,-26.304,-2.2412
21223,-25.021,-0.32153
21234,-24.384,-3.2699
21246,-24.466,-0.10326
21258,-24.774,2.2143
21270,-25.907,-2.9082
21281,-26.368,-4.3992
21293,-26.468,0.66655
21305,-28.066,1.8719
21316,-26.291,0.39953
21328,-25.424,-5.2331
21340,-25.801,-5.0578
21352,-24.09,-2.5533
21363,-23.128,-3.4159
21375,-25.287,-2.1631
21387,-26.917,-0.37624
21398,-23.4,0.85601
21410,-21.744,-2.3412
21422,-22.095,-4.6426
21434,-18.687,-4.762
21445,-23.167,-2.0248
21457,-25.211,-0.039004
21469,-26.827,-0.4777
21480,-27.637,-3.7966
21492,-26.709,-3.2747
21504,-26.581,-4.0307
21516,-28.38,-3.6752
21527,-31.87,-2.6518
21539,-27.581,-3.5324
21551,-27.015,-1.9595
21563,-28.799,-2.2124
21574,-27.22,-1.1625
21586,-24.92,-0.34835
21598,-24.973,-4.5387
21609,-25.573,-3.1277
21621,-26.61,-3.3508
21633,-27.519,-3.7027
21645,-30.835,-0.24659
21656,-30.361,-1.8135
21668,-28.068,-1.8266
21680,-25.868,-2.5629
21691,-25.938,-5.3248
21703,-26.951,-6.1272
21715,-25.514,-4.7524
21727,-25.35,-1.4123
21738,-29.1,-1.6039
21750,-27.817,-1.9596
21762,-26.005,-4.0199
21773,-23.124,-0.82523
21785,-23.358,-2.106
21797,-23.566,-3.3198
21809,-26.228,-2.0496
21820,-29.86,-2.7809
21832,-28.829,-2.4355
21844,-27.601,-4.134
21855,-26.531,-6.1936
21867,-27.016,-4.64
21879,-29.442,-3.9443
21891,-29.435,-5.3363
21902,-27.64,-3.5459
21914,-27.52,-2.8081
21926,-23.726,-1.3478
21938,-22.743,-2.7717
21949,-23.56,-4.5702
21961,-27.09,-3.4435
21973,-27.399,-2.6835
21984,-26.657,-4.7459
21996,-28.135,-3.4312
22008,-26.991,-3.6692
22020,-27.134,-4.7521
22031,-25.675,-1.6864
22043,-26.86,0.21489
22055,-26.122,-0.42745
22066,-25.855,-2.8971
22078,-24.233,-2.2521
22090,-22.932,-2.7248
22102,-24.855,-2.6322
22113,-26.336,-2.9425
22125,-26.639,-3.5822
22137,-26.629,-4.5737
22148,-28.096,-7.6658
22160,-30.803,-4.3482
22172,-28.746,-0.58543
22184,-26.992,0.58025
22195,-25.77,1.7197
22207,-28.54,1.97
22219,-25.848,-0.91327
22230,-22.71,-4.1227
22242,-27.918,-0.49647
22254,-30.111,-1.3137
22266,-27.26,-6.591
22277,-25.72,-7.089
22289,-24.938,-5.2104
22301,-26.593,-4.0666
22313,-28.905,-4.7959
22324,-29.388,-2.311
22336,-27.025,-4.2495
22348,-27.843,-4.6172
22359,-27.288,-4.1352
22371,-25.412,-4.8559
22383,-26.502,-5.8759
22395,-28.63,-3.7589
22406,-24.861,-2.0219
22418,-27.538,-2.9329
22430,-27.328,-1.5848
22441,-26.18,-2.8815
22453,-26.973,-2.8202
22465,-26.583,-0.64451
22477,-26.323,0.50631
22488,-25.924,-1.293
22500,-22.668,-0.76244
22512,-26.24,-2.0495
22523,-26.787,0.77113
22535,-28.054,-0.10538
22547,-27.61,-4.0326
22559,-27.029,-4.5572
22570,-27.751,-3.778
22582,-26.971,-1.3727
22594,-27.733,-0.38848
22605,-28.757,-2.1919
22617,-28.83,-1.3741
22629,-30.075,-3.2011
22641,-25.82,-4.1563
22652,-24.558,-4.3695
22664,-25.849,-3.6933
22676,-26.17,-2.5561
22688,-27.154,-3.3505
22699,-28.367,-0.50743
22711,-28.946,-3.0176
22723,-31.64,-5.536
22734,-27.564,-0.60657
22746,-26.116,-2.7361
22758,-29.219,-6.6612
22770,-28.334,-5.4364
22781,-26.13,-2.6684
22793,-26.184,-2.5251
22805,-27.275,-0.85836
22816,-27.176,0.42538
22828,-25.078,0.80269
22840,-26.431,-1.6509
22852,-27.37,-5.8633
22863,-28.759,-6.9073
22875,-27.216,-3.5916
22887,-26.528,-0.48552
22898,-26.916,-5.6295
22910,-28.507,-4.0765
22922,-24.885,-1.71
22934,-25.919,-1.9603
22945,-26.724,-2.9285
22957,-25.606,-3.4817
22969,-30.178,-3.7542
22980,-30.833,-4.3598
22992,-25.401,-7.4477
23004,-24.754,-3.3412
23016,-27.253,0.091895
23027,-27.972,-1.1789
23039,-28.475,-4.321
23051,-29.988,-3.9731
23063,-27.859,-4.7709
23074,-29.964,-5.0302
23086,-31.82,-7.399
23098,-28.906,-5.461
23109,-27.926,-3.2719
23121,-25.128,-4.251
23133,-25.263,-1.9657
23145,-24.534,-0.62543
23156,-25.054,-2.6035
23168,-28.262,-1.1681
23180,-29.526,-1.4159
23191,-26.324,-4.3807
23203,-27.238,-4.2364
23215,-31.121,-5.1775
23227,-30.245,-6.3912
23238,-27.669,-5.7603
23250,-29.595,-7.0831
23262,-25.889,-6.9665
23273,-26.165,-8.4366
23285,-28.509,-6.0686
23297,-28.12,-5.5556
23309,-29.065,-2.4699
23320,-29.901,-4.5159
23332,-31.289,-7.1672
23344,-29.411,-5.5733
23355,-29.029,-3.612
23367,-27.611,-4.3867
23379,-27.385,-5.4498
23391,-26.737,-3.2323
23402,-26.102,-3.0878
23414,-27.539,-2.221
23426,-29.065,-2.3678
23438,-27.583,-4.7668
23449,-28.922,-3.5704
23461,-29.184,-4.7533
23473,-30.844,-2.6453
23484,-29.466,-2.4037
23496,-28.343,-8.0357
23508,-30.839,-4.5572
23520,-27.217,0.13692
23531,-26.11,-2.6532
23543,-28.967,-4.9311
23555,-28.199,-6.669
23566,-28.228,-1.8669
23578,-28.671,-2.6499
23590,-27.792,-1.5532
23602,-26.952,-3.0505
23613,-28.477,-4.3711
23625,-30.194,-5.5749
23637,-31.135,-6.1629
23648,-29.591,-5.8619
23660,-28.755,-2.2248
23672,-27.346,-3.9447
23684,-27.803,-4.9627
23695,-27.084,-3.6687
23707,-28.141,-0.23264
23719,-29.766,-0.53239
23730,-21.551,-3.8442
23742,-21.985,-5.3214
23754,-28.447,-5.6853
23766,-28.445,-5.5443
23777,-31.794,-4.5314
23789,-30.044,-2.0429
23801,-25.986,-1.798
23813,-25.884,-4.4963
23824,-28.041,-4.7635
23836,-26.477,-5.1058
23848,-26.523,-5.4801
23859,-29.172,-5.4635
23871,-28.707,-4.2637
23883,-27.598,-2.2756
23895,-30.03,-2.1163
23906,-30.45,-5.0884
23918,-26.951,-7.6954
23930,-29.93,-4.5812
23941,-28.406,-4.0303
23953,-30.035,-7.6469
23965,-30.705,-8.8063
23977,-29.712,-6.0279
23988,-27.6,-5.2142
