FFT,Power Spectrum
Frequency[Hz],Level-L[dB],Level-R[dB]
11.719,-3.9889,-61.649
23.438,16.198,-50.543
35.156,13.473,-40.535
46.875,16.377,-28.708
58.594,20.597,-26.84
70.313,22.126,-29.111
82.031,15.394,-28.507
93.75,21.788,-28.392
105.47,22.103,-23.664
117.19,20.988,-22.359
128.91,24.55,-21.895
140.63,26.265,-15.109
152.34,21.787,-13.267
164.06,19.414,-17.32
175.78,18.618,-18.495
187.5,20.363,-18.101
199.22,20.835,-19.974
210.94,16.951,-19.353
222.66,16.728,-16.831
234.38,19.855,-16.441
246.09,18.808,-13.79
257.81,16.877,-13.542
269.53,14.707,-16.328
281.25,13.468,-16.624
292.97,17.066,-16.301
304.69,18.537,-12.614
316.41,18.745,-11.525
328.13,17.666,-12.806
339.84,16.261,-13.411
351.56,17.488,-8.9028
363.28,19.455,-11.065
375,20.872,-15.596
386.72,17.927,-13.639
398.44,15.864,-15.308
410.16,14.854,-13.274
421.88,16.226,-13.351
433.59,17.083,-14.587
445.31,16.622,-13.19
457.03,15.491,-12.597
468.75,16.855,-12.866
480.47,16.995,-12.172
492.19,16.734,-12.799
503.91,17.69,-16.717
515.63,19.301,-16.817
527.34,18.945,-15.231
539.06,16.814,-12.936
550.78,18.577,-12.313
562.5,18.383,-11.442
574.22,17.616,-10.728
585.94,16.958,-11.87
597.66,18.045,-10.743
609.38,17.442,-11.993
621.09,21.143,-13.771
632.81,19.222,-12.439
644.53,15.804,-9.4839
656.25,15.922,-9.0431
667.97,14.157,-10.428
679.69,16.017,-9.2746
691.41,13.517,-9.269
703.13,13.437,-10.931
714.84,15.473,-11.953
726.56,15.124,-10.971
738.28,14.257,-7.4231
750,16.053,-7.7145
761.72,15.637,-7.9067
773.44,16.173,-6.5075
785.16,15.893,-9.1635
796.88,15.467,-12.151
808.59,17.743,-7.6488
820.31,18.113,-10.654
832.03,14.711,-9.6457
843.75,18.477,-10.982
855.47,17.843,-11.849
867.19,16.87,-10.706
878.91,11.776,-10.223
890.63,12.387,-10.69
902.34,12.816,-9.7088
914.06,16.673,-7.6562
925.78,13.762,-7.7661
937.5,13.55,-9.9152
949.22,12.942,-10.946
960.94,15.706,-8.7364
972.66,16.55,-6.7354
984.38,15.429,-9.1695
996.09,15.362,-6.6121
1007.8,14.159,-5.7633
1019.5,14.386,-8.5293
1031.3,16.281,-8.671
1043,18.344,-8.7413
1054.7,17.36,-9.7926
1066.4,14.887,-7.4475
1078.1,14.148,-7.6423
1089.8,16.882,-5.5241
1101.6,12.839,-5.4635
1113.3,16.292,-8.2261
1125,17.423,-8.9358
1136.7,15.071,-7.4341
1148.4,15.665,-9.607
1160.2,17.239,-8.7163
1171.9,13.625,-9.1701
1183.6,11.99,-12.041
1195.3,13.716,-8.7373
1207,13.689,-8.8
1218.8,13.61,-8.7571
1230.5,18.463,-4.8426
1242.2,17.652,-5.5413
1253.9,13.071,-6.9408
1265.6,13.382,-7.0887
1277.3,11.226,-5.0782
1289.1,14.334,-3.9586
1300.8,18.515,-6.8853
1312.5,17.388,-8.6755
1324.2,15.227,-6.0569
1335.9,13.435,-4.194
1347.7,15.516,-7.1817
1359.4,16.588,-7.3488
1371.1,15.563,-7.9325
1382.8,14.665,-6.1131
1394.5,15.811,-5.3617
1406.3,16.461,-6.5501
1418,17.54,-7.3497
1429.7,17.127,-5.3882
1441.4,20.024,-5.1588
1453.1,17.652,-4.8174
1464.8,16.24,-4.8655
1476.6,16.502,-9.3127
1488.3,13.035,-10.546
1500,13.374,-8.4953
1511.7,15.992,-6.8548
1523.4,15.729,-7.0865
1535.2,14.285,-7.6657
1546.9,13.812,-8.8143
1558.6,14.379,-9.0948
1570.3,14.359,-6.9422
1582,14.637,-5.6897
1593.8,13.519,-6.8624
1605.5,12.649,-7.5319
1617.2,16.788,-7.7932
1628.9,17.162,-8.3054
1640.6,14.881,-8.2912
1652.3,11.654,-6.8075
1664.1,13.287,-11.116
1675.8,12.69,-7.261
1687.5,13.592,-7.9659
1699.2,14.967,-8.9865
1710.9,17.243,-7.9976
1722.7,13.761,-9.0459
1734.4,12.533,-10.397
1746.1,12.662,-7.2841
1757.8,12.952,-6.5292
1769.5,11.722,-6.4861
1781.3,10.646,-9.2327
1793,12.416,-8.7618
1804.7,17.584,-7.9998
1816.4,18.167,-5.6888
1828.1,18.412,-7.0944
1839.8,18.43,-4.9684
1851.6,15.159,-4.6825
1863.3,16.822,-10.569
1875,14.375,-9.2689
1886.7,12.699,-10.447
1898.4,14.518,-8.5322
1910.2,15.956,-8.064
1921.9,17.12,-3.5372
1933.6,15.619,-2.9485
1945.3,14.434,-7.3178
1957,13.832,-9.2153
1968.8,13.203,-7.8793
1980.5,11.019,-6.863
1992.2,9.5376,-9.0265
2003.9,11.392,-10.645
2015.6,12.756,-9.6692
2027.3,14.185,-8.2617
2039.1,13.159,-9.2326
2050.8,10.216,-8.6328
2062.5,12.206,-9.139
2074.2,13.057,-11.494
2085.9,15.551,-8.4435
2097.7,14.819,-7.0149
2109.4,14.881,-7.612
2121.1,12.017,-8.5398
2132.8,11.381,-11.632
2144.5,9.694,-6.016
2156.3,10.772,-5.7271
2168,12.351,-6.2008
2179.7,9.4044,-6.3846
2191.4,8.0804,-9.2591
2203.1,12.157,-6.4938
2214.8,10.129,-5.9477
2226.6,10.559,-9.0206
2238.3,13.7,-8.8808
2250,12.004,-8.0714
2261.7,11.41,-10.536
2273.4,12.242,-10.813
2285.2,12.501,-10.768
2296.9,13.883,-8.4202
2308.6,14.151,-6.5197
2320.3,13.391,-8.0434
2332,13.019,-6.5986
2343.8,13.109,-9.0242
2355.5,13,-10.423
2367.2,11.551,-9.1714
2378.9,11.152,-12.797
2390.6,14.52,-9.0756
2402.3,14.505,-9.5014
2414.1,10.743,-6.853
2425.8,11.552,-6.7661
2437.5,11.922,-8.5752
2449.2,12.938,-8.1763
2460.9,12.97,-10.392
2472.7,13.879,-8.4792
2484.4,13.975,-9.0405
2496.1,14.714,-5.5739
2507.8,12.499,-3.8167
2519.5,9.6858,-5.8164
2531.3,9.8722,-7.5107
2543,13.476,-8.1666
2554.7,14.189,-7.2751
2566.4,13.656,-6.1158
2578.1,12.181,-5.385
2589.8,9.8712,-6.1871
2601.6,13.12,-9.2892
2613.3,14.525,-8.9298
2625,12.067,-9.3923
2636.7,8.7254,-9.0099
2648.4,12.228,-7.5509
2660.2,9.6677,-8.0205
2671.9,7.2188,-3.0214
2683.6,11.048,-5.3258
2695.3,12.337,-7.9941
2707,11.549,-7.1186
2718.8,10.731,-5.9465
2730.5,8.7108,-5.2561
2742.2,10.719,-5.8614
2753.9,14.713,-6.7867
2765.6,13.447,-5.1838
2777.3,14.545,-8.4356
2789.1,12.093,-9.642
2800.8,12.13,-9.5631
2812.5,12.742,-10.5
2824.2,11.138,-8.0083
2835.9,10.902,-5.7758
2847.7,11.372,-7.6504
2859.4,11.926,-6.5512
2871.1,8.1748,-5.0932
2882.8,8.8644,-7.804
2894.5,13.215,-10.382
2906.3,13.111,-9.6374
2918,11.164,-9.6317
2929.7,10.484,-8.1443
2941.4,8.1192,-6.4542
2953.1,9.7314,-4.7532
2964.8,13.021,-7.3404
2976.6,13.772,-7.8318
2988.3,11.491,-7.2055
3000,11.625,-5.0912
3011.7,9.2217,-4.458
3023.4,10.961,-4.8456
3035.2,10.725,-6.6714
3046.9,8.4479,-9.0434
3058.6,8.5494,-8.4404
3070.3,8.5656,-8.3042
3082,12.566,-8.5767
3093.8,14.372,-8.6157
3105.5,13.932,-7.6793
3117.2,12.938,-7.5881
3128.9,11.144,-6.9951
3140.6,10.089,-10.657
3152.3,10.46,-8.756
3164.1,10.945,-7.3848
3175.8,9.3911,-8.5243
3187.5,7.9388,-3.4383
3199.2,9.5149,-2.094
3210.9,9.069,-3.9182
3222.7,11.312,-8.3412
3234.4,11.023,-7.0075
3246.1,11.993,-5.0519
3257.8,10.276,-6.3772
3269.5,13.081,-6.9371
3281.3,11.384,-7.0528
3293,10.144,-5.9736
3304.7,11.945,-4.9085
3316.4,13.507,-5.3941
3328.1,13.162,-6.953
3339.8,10.528,-6.4307
3351.6,9.4733,-8.2133
3363.3,9.5699,-10.575
3375,10.553,-12.595
3386.7,9.8947,-8.2639
3398.4,10.374,-7.428
3410.2,13.06,-9.3472
3421.9,13.705,-9.8673
3433.6,13.221,-6.7654
3445.3,10.128,-4.357
3457,11.249,-3.3497
3468.8,11.69,-4.3635
3480.5,7.2908,-4.4673
3492.2,9.4176,-6.5477
3503.9,11.71,-7.439
3515.6,11.432,-8.9221
3527.3,10.108,-12.185
3539.1,12.303,-9.8533
3550.8,11.291,-5.1755
3562.5,9.6369,-6.546
3574.2,8.5514,-5.6796
3585.9,8.5957,-5.642
3597.7,10.374,-6.3957
3609.4,11.46,-6.5554
3621.1,10.773,-8.8152
3632.8,10.031,-8.7253
3644.5,11.867,-8.5953
3656.3,9.9474,-9.4641
3668,9.5155,-9.1436
3679.7,9.4859,-7.6734
3691.4,8.0248,-8.2001
3703.1,4.5098,-8.449
3714.8,8.1047,-6.9343
3726.6,10.077,-7.9439
3738.3,10.041,-5.8094
3750,8.1255,-8.0453
3761.7,6.3312,-6.6988
3773.4,7.8935,-6.6073
3785.2,8.5094,-7.043
3796.9,8.3668,-6.0958
3808.6,7.9176,-7.915
3820.3,8.2021,-8.3356
3832,8.8314,-9.9912
3843.8,9.5505,-9.073
3855.5,11.366,-9.4244
3867.2,8.6566,-9.7136
3878.9,7.3195,-6.3279
3890.6,8.814,-9.7453
3902.3,11.022,-11.386
3914.1,10.586,-9.366
3925.8,8.7836,-7.5924
3937.5,6.205,-6.4394
3949.2,9.2948,-7.3753
3960.9,12.205,-6.6394
3972.7,10.981,-8.2071
3984.4,15.247,-9.6548
3996.1,25.402,-11.819
4007.8,23.355,-9.2736
4019.5,7.5089,-6.8859
4031.3,9.1882,-7.0064
4043,10.04,-9.5662
4054.7,8.7056,-8.9014
4066.4,7.9203,-6.0296
4078.1,8.4406,-7.3168
4089.8,9.3672,-6.7501
4101.6,8.4081,-7.212
4113.3,5.2175,-7.5292
4125,4.2513,-8.906
4136.7,4.5543,-9.3992
4148.4,7.5808,-9.3126
4160.2,7.0724,-11.226
4171.9,7.9741,-8.0769
4183.6,8.4137,-7.272
4195.3,8.2045,-8.1725
4207,4.7439,-7.2685
4218.8,5.7626,-7.5152
4230.5,7.4245,-7.1302
4242.2,7.964,-7.3396
4253.9,10.505,-8.9983
4265.6,9.6482,-9.2236
4277.3,9.3783,-9.5144
4289.1,8.7824,-7.2109
4300.8,9.4252,-4.91
4312.5,7.5806,-4.7443
4324.2,6.1621,-4.1929
4335.9,7.8731,-9.5761
4347.7,7.9376,-8.0244
4359.4,7.323,-7.9892
4371.1,4.3742,-8.1192
4382.8,3.8271,-11.326
4394.5,7.8361,-3.3478
4406.3,9.5129,-2.9855
4418,5.9494,-6.8258
4429.7,6.1735,-10.249
4441.4,3.5763,-9.5795
4453.1,4.5212,-7.2196
4464.8,5.0813,-5.5022
4476.6,7.4988,-5.7828
4488.3,7.9182,-9.5614
4500,7.44,-10.28
4511.7,10.169,-7.9294
4523.4,9.3384,-9.4189
4535.2,7.4992,-4.5659
4546.9,6.2571,-5.068
4558.6,3.755,-7.6433
4570.3,9.0799,-10.453
4582,6.6487,-10.177
4593.8,9.0474,-9.7805
4605.5,9.4023,-7.7823
4617.2,7.4354,-5.784
4628.9,9.3708,-7.3949
4640.6,10.046,-8.424
4652.3,6.0741,-8.4742
4664.1,9.342,-8.2042
4675.8,10.344,-8.049
4687.5,7.7558,-9.3905
4699.2,6.6892,-10.067
4710.9,6.4239,-10.602
4722.7,6.5037,-8.6065
4734.4,5.0695,-8.45
4746.1,5.2603,-8.0605
4757.8,5.8563,-9.9294
4769.5,6.1385,-6.4561
4781.3,5.6973,-7.3486
4793,7.2071,-8.3807
4804.7,5.4012,-11.022
4816.4,2.9236,-7.4261
4828.1,4.0269,-8.4911
4839.8,6.9485,-5.8281
4851.6,8.1279,-9.161
4863.3,8.9937,-10.688
4875,8.7945,-10.133
4886.7,9.4457,-10.045
4898.4,10.957,-8.2935
4910.2,6.6334,-8.6616
4921.9,4.6915,-5.9938
4933.6,2.9997,-4.7157
4945.3,4.6816,-6.7598
4957,7.1496,-10.634
4968.8,9.862,-10.325
4980.5,10.079,-9.2391
4992.2,6.1191,-9.1266
5003.9,8.0994,-8.678
5015.6,8.0755,-7.0581
5027.3,8.1009,-8.4333
5039.1,7.7896,-7.8415
5050.8,6.2708,-6.736
5062.5,8.7929,-4.3672
5074.2,9.8844,-6.2595
5085.9,7.6171,-10.833
5097.7,6.06,-6.1703
5109.4,8.8958,-8.4945
5121.1,9.923,-7.427
5132.8,8.2768,-6.1553
5144.5,8.3591,-9.5701
5156.3,6.8122,-7.7054
5168,4.8093,-7.9916
5179.7,7.1766,-10.744
5191.4,7.6735,-9.6146
5203.1,6.4631,-8.7606
5214.8,6.2352,-7.8459
5226.6,5.8836,-5.1199
5238.3,4.954,-6.2553
5250,5.438,-7.1098
5261.7,6.8871,-8.2102
5273.4,9.9199,-12.074
5285.2,8.9231,-8.7626
5296.9,6.6297,-10.285
5308.6,5.8129,-10.653
5320.3,8.049,-9.0823
5332,10.096,-13.898
5343.8,9.2991,-6.3696
5355.5,5.8798,-4.3703
5367.2,4.6057,-11.929
5378.9,7.7982,-6.9675
5390.6,9.223,-6.9317
5402.3,7.2364,-9.1821
5414.1,3.9613,-11.66
5425.8,7.4441,-7.5427
5437.5,7.2836,-6.1209
5449.2,5.3846,-8.3136
5460.9,9.8983,-9.5725
5472.7,7.4107,-13.223
5484.4,4.7162,-9.7399
5496.1,5.6045,-10.1
5507.8,6.8989,-7.6753
5519.5,4.616,-7.5944
5531.3,5.2525,-7.3764
5543,7.3676,-8.7306
5554.7,6.8314,-10.62
5566.4,3.1372,-10.049
5578.1,4.2529,-8.8691
5589.8,4.7071,-6.9283
5601.6,5.2067,-7.8032
5613.3,6.7344,-7.7912
5625,5.2171,-8.6758
5636.7,5.2137,-11.191
5648.4,2.6843,-11.106
5660.2,4.2967,-8.6044
5671.9,5.9359,-8.4292
5683.6,4.801,-8.0819
5695.3,3.8706,-8.9953
5707,5.2109,-10.362
5718.8,1.9298,-8.0612
5730.5,4.7953,-8.7166
5742.2,5.2164,-9.88
5753.9,6.2795,-8.8859
5765.6,6.2009,-7.4972
5777.3,5.6305,-7.9553
5789.1,6.2909,-7.1334
5800.8,5.7062,-9.1301
5812.5,5.9866,-10.708
5824.2,7.8514,-7.034
5835.9,7.5353,-4.7842
5847.7,3.2247,-7.6506
5859.4,7.4737,-10.238
5871.1,6.0057,-11.669
5882.8,4.3354,-11.283
5894.5,6.0154,-10.659
5906.3,5.0273,-12.161
5918,5.6882,-10.114
5929.7,6.5625,-9.8837
5941.4,8.5588,-10.72
5953.1,7.1537,-9.8269
5964.8,6.1043,-9.9364
5976.6,4.1528,-8.4638
5988.3,3.7311,-8.9203
6000,5.3566,-11.228
6011.7,6.489,-9.8604
6023.4,6.5789,-7.5618
6035.2,4.8458,-10.332
6046.9,6.7803,-8.8002
6058.6,3.6767,-11.41
6070.3,4.501,-8.3323
6082,4.1314,-9.651
6093.8,5.3647,-10.288
6105.5,2.9578,-9.2775
6117.2,3.9511,-6.8823
6128.9,5.213,-7.8873
6140.6,6.8863,-8.6148
6152.3,5.7329,-7.1666
6164.1,5.1539,-11.706
6175.8,5.6471,-8.688
6187.5,5.1086,-7.917
6199.2,3.5348,-5.724
6210.9,3.4524,-6.7737
6222.7,5.5748,-10.226
6234.4,6.0285,-8.7505
6246.1,5.3204,-8.8446
6257.8,5.1634,-9.8433
6269.5,6.2058,-9.4401
6281.3,4.2587,-9.3768
6293,2.005,-10.184
6304.7,2.2369,-8.6915
6316.4,5.1986,-9.6358
6328.1,5.2284,-8.1198
6339.8,2.3684,-7.2648
6351.6,2.0088,-7.8688
6363.3,3.8185,-6.4259
6375,4.6248,-6.0276
6386.7,5.1273,-6.5686
6398.4,5.8735,-7.4255
6410.2,6.3783,-9.2549
6421.9,6.8932,-9.9127
6433.6,6.8868,-10.413
6445.3,5.7842,-10.101
6457,5.3755,-10.558
6468.8,4.4296,-7.2197
6480.5,6.5427,-7.099
6492.2,8.7745,-9.5058
6503.9,5.4508,-5.1051
6515.6,3.8084,-8.4517
6527.3,3.6098,-9.0315
6539.1,6.2793,-9.2397
6550.8,5.5487,-7.5167
6562.5,2.8859,-6.5239
6574.2,4.0232,-11.129
6585.9,7.2363,-10.649
6597.7,6.6093,-9.8186
6609.4,5.4056,-12.364
6621.1,6.0882,-11.871
6632.8,5.7637,-10.015
6644.5,6.1711,-10.246
6656.3,6.6374,-10.069
6668,6.3363,-11.48
6679.7,4.8567,-13.621
6691.4,2.8888,-12.291
6703.1,2.4619,-7.0709
6714.8,3.7885,-8.0984
6726.6,5.013,-8.7272
6738.3,5.2856,-7.6831
6750,6.8899,-8.6241
6761.7,3.2641,-7.6198
6773.4,2.6014,-8.224
6785.2,3.4075,-8.0122
6796.9,3.5974,-10.975
6808.6,2.6363,-9.1704
6820.3,4.0971,-9.3484
6832,4.9446,-10.63
6843.8,2.8927,-8.9792
6855.5,2.8467,-7.8269
6867.2,4.5626,-8.24
6878.9,6.3637,-7.9755
6890.6,4.1535,-8.1834
6902.3,1.6882,-7.0982
6914.1,-0.17602,-5.9586
6925.8,-0.019057,-6.2825
6937.5,3.529,-13.357
6949.2,5.9581,-8.0075
6960.9,7.8554,-7.3578
6972.7,6.135,-9.7326
6984.4,5.7244,-8.5452
6996.1,5.1509,-8.5163
7007.8,2.6063,-5.9132
7019.5,-1.1311,-7.1004
7031.3,1.4781,-7.4278
7043,2.4758,-8.9233
7054.7,3.6205,-11.42
7066.4,4.2617,-11.751
7078.1,2.0656,-10.918
7089.8,3.2861,-8.7946
7101.6,4.4719,-8.9841
7113.3,6.2248,-11.819
7125,2.5034,-8.761
7136.7,2.8986,-6.42
7148.4,2.7869,-6.5565
7160.2,1.5403,-10.06
7171.9,2.4212,-9.564
7183.6,3.1754,-7.7617
7195.3,0.90361,-8.8475
7207,1.4747,-10.469
7218.8,3.8054,-10.228
7230.5,4.9412,-8.968
7242.2,4.6036,-10.04
7253.9,5.4,-8.8733
7265.6,3.6838,-9.8889
7277.3,1.8989,-9.8526
7289.1,3.7724,-6.545
7300.8,2.7319,-5.3347
7312.5,4.7691,-8.0565
7324.2,6.7926,-9.6033
7335.9,3.374,-8.8985
7347.7,2.662,-6.4677
7359.4,2.6667,-9.161
7371.1,2.8534,-10.598
7382.8,2.8049,-9.5094
7394.5,2.3806,-9.7275
7406.3,4.33,-10.782
7418,5.3327,-9.6581
7429.7,6.4301,-13.453
7441.4,3.5025,-9.2831
7453.1,1.6575,-8.4529
7464.8,-1.6809,-9.1889
7476.6,2.573,-9.6551
7488.3,2.3275,-8.7388
7500,0.058679,-10.813
7511.7,2.0845,-13.585
7523.4,2.7595,-12.714
7535.2,2.9529,-13.4
7546.9,3.1723,-12.041
7558.6,5.2434,-10.094
7570.3,5.0782,-9.9921
7582,4.3322,-11.086
7593.8,4.8501,-8.4321
7605.5,2.6784,-8.3179
7617.2,1.2637,-9.9983
7628.9,3.1815,-12.247
7640.6,4.1677,-13
7652.3,1.1149,-11.49
7664.1,1.2864,-12.315
7675.8,1.4148,-11.461
7687.5,4.847,-10.146
7699.2,1.6341,-8.6227
7710.9,1.9311,-8.9743
7722.7,-0.26029,-13.876
7734.4,0.56232,-12.005
7746.1,3.3977,-9.9358
7757.8,2.1779,-7.6189
7769.5,0.70636,-9.4715
7781.3,3.1552,-7.7899
7793,4.1801,-7.4608
7804.7,3.2298,-8.3437
7816.4,1.5751,-9.7466
7828.1,5.4656,-8.1849
7839.8,1.8023,-8.3727
7851.6,5.8403,-10.151
7863.3,3.7223,-8.3577
7875,0.4568,-8.1637
7886.7,0.91269,-11.117
7898.4,1.4474,-9.1717
7910.2,2.8087,-6.6167
7921.9,2.7181,-9.0483
7933.6,3.2268,-8.5788
7945.3,0.32393,-8.7739
7957,3.6044,-9.0021
7968.8,5.9334,-10.393
7980.5,1.8002,-12.972
7992.2,0.35881,-9.4369
8003.9,3.4338,-9.6868
8015.6,2.872,-8.3724
8027.3,2.8188,-8.2168
8039.1,5.9396,-11.769
8050.8,4.4699,-11.901
8062.5,4.8359,-10.719
8074.2,3.929,-9.0748
8085.9,3.8598,-7.5047
8097.7,4.3078,-12.562
8109.4,1.8878,-12.832
8121.1,2.8718,-8.7002
8132.8,1.4406,-8.0286
8144.5,1.7543,-10.093
8156.3,2.1944,-9.8204
8168,3.9466,-11.906
8179.7,3.264,-10.969
8191.4,1.0792,-9.6824
8203.1,1.8327,-9.469
8214.8,4.0305,-8.7097
8226.6,4.3157,-6.2449
8238.3,2.4656,-10.536
8250,3.3431,-11.097
8261.7,1.3269,-12.461
8273.4,0.9328,-11.434
8285.2,2.7072,-9.4558
8296.9,4.2057,-10.862
8308.6,1.3792,-10.531
8320.3,1.5468,-8.6237
8332,2.9999,-8.5742
8343.8,3.7407,-9.4404
8355.5,3.7378,-11.791
8367.2,4.0034,-10.234
8378.9,4.5164,-12.018
8390.6,2.3611,-10.985
8402.3,3.2437,-10.236
8414.1,-1.0568,-9.0326
8425.8,0.64146,-9.4903
8437.5,0.30078,-9.4473
8449.2,0.05569,-8.2816
8460.9,-0.45933,-8.6048
8472.7,1.3633,-12.04
8484.4,1.2702,-11.704
8496.1,3.1998,-9.6533
8507.8,2.0084,-9.1162
8519.5,2.9607,-10.383
8531.3,3.4656,-13.278
8543,-1.1697,-10.936
8554.7,-0.71878,-8.375
8566.4,2.2219,-6.5279
8578.1,2.1001,-9.7438
8589.8,3.9491,-12.547
8601.6,3.0178,-9.8728
8613.3,0.66492,-9.9747
8625,0.69497,-8.2152
8636.7,0.87385,-8.8584
8648.4,-0.026814,-12.191
8660.2,1.1659,-10.961
8671.9,3.0664,-8.0124
8683.6,2.0812,-9.6617
8695.3,3.0973,-14.771
8707,1.9572,-9.8716
8718.8,0.61617,-8.1733
8730.5,-1.6012,-7.6343
8742.2,-0.24626,-9.0957
8753.9,0.93174,-10.132
8765.6,2.0068,-11.204
8777.3,3.1634,-12.774
8789.1,3.1037,-11.666
8800.8,1.0864,-6.0268
8812.5,1.1429,-5.7808
8824.2,0.68605,-9.7553
8835.9,-2.5341,-10.593
8847.7,1.4735,-12.269
8859.4,-0.0069574,-11.679
8871.1,-0.055245,-11.714
8882.8,-0.14374,-12.645
8894.5,0.94802,-13.617
8906.3,-0.037476,-13.139
8918,1.9089,-12.711
8929.7,1.1127,-12.058
8941.4,0.24218,-11.134
8953.1,1.2741,-10.699
8964.8,-0.21496,-10.564
8976.6,-4.594,-6.0095
8988.3,-1.5066,-5.2023
9000,0.4713,-6.0366
9011.7,1.838,-7.6318
9023.4,2.123,-10.583
9035.2,3.0793,-12.221
9046.9,4.6947,-10.037
9058.6,2.5379,-11.509
9070.3,3.6476,-11.831
9082,3.5867,-6.4625
9093.8,0.27849,-6.6225
9105.5,-1.2427,-9.1694
9117.2,2.5875,-10.908
9128.9,1.7859,-11.096
9140.6,-0.44576,-10.117
9152.3,0.97361,-8.1538
9164.1,1.1085,-10.493
9175.8,0.93055,-14.626
9187.5,1.1943,-14.388
9199.2,-0.94641,-11.593
9210.9,0.84676,-10.976
9222.7,-1.2514,-10.784
9234.4,-1.1437,-10.39
9246.1,2.2331,-9.6823
9257.8,3.5111,-11.749
9269.5,1.647,-13.053
9281.3,-2.352,-12.289
9293,0.061732,-12.533
9304.7,0.5861,-8.8814
9316.4,1.7453,-9.7961
9328.1,0.062445,-9.0356
9339.8,-0.065825,-9.5421
9351.6,1.2787,-12.923
9363.3,2.0152,-12.079
9375,-0.75155,-9.8751
9386.7,0.58571,-12.345
9398.4,-0.17072,-13.994
9410.2,0.035665,-10.812
9421.9,2.3039,-13.036
9433.6,2.5808,-11.63
9445.3,-0.013225,-10.176
9457,-0.69316,-12.462
9468.8,-1.2997,-10.657
9480.5,-2.5819,-12.143
9492.2,-2.7475,-12.992
9503.9,-0.51218,-12.492
9515.6,-0.64515,-9.6426
9527.3,0.37505,-9.3796
9539.1,2.202,-8.7844
9550.8,-0.24672,-9.3845
9562.5,0.11981,-12.1
9574.2,0.74881,-12.422
9585.9,0.52569,-10.875
9597.7,-2.9232,-11.014
9609.4,-1.908,-11.24
9621.1,-3.8928,-11.635
9632.8,0.37207,-10.044
9644.5,-0.6009,-9.5776
9656.3,-2.3745,-8.8864
9668,1.8898,-8.6769
9679.7,1.8668,-10.973
9691.4,-2.1688,-11.704
9703.1,-0.17871,-12.425
9714.8,1.4485,-12.957
9726.6,2.5428,-13.312
9738.3,1.2207,-12.626
9750,-1.994,-13.207
9761.7,-2.5141,-13.395
9773.4,-0.75115,-11.166
9785.2,-0.39366,-10.773
9796.9,1.9222,-9.9086
9808.6,1.9478,-10.675
9820.3,3.0593,-11.174
9832,1.9798,-13.117
9843.8,1.7361,-10.387
9855.5,0.44799,-11.469
9867.2,0.87384,-9.9323
9878.9,0.77817,-9.6879
9890.6,-1.1117,-10.802
9902.3,-2.1336,-13.695
9914.1,-3.5776,-11.708
9925.8,-0.95397,-11.039
9937.5,0.96067,-12.689
9949.2,0.56206,-12.567
9960.9,-3.7997,-10.452
9972.7,-4.133,-10.314
9984.4,-0.95242,-12.559
9996.1,0.063356,-10.973
10008,0.88395,-9.1071
10020,0.13437,-9.2728
10031,-0.82187,-12.356
10043,-3.5088,-9.5153
10055,-2.6144,-8.249
10066,-2.5258,-12.49
10078,-0.89323,-12.863
10090,1.2449,-12.512
10102,2.4088,-11.622
10113,2.7777,-13.4
10125,-1.028,-14.875
10137,-0.54846,-14.294
10148,-0.080093,-10.331
10160,0.91664,-13.062
10172,-0.49973,-12.909
10184,-0.62353,-14.289
10195,-0.46967,-10.39
10207,-3.3473,-10.138
10219,-2.3178,-11.325
10230,-0.97202,-12.623
10242,-2.3002,-13.23
10254,-0.73197,-10.926
10266,-0.16654,-11.496
10277,-0.6394,-12.169
10289,-2.0429,-12.284
10301,-0.29681,-10.174
10313,-0.46156,-7.1821
10324,-0.41821,-10.545
10336,3.4141,-10.644
10348,2.5934,-8.5849
10359,-3.4165,-14.372
10371,0.47854,-10.549
10383,0.45239,-10.135
10395,0.095496,-12.662
10406,-1.8346,-12.953
10418,0.70375,-10.604
10430,0.84095,-10.247
10441,-1.1749,-12.002
10453,-1.1827,-10.214
10465,0.039246,-9.267
10477,-0.16268,-11.229
10488,-2.0318,-12.269
10500,-0.53892,-11.832
10512,-0.18442,-11.508
10523,2.8792,-10.342
10535,-0.24164,-11.7
10547,-3.4513,-11.831
10559,-3.562,-10.171
10570,-3.5301,-12.926
10582,-2.6428,-14.229
10594,-1.8226,-15.415
10605,0.059268,-14.883
10617,-2.2113,-10.441
10629,-2.0202,-11.083
10641,1.516,-11.665
10652,1.6005,-11.714
10664,0.60908,-13.026
10676,-0.81619,-13.211
10688,0.18395,-10.681
10699,0.17302,-11.165
10711,-1.6198,-11.86
10723,-1.1197,-11.844
10734,-0.72389,-13.825
10746,0.27645,-11.625
10758,-0.15574,-10.047
10770,-1.7538,-11.593
10781,-2.24,-11.847
10793,0.98318,-12.555
10805,0.42035,-9.7473
10816,-3.1082,-8.9192
10828,-2.3026,-10.236
10840,-1.4376,-11.311
10852,-4.0848,-11.695
10863,-3.534,-11.619
10875,-2.9257,-12.967
10887,-4.2636,-14.249
10898,-4.6992,-11.348
10910,-1.6806,-12.261
10922,-1.4369,-13.125
10934,-1.8058,-12.15
10945,-1.4736,-12.047
10957,-4.0532,-14.959
10969,-4.6739,-12.736
10980,-1.7978,-11.162
10992,-1.4654,-9.8638
11004,-3.9706,-8.7884
11016,0.94955,-10.592
11027,0.55533,-13.451
11039,-1.1065,-9.457
11051,-1.6406,-12
11063,-0.7591,-13.662
11074,-4.7681,-12.894
11086,-6.2081,-12.109
11098,-1.8524,-12.023
11109,1.278,-10.325
11121,0.42773,-11.226
11133,-0.58273,-15.162
11145,-0.25754,-15.567
11156,0.11712,-13.13
11168,1.3263,-12.758
11180,1.7397,-12.552
11191,-1.477,-13.188
11203,0.29226,-13.034
11215,-1.0181,-9.8767
11227,-2.881,-12.585
11238,-3.0304,-12.743
11250,-3.0493,-11.717
11262,-3.0028,-13.931
11273,-3.859,-11.945
11285,-5.5637,-10.779
11297,-4.0706,-10.528
11309,-3.8537,-10.33
11320,1.2873,-13.445
11332,1.2366,-13.47
11344,-2.8425,-11.539
11355,-1.7134,-13.926
11367,0.52609,-12.514
11379,0.60644,-11.339
11391,-5.2596,-13.801
11402,-1.8383,-12.213
11414,-0.60144,-10.395
11426,-1.0792,-9.4784
11438,-2.6326,-11.221
11449,1.2138,-12.618
11461,0.2366,-13.079
11473,-0.47244,-12.291
11484,-1.8986,-11.824
11496,-3.7112,-12.518
11508,-3.4792,-13.495
11520,-2.3965,-14.438
11531,-1.2234,-11.922
11543,-0.97778,-8.1243
11555,-5.4552,-9.5006
11566,-4.2468,-10.863
11578,-5.8782,-11.359
11590,-7.3781,-10.125
11602,-5.2132,-9.8943
11613,-1.9007,-11.203
11625,-2.3089,-11.896
11637,-4.6564,-14.317
11648,-0.63414,-12.273
11660,-1.8861,-14.437
11672,-2.8991,-14.576
11684,-0.51839,-12.636
11695,1.2177,-10.609
11707,0.81316,-12.314
11719,0.058065,-12.052
11730,-1.3987,-14.308
11742,-5.3842,-11.741
11754,-4.9597,-15.379
11766,-3.3834,-13.679
11777,0.49752,-13.215
11789,-1.0642,-13.448
11801,-2.1616,-11.923
11813,0.70338,-12.263
11824,0.22437,-7.8997
11836,-5.5279,-9.8888
11848,-2.0214,-11.84
11859,-0.44297,-13.364
11871,-2.1875,-12.76
11883,-4.663,-12.11
11895,-4.8091,-10.278
11906,-3.0978,-11.653
11918,-2.8582,-12.281
11930,-3.1271,-13.931
11941,0.31897,-12.808
11953,1.3988,-11.316
11965,-0.90889,-10.596
11977,-4.1728,-12.683
11988,-4.6633,-13.189
12000,-3.2341,-14.418
12012,-4.4376,-12.307
12023,-4.0991,-11.288
12035,-3.2482,-13.742
12047,-2.7183,-14.368
12059,-1.9105,-14.336
12070,-5.0825,-13.905
12082,-8.7978,-14.867
12094,-6.539,-14.461
12105,-6.0207,-12.259
12117,-5.2371,-13.772
12129,-4.83,-15.135
12141,-2.3981,-14.383
12152,-4.7492,-14.017
12164,-1.4012,-15.323
12176,1.0023,-16.311
12188,-1.3152,-12.172
12199,-3.8678,-11.891
12211,-5.0763,-12.98
12223,-6.8768,-14.007
12234,-1.3336,-12.271
12246,-0.98144,-10.393
12258,-1.6137,-13.131
12270,-3.3381,-15.853
12281,1.4119,-15.235
12293,0.86167,-14.819
12305,-2.8454,-13.036
12316,-2.0906,-12.267
12328,-3.5315,-12.649
12340,-4.56,-10.849
12352,-5.6095,-13.227
12363,-2.99,-17.255
12375,-2.8428,-13.419
12387,-3.6915,-12.678
12398,-5.3132,-14.546
12410,-3.785,-10.318
12422,-0.80372,-10.32
12434,-2.7206,-14.248
12445,0.47087,-13.997
12457,-1.8085,-11.947
12469,-2.924,-10.829
12480,-4.4845,-12.029
12492,-2.7785,-12.539
12504,-3.9264,-11.871
12516,-1.5629,-12.808
12527,-1.9621,-15.695
12539,-1.2745,-14.41
12551,-0.40091,-10.329
12563,-3.8318,-11.012
12574,0.41166,-13.359
12586,-0.44025,-13.321
12598,-3.1746,-13.637
12609,-4.909,-14.828
12621,-2.9238,-13.769
12633,-2.3157,-11.195
12645,-4.0544,-10.147
12656,-4.0537,-11.8
12668,-8.6836,-14.48
12680,-9.9803,-15.637
12691,-8.3307,-15.023
12703,-3.8063,-15.252
12715,-2.7753,-16.131
12727,-1.7329,-13.812
12738,-2.8613,-14.989
12750,-5.1849,-11.624
12762,-2.5115,-11.372
12773,-1.0102,-15.621
12785,-0.44312,-15.442
12797,-1.3318,-13.072
12809,-1.7719,-16.232
12820,-1.4022,-18.051
12832,-3.3645,-15.188
12844,-7.9892,-13.213
12855,-4.6963,-13.281
12867,-2.3151,-16.145
12879,-0.59762,-10.192
12891,-2.27,-13.795
12902,-6.3807,-16.875
12914,-4.0891,-15.709
12926,-3.9893,-14.772
12938,-5.3618,-12.144
12949,-5.9129,-12.351
12961,-6.1326,-13.806
12973,-5.5227,-12.865
12984,-4.1858,-12.863
12996,-2.6705,-11.41
13008,-2.4889,-11.649
13020,-4.6325,-12.937
13031,-6.1594,-15.643
13043,-4.1117,-15.442
13055,-3.3342,-16.12
13066,-4.4533,-13.676
13078,-3.7205,-16.298
13090,-3.2726,-14.1
13102,-2.6448,-12.392
13113,-1.2923,-16.171
13125,-1.22,-16.103
13137,-2.4545,-15.276
13148,-1.7937,-16.954
13160,-4.5924,-16.529
13172,-4.7958,-13.904
13184,-3.8868,-10.367
13195,-3.5725,-9.0706
13207,-6.971,-11.74
13219,-3.807,-12.887
13230,-4.0758,-11.932
13242,-4.8871,-17.539
13254,-5.8775,-16.01
13266,-3.4172,-15.152
13277,-2.6608,-12.569
13289,-4.529,-12.31
13301,-5.0423,-14.728
13313,-3.0978,-16.333
13324,-7.5392,-17.084
13336,-5.3805,-19.98
13348,-3.2648,-14.922
13359,-3.9759,-11.776
13371,-3.9862,-12.222
13383,-3.1523,-13.5
13395,-4.3328,-14.771
13406,-4.9085,-15.769
13418,-3.1533,-17.106
13430,-2.4738,-15.011
13441,-2.6987,-14.159
13453,-5.9889,-14.844
13465,-6.9785,-12.977
13477,-4.0159,-10.97
13488,-5.2279,-13.838
13500,-6.2391,-15.174
13512,-5.356,-16.169
13523,-3.9389,-14.586
13535,-6.4426,-13.972
13547,-6.1309,-14.445
13559,-6.1788,-12.658
13570,-3.9739,-11.586
13582,-3.4444,-11.709
13594,-2.7825,-11.785
13605,-2.5367,-12.084
13617,-3.8322,-11.528
13629,-4.6792,-15.766
13641,-7.33,-14.846
13652,-4.2888,-12.135
13664,-1.4809,-13.657
13676,-1.894,-15.127
13688,-2.8133,-10.867
13699,-2.1977,-13.473
13711,-4.4906,-15.123
13723,-6.1809,-14.351
13734,-6.1148,-12.979
13746,-4.734,-10.951
13758,-3.4938,-13.267
13770,-5.027,-13.808
13781,-2.2535,-12.076
13793,-0.69567,-12.757
13805,-4.5177,-13.538
13816,-7.351,-14.344
13828,-7.9117,-15.456
13840,-5.9514,-16.284
13852,-6.3332,-15.946
13863,-4.2689,-15.657
13875,-3.8423,-12.525
13887,-6.5213,-10.99
13898,-7.5095,-12.95
13910,-7.2276,-11.859
13922,-4.419,-12.93
13934,-4.2132,-13.246
13945,-5.5659,-15.607
13957,-3.8352,-15.785
13969,-2.0981,-12.755
13980,-1.9123,-14.109
13992,-1.0074,-15.454
14004,-0.2227,-14.474
14016,-3.951,-15.222
14027,-6.0729,-13.267
14039,-6.729,-12.241
14051,-7.818,-11.266
14063,-8.5278,-12.161
14074,-4.1847,-11.568
14086,-4.5386,-13.475
14098,-5.5047,-13.318
14109,-5.2693,-13.204
14121,-4.9941,-11.991
14133,-5.4973,-12.193
14145,-7.5014,-13.472
14156,-7.7006,-14.132
14168,-6.0512,-12.17
14180,-3.4868,-13.778
14191,-4.9952,-14.081
14203,-5.6204,-13.332
14215,-1.5007,-13.846
14227,-0.92304,-12.614
14238,-5.1358,-19.908
14250,-5.3771,-16.271
14262,-3.4452,-12.731
14273,-3.692,-13.638
14285,-7.1955,-15.793
14297,-5.8711,-15.739
14309,-4.5411,-16.108
14320,-5.0309,-16.166
14332,-7.3657,-11.993
14344,-5.8747,-12.225
14355,-8.632,-14.149
14367,-7.6526,-13.552
14379,-6.4228,-16.483
14391,-7.7279,-17.251
14402,-6.8503,-15.442
14414,-4.8618,-16.492
14426,-4.1,-15.366
14438,-3.7712,-12.805
14449,-5.2545,-14.107
14461,-5.9171,-13.246
14473,-3.7348,-13.619
14484,-4.4905,-15.145
14496,-5.3744,-14.835
14508,-5.0869,-12.549
14520,-3.3352,-14.171
14531,-5.4184,-14.298
14543,-4.953,-13.129
14555,-5.1152,-16.235
14566,-6.5898,-16.207
14578,-6.1864,-15.089
14590,-5.0693,-17.469
14602,-8.45,-13.627
14613,-5.3358,-13.772
14625,-3.63,-14.643
14637,-4.8957,-14.071
14648,-4.0916,-13.192
14660,-3.4303,-14.723
14672,-5.1394,-17.161
14684,-6.569,-15.053
14695,-5.782,-14.91
14707,-6.7622,-12.198
14719,-8.9199,-13.06
14730,-5.7787,-13.807
14742,-5.3555,-14.726
14754,-4.9757,-13.443
14766,-6.8338,-14.849
14777,-4.2723,-15.411
14789,-5.6854,-14.567
14801,-7.9261,-13.461
14813,-6.9939,-13.467
14824,-6.1752,-13.16
14836,-7.7468,-13.186
14848,-7.8547,-15.693
14859,-7.3046,-13.859
14871,-6.197,-12.371
14883,-7.8116,-13.502
14895,-4.6156,-17.308
14906,-2.8892,-17.964
14918,-2.2024,-15.416
14930,-2.4708,-17.292
14941,-2.1904,-17.766
14953,-4.0888,-16.768
14965,-8.1048,-15.127
14977,-3.8186,-13.244
14988,-4.6436,-13.23
15000,-7.9291,-14.754
15012,-8.0608,-14.857
15023,-6.4839,-16.935
15035,-5.3263,-17.9
15047,-9.0913,-15.173
15059,-8.5622,-13.947
15070,-7.0494,-15.079
15082,-7.6109,-17.42
15094,-6.0541,-17.445
15105,-8.1628,-13.211
15117,-7.8756,-17.188
15129,-7.3738,-16.312
15141,-6.8478,-14.026
15152,-4.0475,-18.132
15164,-6.9997,-16.166
15176,-4.1395,-14.227
15188,-3.9314,-16.905
15199,-4.5665,-15.546
15211,-7.0324,-13.597
15223,-8.6708,-15.74
15234,-6.534,-13.657
15246,-7.0815,-15.573
15258,-8.4938,-14.728
15270,-4.3533,-11.84
15281,-1.9721,-14.638
15293,-5.5703,-16.548
15305,-6.3121,-14.393
15316,-3.4802,-13.992
15328,-3.6441,-15.545
15340,-4.1,-16.359
15352,-5.0623,-14.446
15363,-8.8287,-14.626
15375,-6.3108,-15.887
15387,-8.2291,-14.391
15398,-7.1061,-14.56
15410,-5.6667,-14.601
15422,-5.5554,-16.013
15434,-6.9829,-17.023
15445,-7.6202,-16.497
15457,-9.3319,-14.981
15469,-11.262,-15.102
15480,-7.2521,-15.956
15492,-6.7625,-15.132
15504,-9.6413,-14.175
15516,-8.7152,-15.97
15527,-8.1973,-16.133
15539,-9.8889,-12.72
15551,-9.4324,-11.362
15563,-3.0974,-15.889
15574,-4.5656,-20.395
15586,-7.4127,-13.164
15598,-5.5489,-13.375
15609,-11.649,-14.343
15621,-9.3679,-14.565
15633,-10.255,-15.28
15645,-8.2708,-14.267
15656,-6.3665,-14.269
15668,-8.6945,-14.469
15680,-9.1719,-13.824
15691,-8.2268,-13.404
15703,-7.1455,-16.432
15715,-7.3832,-17.578
15727,-8.6887,-16.942
15738,-9.0929,-21.385
15750,-10.787,-16.669
15762,-7.4063,-15.16
15773,-6.986,-13.097
15785,-6.5499,-13.685
15797,-7.2676,-16.42
15809,-7.2311,-15.8
15820,-10.163,-13.525
15832,-8.4785,-11.611
15844,-9.0701,-12.798
15855,-9.2291,-13.605
15867,-8.8489,-15.037
15879,-8.2532,-16.83
15891,-8.3441,-15.803
15902,-8.5131,-16.949
15914,-9.5871,-16.219
15926,-9.8206,-17.304
15938,-8.1222,-13.524
15949,-10.177,-13.822
15961,-10.848,-15.798
15973,-7.8665,-16.271
15984,-9.0614,-13.368
15996,-9.1402,-15.624
16008,-8.116,-18.877
16020,-10.44,-18.955
16031,-11.349,-17.26
16043,-4.6936,-13.992
16055,-4.9317,-13.448
16066,-7.9062,-14.549
16078,-5.8075,-15.701
16090,-6.4777,-16.931
16102,-10.672,-16.573
16113,-9.8349,-15.958
16125,-8.6538,-14.769
16137,-6.6189,-14.695
16148,-7.7227,-13.484
16160,-6.3928,-14.357
16172,-4.3677,-16.047
16184,-5.8917,-15.734
16195,-9.0252,-16.542
16207,-9.0119,-15.626
16219,-7.5134,-14.953
16230,-5.8091,-15.132
16242,-5.5709,-16.24
16254,-6.7847,-14.079
16266,-8.9215,-15.513
16277,-9.5869,-14.123
16289,-8.8449,-16.777
16301,-7.214,-15.875
16313,-7.545,-15.545
16324,-11.132,-13.173
16336,-8.6305,-11.953
16348,-10.685,-12.232
16359,-12.074,-14.076
16371,-9.3692,-16.195
16383,-9.5453,-15.55
16395,-7.5063,-16.047
16406,-7.1901,-17.112
16418,-8.1699,-19.323
16430,-8.904,-19.583
16441,-8.5386,-15.782
16453,-8.5629,-16.374
16465,-10.345,-14.522
16477,-10.332,-15.301
16488,-10.236,-15.495
16500,-8.0746,-15.915
16512,-7.1867,-16.672
16523,-6.5405,-18.828
16535,-8.5301,-17.254
16547,-8.6414,-14.267
16559,-8.7252,-12.416
16570,-9.7036,-14.586
16582,-8.284,-16.192
16594,-10.296,-16.218
16605,-12.415,-14.246
16617,-8.5474,-14.624
16629,-8.8654,-18.019
16641,-8.3076,-18.571
16652,-8.7598,-14.109
16664,-9.8726,-14.7
16676,-12.032,-17.58
16688,-12.777,-15.826
16699,-8.2889,-17.067
16711,-8.3295,-18.558
16723,-11.534,-22.566
16734,-6.0844,-16.636
16746,-7.3941,-15.983
16758,-9.6724,-18.029
16770,-7.6784,-18.213
16781,-8.8818,-18.957
16793,-11.266,-17.727
16805,-11.286,-17.856
16816,-10.455,-21.459
16828,-8.5251,-21.851
16840,-9.1701,-19.618
16852,-8.4118,-18.134
16863,-10.182,-20.147
16875,-8.0626,-19.526
16887,-7.6035,-18.28
16898,-6.9979,-17.618
16910,-7.1462,-18.168
16922,-9.2977,-18.986
16934,-13.517,-16.642
16945,-8.1841,-14.835
16957,-8.1944,-16.927
16969,-13.742,-18.734
16980,-14.903,-16.407
16992,-12.815,-15.721
17004,-12.948,-13.265
17016,-10.243,-15.442
17027,-7.019,-17.211
17039,-8.4453,-17.038
17051,-8.9902,-16.757
17063,-8.9033,-16.22
17074,-10.319,-16.985
17086,-9.5875,-14.689
17098,-11.092,-13.719
17109,-10.078,-16.678
17121,-10.148,-19.58
17133,-11.526,-17.148
17145,-12.677,-15.988
17156,-12.202,-16.823
17168,-11.095,-17.741
17180,-10.801,-20.819
17191,-10.852,-17.102
17203,-13.45,-18.563
17215,-10.386,-15.439
17227,-8.2115,-13.495
17238,-9.6799,-15.512
17250,-9.922,-15.832
17262,-9.9106,-15.262
17273,-9.9565,-16.587
17285,-9.0819,-16.148
17297,-10.068,-13.701
17309,-11.187,-14.821
17320,-11.066,-17.099
17332,-9.0922,-17.157
17344,-13.339,-14.413
17355,-10.22,-15.761
17367,-11.459,-15.222
17379,-13.9,-15.246
17391,-11.827,-17.049
17402,-10.851,-13.676
17414,-12.075,-15.118
17426,-12.648,-14.99
17438,-13.174,-16.626
17449,-9.9193,-14.428
17461,-10.233,-16.064
17473,-8.5104,-18.932
17484,-11.067,-17.797
17496,-11.5,-14.741
17508,-9.7682,-15.302
17520,-7.6824,-14.661
17531,-10.44,-15.195
17543,-9.9791,-14.176
17555,-12.915,-12.786
17566,-10.654,-13.517
17578,-10.131,-17.57
17590,-6.6277,-18.166
17602,-7.1074,-19.849
17613,-9.8072,-17.692
17625,-11.806,-18.316
17637,-11.15,-17.859
17648,-13.625,-17.509
17660,-13.539,-16.437
17672,-11.035,-16.339
17684,-11.575,-16.066
17695,-9.4282,-15.523
17707,-8.7568,-15.158
17719,-12.083,-16.47
17730,-10.652,-17.914
17742,-7.1155,-15.399
17754,-9.5675,-17.996
17766,-10.082,-17.609
17777,-10.204,-16.613
17789,-8.925,-17.837
17801,-7.2703,-18.147
17813,-8.4293,-17.476
17824,-8.4846,-18.244
17836,-9.4202,-14.132
17848,-13.476,-10.818
17859,-12.539,-11.618
17871,-9.6351,-16.689
17883,-11.513,-19.731
17895,-10.788,-16.228
17906,-10.757,-16.065
17918,-13.04,-16.236
17930,-10.571,-16.223
17941,-11.467,-17.08
17953,-13.135,-18.662
17965,-13.26,-15.214
17977,-12.972,-11.962
17988,-10.245,-14.677
18000,-10.268,-13.875
18012,-11.705,-13.601
18023,-9.1313,-15.563
18035,-9.4488,-18.493
18047,-12.464,-17.328
18059,-10.149,-15.778
18070,-10.937,-16.014
18082,-15.238,-16.536
18094,-14.674,-19.589
18105,-9.1802,-16.764
18117,-10.404,-15.14
18129,-14.375,-14.707
18141,-10.673,-17.767
18152,-11.608,-20.382
18164,-13.794,-18.807
18176,-9.1046,-16.303
18188,-9.4694,-18.306
18199,-10.724,-19.839
18211,-10.123,-16.774
18223,-11.067,-16.207
18234,-11.176,-18.53
18246,-11.461,-16.017
18258,-12.183,-14.281
18270,-9.1233,-14.821
18281,-10.028,-15.361
18293,-10.909,-15.627
18305,-10.5,-18.978
18316,-12.119,-18.936
18328,-11.877,-15.984
18340,-11.318,-15.732
18352,-13.218,-18.016
18363,-13.234,-19.155
18375,-12.533,-17.524
18387,-11.982,-17.459
18398,-10.688,-18.619
18410,-11.64,-17.442
18422,-10.949,-16.818
18434,-11.764,-18.945
18445,-12.482,-17.755
18457,-13.475,-16.2
18469,-13.704,-17.207
18480,-14.527,-20.74
18492,-11.329,-20.261
18504,-14.114,-16.488
18516,-11.221,-16.45
18527,-11.147,-14.227
18539,-11.934,-15.344
18551,-10.425,-16.962
18563,-13.533,-15.971
18574,-14.669,-21.106
18586,-12.199,-19.681
18598,-12.189,-17.333
18609,-11.894,-17.227
18621,-11.123,-19.538
18633,-14.169,-18.989
18645,-14.252,-16.462
18656,-14.254,-17.22
18668,-14.438,-18.27
18680,-13.26,-18.856
18691,-13.92,-19.27
18703,-13.243,-19.513
18715,-12.061,-17.342
18727,-10.763,-17.982
18738,-11.303,-17.854
18750,-12.159,-18.699
18762,-11.495,-18.062
18773,-9.2148,-15.016
18785,-9.3499,-15.885
18797,-12.926,-17.357
18809,-11.358,-18.899
18820,-13.223,-18.157
18832,-14.846,-15.86
18844,-9.9691,-18.119
18855,-10.638,-18.901
18867,-13.558,-18.608
18879,-15.617,-19.503
18891,-14.554,-20.017
18902,-15.879,-21.595
18914,-14.447,-21.536
18926,-11.006,-17.862
18938,-13.071,-15.035
18949,-13.786,-16.212
18961,-12.089,-17.013
18973,-12.304,-17.644
18984,-10.251,-16.734
18996,-11.98,-11.998
19008,-12.022,-14.23
19020,-11.157,-17.38
19031,-11.433,-17.575
19043,-11.525,-17.53
19055,-12.253,-19.864
19066,-13.745,-21.359
19078,-13.023,-20.212
19090,-14.44,-13.753
19102,-14.736,-13.552
19113,-14.675,-20.392
19125,-12.529,-17.47
19137,-14.034,-20.84
19148,-11.815,-17.597
19160,-10.511,-19.069
19172,-10.139,-19.59
19184,-13.913,-17.718
19195,-13.066,-16.459
19207,-13.735,-18.026
19219,-11.733,-19.004
19230,-13.01,-19.392
19242,-14.477,-18.56
19254,-14.251,-19.083
19266,-13.23,-18.405
19277,-15.282,-17.878
19289,-15.418,-16.469
19301,-14.331,-18.098
19313,-15.457,-16.567
19324,-14.776,-18.237
19336,-13.141,-20.131
19348,-12.762,-17.299
19359,-10.359,-18.9
19371,-10.684,-21.337
19383,-13.901,-15.864
19395,-12.386,-14.426
19406,-12.839,-19.124
19418,-17.099,-19.24
19430,-16.411,-17.714
19441,-12.94,-16.048
19453,-12.512,-14.912
19465,-15.341,-14.977
19477,-13.171,-18.713
19488,-16.432,-15.92
19500,-16.734,-15.443
19512,-14.994,-16.774
19523,-16.538,-17.928
19535,-17.477,-18.97
19547,-12.48,-19.171
19559,-11.51,-15.146
19570,-14.897,-14.805
19582,-18.177,-16.988
19594,-17.449,-17.649
19605,-16.476,-18.547
19617,-13.561,-18.118
19629,-13.436,-17.604
19641,-14.293,-16.392
19652,-12.311,-17.778
19664,-11.897,-20.76
19676,-13.286,-18.751
19688,-12.299,-19.436
19699,-13.994,-15.66
19711,-15.334,-14.335
19723,-14.552,-16.407
19734,-13.477,-18.916
19746,-17.2,-18.557
19758,-14.426,-15.587
19770,-11.705,-15.349
19781,-13.877,-19.877
19793,-11.83,-18.325
19805,-10.139,-17.349
19816,-12.884,-15.838
19828,-15.651,-16.538
19840,-14.124,-19.655
19852,-15.151,-16.853
19863,-15.852,-15.664
19875,-12.802,-16.112
19887,-12.874,-16.426
19898,-14.132,-17.687
19910,-16.785,-18.704
19922,-17.992,-19.465
19934,-15.882,-17.385
19945,-12.005,-16.316
19957,-12.801,-17.523
19969,-14.42,-17.552
19980,-11.356,-17.379
19992,-11.827,-17.925
20004,-12.381,-20.027
20016,-13.969,-20.082
20027,-11.364,-18.905
20039,-12.127,-20.65
20051,-14.882,-17.606
20063,-13.135,-17.92
20074,-13.787,-18.998
20086,-16.131,-20.181
20098,-12.507,-22.447
20109,-14.521,-19.134
20121,-16.343,-20.076
20133,-14.783,-23.479
20145,-13.985,-18.308
20156,-13.156,-16.304
20168,-11.236,-16.887
20180,-12.767,-17.085
20191,-14.088,-15.722
20203,-13.727,-16.347
20215,-16.774,-18.503
20227,-16.118,-20.84
20238,-17.454,-19.315
20250,-16.858,-15.797
20262,-14.085,-12.999
20273,-14.068,-17.05
20285,-15.186,-20.774
20297,-18.578,-22.532
20309,-12.888,-19.273
20320,-12.615,-17.738
20332,-13.694,-22.834
20344,-13.659,-21.075
20355,-14.03,-22.14
20367,-12.053,-21.226
20379,-11.12,-19.136
20391,-13.133,-18.13
20402,-13.63,-19.136
20414,-16.577,-16.989
20426,-16.88,-16.891
20438,-17.308,-19.675
20449,-17.531,-19.152
20461,-14.666,-18.272
20473,-11.787,-18.596
20484,-12.035,-18.194
20496,-15.286,-18.578
20508,-17.033,-23.852
20520,-15.174,-21.763
20531,-11.954,-18.931
20543,-12.746,-17.09
20555,-14.318,-16.844
20566,-13.121,-20.395
20578,-15.457,-20.551
20590,-15.04,-20.039
20602,-14.452,-22.118
20613,-15.948,-20.284
20625,-17.059,-21.462
20637,-14.838,-19.775
20648,-14.92,-17.983
20660,-14.374,-21.09
20672,-13.039,-20.855
20684,-12.356,-21.814
20695,-12.415,-19.747
20707,-13.543,-19.194
20719,-15.523,-21.984
20730,-14.248,-18.903
20742,-15.011,-18.539
20754,-13.379,-18.278
20766,-15.033,-20.474
20777,-15.786,-18.929
20789,-15.842,-19.41
20801,-16.221,-18.708
20813,-16.556,-19.076
20824,-15.915,-19.695
20836,-16.024,-21.813
20848,-15.698,-22.36
20859,-13.903,-20.052
20871,-16.287,-18.901
20883,-15.695,-16.174
20895,-16.526,-17.269
20906,-14.768,-19.133
20918,-15.419,-18.843
20930,-14.663,-16.586
20941,-14.327,-16.96
20953,-16.554,-18.087
20965,-17.472,-19.579
20977,-17.075,-20.385
20988,-13.527,-17.596
21000,-11.952,-17.934
21012,-12.315,-21.841
21023,-15.923,-20.531
21035,-17.383,-22.67
21047,-16.263,-18.655
21059,-14.525,-20.154
21070,-13.115,-19.808
21082,-14.297,-22.778
21094,-17.289,-20.068
21105,-14.89,-20.176
21117,-12.922,-19.168
21129,-13.479,-17.51
21141,-16.476,-15.899
21152,-16.113,-17.605
21164,-12.632,-15.734
21176,-12.444,-17.757
21188,-13.496,-20.346
21199,-12.674,-18.355
21211,-12.208,-19.283
21223,-13.74,-18.707
21234,-16.998,-17.328
21246,-11.35,-18.306
21258,-12.448,-21.594
21270,-16.5,-20.347
21281,-14.458,-19.184
21293,-16.181,-17.875
21305,-15.597,-16.058
21316,-15.255,-19.651
21328,-13.535,-19.43
21340,-13.17,-18.385
21352,-14.651,-19.649
21363,-16.292,-20.585
21375,-15.389,-20.638
21387,-17.315,-18.948
21398,-16.151,-17.32
21410,-15.752,-16.054
21422,-16.551,-17.271
21434,-16.003,-21.796
21445,-17.862,-21.821
21457,-19.777,-22.189
21469,-14.021,-18.019
21480,-12.478,-18.561
21492,-13.691,-21.279
21504,-13.886,-19.001
21516,-13.92,-19.023
21527,-15.716,-17.917
21539,-15.073,-17.339
21551,-13.55,-20.893
21563,-15.664,-22.516
21574,-13.885,-20.425
21586,-11.572,-16.811
21598,-10.8,-15.813
21609,-14.235,-16.652
21621,-15.735,-20.851
21633,-14.778,-18.346
21645,-15.333,-22.115
21656,-17.529,-19.799
21668,-17.281,-19.311
21680,-14.791,-20.167
21691,-16.764,-21.109
21703,-15.793,-18.561
21715,-15.369,-19.343
21727,-16.811,-20.43
21738,-17.481,-21.906
21750,-20.578,-23.61
21762,-17.796,-22.798
21773,-17.194,-20.908
21785,-17.253,-19.476
21797,-16.091,-17.447
21809,-14.877,-18.151
21820,-12.475,-18.307
21832,-12.614,-18.565
21844,-20.188,-20.853
21855,-17.77,-20.357
21867,-15.851,-19.122
21879,-13.57,-19.963
21891,-13.242,-21.011
21902,-16.311,-20.764
21914,-17.721,-20.044
21926,-17.501,-20.431
21938,-17.216,-20.657
21949,-15.142,-15.314
21961,-14.839,-15.557
21973,-17.405,-19.954
21984,-17.172,-17.992
21996,-18.477,-15.32
22008,-17.46,-16.155
22020,-16.827,-17.315
22031,-18.3,-17.557
22043,-16.758,-19.697
22055,-19.476,-18.639
22066,-13.819,-19.127
22078,-15.15,-22.251
22090,-16.625,-20.608
22102,-13.159,-19.043
22113,-15.511,-19.963
22125,-14.552,-20.208
22137,-14.752,-19.449
22148,-14.37,-19.731
22160,-16.259,-20.368
22172,-16.147,-20.086
22184,-15.348,-19.995
22195,-17.21,-22.335
22207,-17.135,-18.392
22219,-17.901,-17.54
22230,-17.569,-18.894
22242,-16.178,-20.189
22254,-15.826,-18.002
22266,-16.872,-17.987
22277,-17.914,-18.33
22289,-18.127,-19.181
22301,-15.223,-20.595
22313,-12.668,-19.356
22324,-13.466,-19.575
22336,-14.782,-22.314
22348,-14.218,-20.888
22359,-15.529,-18.969
22371,-16.568,-18.993
22383,-16.317,-19.051
22395,-15.091,-20.487
22406,-17.405,-21.242
22418,-18.917,-20.764
22430,-16.526,-19.686
22441,-12.908,-21.375
22453,-11.971,-21.527
22465,-15.786,-20.757
22477,-18.405,-18.697
22488,-17.491,-20.396
22500,-14.583,-20.711
22512,-14.388,-21.082
22523,-15.221,-21.257
22535,-17.658,-21.164
22547,-18.396,-19.268
22559,-17.63,-17.003
22570,-18.907,-18.243
22582,-17.589,-19.383
22594,-16.887,-19.635
22605,-18.689,-18.988
22617,-17.887,-19.545
22629,-16.976,-20.359
22641,-18.179,-20.516
22652,-15.577,-16.925
22664,-15.278,-15.183
22676,-17.841,-20.313
22688,-19.489,-18.459
22699,-14.789,-17.649
22711,-12.859,-20.997
22723,-15.26,-20.44
22734,-17.491,-19.627
22746,-15.133,-20.092
22758,-15.428,-19.775
22770,-17.775,-21.387
22781,-17.376,-20.13
22793,-15.189,-22.515
22805,-14.609,-21.593
22816,-15.598,-23.35
22828,-18.642,-19.609
22840,-18.241,-20.014
22852,-17.996,-21.47
22863,-16.745,-20.918
22875,-16.093,-19.571
22887,-16.516,-18.96
22898,-18.165,-18.983
22910,-20.183,-17.592
22922,-17.486,-17.818
22934,-16.577,-18.897
22945,-16.469,-19.184
22957,-17.203,-21.404
22969,-17.9,-16.356
22980,-14.779,-17.914
22992,-14.166,-18.539
23004,-17.165,-17.781
23016,-15.552,-19.624
23027,-14.931,-20.91
23039,-18.939,-18.706
23051,-20.195,-17.949
23063,-16.652,-20.861
23074,-16.189,-18.685
23086,-17.186,-20.111
23098,-18.304,-18.288
23109,-15.925,-18.174
23121,-15.138,-20.383
23133,-14.204,-19.833
23145,-16.082,-18.043
23156,-19.594,-19.441
23168,-22.438,-20.261
23180,-18.09,-18.927
23191,-14.692,-19.998
23203,-15.909,-17.117
23215,-16.98,-17.495
23227,-18.028,-22.022
23238,-19.886,-20.108
23250,-18.758,-21.127
23262,-18.427,-19.135
23273,-19.717,-21.293
23285,-21.528,-18.581
23297,-19.215,-17.204
23309,-17.364,-20.778
23320,-17.994,-20.384
23332,-14.903,-22.511
23344,-14.729,-22.356
23355,-15.437,-20.915
23367,-17.326,-19.93
23379,-20.355,-17.328
23391,-17.547,-20.811
23402,-15.591,-19.393
23414,-18.981,-18.225
23426,-22.124,-17.843
23438,-17.517,-17.57
23449,-19.687,-19.825
23461,-18.327,-20.589
23473,-18.01,-18.737
23484,-15.855,-21.569
23496,-15.955,-22.919
23508,-19.187,-23.067
23520,-19.69,-23.239
23531,-15.211,-19.757
23543,-16.062,-20.038
23555,-20.189,-20.694
23566,-20.835,-19.141
23578,-16.504,-19.899
23590,-14.2,-21.582
23602,-16.91,-22.276
23613,-17.582,-21.814
23625,-17.807,-19.855
23637,-16.893,-20.633
23648,-16.587,-21.828
23660,-19.249,-22.249
23672,-15.193,-21.12
23684,-16.883,-23.694
23695,-19.194,-18.767
23707,-18.521,-22.013
23719,-18.862,-21.274
23730,-18.95,-19.342
23742,-15.331,-20.536
23754,-16.487,-22.584
23766,-16.298,-20.793
23777,-17.196,-19.913
23789,-18.951,-17.749
23801,-16.226,-19.88
23813,-16.463,-18.386
23824,-16.532,-20.767
23836,-14.303,-22.904
23848,-14.565,-19.923
23859,-15.461,-19.528
23871,-18.24,-20.189
23883,-17.018,-20.682
23895,-16.449,-23.449
23906,-14.433,-20.662
23918,-15.398,-21.783
23930,-17.999,-20.917
23941,-17.354,-19.697
23953,-16.791,-19.872
23965,-20.161,-21.803
23977,-20.977,-24.317
23988,-16.358,-22.84
