FFT,Power Spectrum
Frequency[Hz],Level-L[dB],Level-R[dB]
11.719,-5.4151,-61.785
23.438,15.107,-51.891
35.156,13.625,-41.638
46.875,15.377,-28.547
58.594,15.302,-27.141
70.313,15.827,-30.219
82.031,17.194,-26.759
93.75,21.275,-26.597
105.47,19.727,-22.561
117.19,15.216,-20.045
128.91,20.215,-17.686
140.63,25.373,-12.534
152.34,21.362,-12.615
164.06,18.985,-17.879
175.78,19.879,-14.827
187.5,19.939,-14.928
199.22,18.189,-18.03
210.94,14.221,-19.287
222.66,16.211,-17.993
234.38,18.929,-15.766
246.09,16.439,-14.749
257.81,13.899,-16.297
269.53,14.911,-16.613
281.25,16.662,-15.84
292.97,19.896,-12.58
304.69,20.286,-16.203
316.41,15.024,-13.144
328.13,15.542,-14.237
339.84,12.338,-15.914
351.56,11.01,-13.211
363.28,13.303,-12.54
375,14.725,-16.236
386.72,15.85,-15.316
398.44,15.969,-16.182
410.16,16.434,-15.951
421.88,15.63,-15.201
433.59,15.119,-14.73
445.31,17.96,-15.638
457.03,17.568,-16.267
468.75,16.972,-13.43
480.47,16.254,-12.074
492.19,16.49,-11.043
503.91,16.81,-10.829
515.63,16.809,-14.4
527.34,14.091,-11.806
539.06,13.027,-9.5626
550.78,12.929,-9.753
562.5,14.968,-9.4914
574.22,17.135,-10.363
585.94,18.751,-10.848
597.66,17.549,-8.2527
609.38,16.989,-8.7769
621.09,20.316,-10.757
632.81,20.289,-10.85
644.53,17.695,-12.775
656.25,16.689,-12.435
667.97,17.165,-9.0977
679.69,16.348,-9.3239
691.41,16.035,-9.1469
703.13,15.907,-7.7527
714.84,16.02,-8.4924
726.56,15.627,-8.9748
738.28,16.87,-9.9262
750,15.866,-7.0438
761.72,14.56,-7.2604
773.44,16.206,-12.082
785.16,15.078,-11.42
796.88,14.947,-11.159
808.59,15.579,-8.2988
820.31,16.807,-10.298
832.03,14.554,-8.9751
843.75,16.413,-7.6888
855.47,16.845,-8.198
867.19,15.869,-9.223
878.91,15.425,-7.5165
890.63,11.545,-8.297
902.34,10.185,-10.102
914.06,15.582,-9.5136
925.78,17.088,-10.879
937.5,15.642,-9.9128
949.22,16.228,-8.6949
960.94,15.941,-9.396
972.66,16.81,-10.354
984.38,16.918,-10.041
996.09,17.959,-10.427
1007.8,16.242,-10.809
1019.5,14.504,-9.524
1031.3,15.332,-9.7199
1043,15.499,-7.398
1054.7,15.705,-8.5258
1066.4,16.458,-8.1627
1078.1,16.017,-4.0875
1089.8,11.645,-4.6644
1101.6,14.002,-8.1879
1113.3,15.418,-8.8769
1125,13.672,-10.897
1136.7,11.655,-10.324
1148.4,13.439,-6.6628
1160.2,16.172,-8.0902
1171.9,16.499,-9.666
1183.6,14.529,-8.4448
1195.3,15.423,-7.492
1207,16.574,-9.2975
1218.8,14.015,-6.493
1230.5,8.9145,-6.7357
1242.2,15.037,-10.059
1253.9,15.219,-7.4955
1265.6,14.527,-8.9689
1277.3,16.002,-7.032
1289.1,16.992,-4.7539
1300.8,12.439,-8.3852
1312.5,10.407,-8.0446
1324.2,16.604,-7.5868
1335.9,16.876,-9.3697
1347.7,16.241,-11.282
1359.4,15.809,-7.0145
1371.1,17.355,-5.9188
1382.8,16.434,-9.5734
1394.5,16.792,-9.225
1406.3,16.57,-5.4864
1418,18.038,-6.1574
1429.7,19.639,-8.1284
1441.4,15.4,-9.0578
1453.1,16.016,-8.5833
1464.8,19.131,-5.5206
1476.6,18.792,-3.8899
1488.3,15.753,-5.8235
1500,13.904,-9.5773
1511.7,14.516,-8.5783
1523.4,12.724,-8.877
1535.2,12.123,-7.8001
1546.9,14.71,-8.484
1558.6,13.875,-9.0119
1570.3,15.247,-7.1378
1582,15.101,-8.8076
1593.8,12.654,-7.5175
1605.5,13.912,-5.1366
1617.2,12.24,-3.9112
1628.9,15.293,-8.2629
1640.6,16.694,-7.3406
1652.3,16.145,-7.3444
1664.1,12.741,-9.135
1675.8,10.653,-10.371
1687.5,14.452,-10.848
1699.2,13.851,-9.9144
1710.9,14.362,-9.7823
1722.7,16.557,-5.0081
1734.4,17.099,-4.8084
1746.1,16.194,-6.3003
1757.8,15.07,-6.9936
1769.5,16.491,-8.5505
1781.3,17.169,-5.5848
1793,16.002,-5.5
1804.7,17.089,-9.6362
1816.4,17.824,-9.1975
1828.1,15.956,-7.2317
1839.8,16.112,-4.373
1851.6,14.722,-3.6927
1863.3,16.934,-4.931
1875,15.284,-7.6048
1886.7,15.017,-6.5543
1898.4,16.489,-6.9313
1910.2,16.883,-6.6811
1921.9,15.429,-8.7408
1933.6,12.43,-8.8803
1945.3,12.053,-7.5946
1957,13.592,-10.182
1968.8,13.53,-7.2006
1980.5,11.945,-6.4822
1992.2,13.607,-5.6496
2003.9,15.558,-5.2457
2015.6,13.287,-5.4447
2027.3,13.445,-7.6717
2039.1,12.985,-9.0754
2050.8,13.557,-9.661
2062.5,11.431,-6.5822
2074.2,11.66,-6.1197
2085.9,14.448,-8.5186
2097.7,14.329,-7.4451
2109.4,10.286,-5.3623
2121.1,13.246,-6.9097
2132.8,12.942,-8.6811
2144.5,11.536,-6.0538
2156.3,12.81,-6.7472
2168,11.124,-7.6314
2179.7,11.956,-7.7433
2191.4,12.228,-7.0774
2203.1,10.962,-9.0335
2214.8,12.546,-8.9804
2226.6,10.383,-8.0672
2238.3,13.858,-9.2462
2250,15.296,-8.6456
2261.7,16.111,-8.0409
2273.4,16.332,-9.2933
2285.2,11.971,-11.949
2296.9,10.94,-9.7011
2308.6,16.441,-5.5523
2320.3,15.625,-4.6087
2332,15.324,-5.0054
2343.8,14.088,-8.6112
2355.5,12.155,-7.7056
2367.2,8.8559,-7.5929
2378.9,15.039,-8.4721
2390.6,18.612,-5.5852
2402.3,18.015,-4.4918
2414.1,15.542,-8.375
2425.8,12.738,-9.1211
2437.5,11.972,-10.816
2449.2,14.278,-9.8288
2460.9,15.427,-7.911
2472.7,14.43,-5.3217
2484.4,7.0141,-5.827
2496.1,12.405,-6.9996
2507.8,13.059,-7.0245
2519.5,13.814,-7.6746
2531.3,11.913,-6.0901
2543,12.418,-6.2933
2554.7,10.201,-7.558
2566.4,13.191,-9.0278
2578.1,12.543,-9.2789
2589.8,12.95,-7.2545
2601.6,15.143,-6.4639
2613.3,16.356,-5.5245
2625,15.256,-9.3339
2636.7,16.626,-5.6589
2648.4,16.72,-2.7693
2660.2,14.208,-4.524
2671.9,10.913,-8.4629
2683.6,11.631,-8.7791
2695.3,9.9195,-10.03
2707,15.454,-10.338
2718.8,16.624,-8.976
2730.5,16.029,-7.7932
2742.2,14.493,-7.235
2753.9,11.811,-10.518
2765.6,11.407,-7.9267
2777.3,12.437,-6.2891
2789.1,12.136,-7.1553
2800.8,9.8593,-8.0975
2812.5,9.2962,-5.6074
2824.2,9.2947,-5.5725
2835.9,10.878,-8.3184
2847.7,11.518,-9.686
2859.4,11.558,-10.414
2871.1,9.9915,-6.1654
2882.8,11.855,-7.2784
2894.5,12.785,-7.066
2906.3,9.5934,-6.7579
2918,9.1589,-6.7885
2929.7,8.2981,-5.2233
2941.4,9.825,-5.1295
2953.1,12.046,-4.4849
2964.8,11.316,-4.5311
2976.6,12.16,-5.5463
2988.3,12.324,-5.0553
3000,15.811,-5.4986
3011.7,15.087,-8.2825
3023.4,12.949,-7.3959
3035.2,12.592,-8.8825
3046.9,13.17,-7.855
3058.6,13.071,-6.4212
3070.3,13.375,-6.4448
3082,11.417,-7.7854
3093.8,13.338,-6.912
3105.5,10.643,-6.4747
3117.2,11.162,-6.4701
3128.9,12.649,-6.0919
3140.6,11.501,-7.481
3152.3,12.253,-8.9185
3164.1,9.6195,-9.9153
3175.8,10.19,-9.0848
3187.5,11.751,-9.1422
3199.2,9.1473,-6.5357
3210.9,8.4412,-4.1194
3222.7,8.459,-3.1916
3234.4,9.3656,-3.9585
3246.1,14.422,-5.9529
3257.8,12.87,-5.5178
3269.5,17.108,-7.5574
3281.3,13.414,-6.1728
3293,11.621,-7.3126
3304.7,8.6825,-6.6152
3316.4,10.863,-4.8161
3328.1,12.318,-6.0781
3339.8,11.339,-10.242
3351.6,10.569,-8.6002
3363.3,11.396,-7.3922
3375,11.804,-6.9661
3386.7,12.886,-7.0722
3398.4,11.811,-7.1344
3410.2,10.064,-7.0997
3421.9,8.3689,-9.3816
3433.6,10.024,-8.2799
3445.3,10.216,-7.7557
3457,7.9958,-6.5196
3468.8,10.125,-6.6142
3480.5,11.185,-5.1865
3492.2,10.541,-7.4301
3503.9,8.6271,-9.6302
3515.6,7.5173,-9.21
3527.3,8.3511,-10.174
3539.1,10.825,-9.8537
3550.8,12.575,-5.7718
3562.5,11.208,-5.7238
3574.2,7.7615,-6.8267
3585.9,12.047,-8.7623
3597.7,14.242,-9.1796
3609.4,12.138,-8.6392
3621.1,12.282,-10.93
3632.8,10.937,-9.2774
3644.5,9.4298,-9.5868
3656.3,9.1171,-10.369
3668,10.303,-10.807
3679.7,10.332,-8.3679
3691.4,10.446,-8.6885
3703.1,10.096,-7.2474
3714.8,10.173,-6.6241
3726.6,9.8771,-6.8706
3738.3,7.4643,-8.478
3750,7.0233,-6.7311
3761.7,7.8574,-6.2589
3773.4,11.636,-8.4245
3785.2,9.1242,-9.2258
3796.9,7.5144,-10.191
3808.6,8.5852,-8.2235
3820.3,8.9902,-5.6301
3832,9.6548,-4.2717
3843.8,8.2627,-4.3074
3855.5,9.5887,-6.8436
3867.2,8.3954,-7.9005
3878.9,5.9564,-6.9113
3890.6,6.4109,-7.1719
3902.3,9.5185,-8.222
3914.1,10.228,-8.882
3925.8,9.3016,-9.2883
3937.5,8.6154,-7.0757
3949.2,10.728,-7.851
3960.9,15.506,-7.1839
3972.7,24.782,-7.487
3984.4,44.609,-7.9237
3996.1,55.462,-7.0634
4007.8,53.526,-7.9773
4019.5,35.625,-7.5753
4031.3,20.435,-8.9928
4043,13.858,-10.007
4054.7,10.325,-6.3615
4066.4,8.8419,-9.8898
4078.1,8.575,-7.6507
4089.8,9.6057,-9.4799
4101.6,9.3743,-12.811
4113.3,7.5394,-9.6831
4125,6.3218,-8.5857
4136.7,8.028,-7.5901
4148.4,10.036,-9.1206
4160.2,9.2992,-9.6318
4171.9,8.6986,-5.8861
4183.6,9.7168,-5.309
4195.3,10.197,-6.3213
4207,6.2533,-7.5524
4218.8,6.8947,-5.9654
4230.5,8.8968,-7.4586
4242.2,7.2142,-9.5437
4253.9,7.8682,-8.5702
4265.6,10.933,-9.7101
4277.3,10.835,-11.062
4289.1,5.8445,-7.1741
4300.8,5.495,-5.618
4312.5,6.3522,-8.3272
4324.2,7.3943,-9.8184
4335.9,4.8647,-9.2086
4347.7,7.7196,-8.3839
4359.4,7.8046,-6.1047
4371.1,7.4063,-6.8268
4382.8,6.8097,-9.6331
4394.5,11.508,-9.0012
4406.3,9.89,-7.9154
4418,8.0087,-7.8394
4429.7,6.9385,-8.5608
4441.4,5.3102,-8.5598
4453.1,7.8319,-5.9833
4464.8,7.55,-7.3832
4476.6,8.5948,-10.094
4488.3,8.8873,-10.241
4500,7.6771,-8.0434
4511.7,6.2002,-8.7579
4523.4,7.8602,-7.9562
4535.2,8.5178,-7.0042
4546.9,5.2593,-7.7847
4558.6,6.8627,-6.2238
4570.3,6.0888,-6.3056
4582,7.9107,-6.9674
4593.8,9.6516,-6.2943
4605.5,8.2828,-8.6468
4617.2,8.2504,-8.8904
4628.9,7.1737,-5.9656
4640.6,9.0677,-7.3638
4652.3,9.3356,-13.157
4664.1,6.8652,-9.1923
4675.8,7.4782,-5.9894
4687.5,5.7759,-8.3663
4699.2,5.8172,-8.2005
4710.9,8.4807,-8.6722
4722.7,8.7711,-11.004
4734.4,10.401,-10.176
4746.1,10.992,-10.029
4757.8,7.8883,-8.6689
4769.5,5.7934,-11.291
4781.3,5.6269,-7.0948
4793,8.9951,-4.7122
4804.7,9.3057,-7.6117
4816.4,7.6715,-8.9336
4828.1,5.4117,-7.6901
4839.8,5.2144,-5.533
4851.6,5.784,-6.547
4863.3,5.9105,-8.2401
4875,7.296,-7.5852
4886.7,6.0709,-7.6252
4898.4,6.0952,-6
4910.2,8.0791,-7.6653
4921.9,6.6239,-7.1694
4933.6,8.5772,-8.0972
4945.3,9.5634,-4.9289
4957,7.6824,-5.9033
4968.8,3.4704,-8.18
4980.5,8.1282,-7.5387
4992.2,6.8066,-6.1473
5003.9,5.0763,-6.7446
5015.6,8.6334,-12.303
5027.3,8.3939,-10.585
5039.1,4.5547,-7.8271
5050.8,1.9636,-6.6905
5062.5,3.5014,-7.9429
5074.2,5.7735,-7.1591
5085.9,3.1164,-5.1334
5097.7,6.7563,-4.6562
5109.4,5.7059,-8.6205
5121.1,6.5418,-11.275
5132.8,7.0319,-8.3956
5144.5,3.9811,-7.3147
5156.3,6.2759,-8.4701
5168,4.4706,-7.9706
5179.7,6.4717,-6.8753
5191.4,6.3378,-7.0562
5203.1,7.3912,-7.6075
5214.8,8.9195,-8.1741
5226.6,5.6557,-10.877
5238.3,5.1019,-11.343
5250,4.4287,-10.745
5261.7,2.0357,-8.5854
5273.4,5.3318,-6.7521
5285.2,6.4938,-5.4027
5296.9,7.3591,-6.5827
5308.6,4.901,-7.9923
5320.3,5.4498,-5.76
5332,5.6137,-8.8814
5343.8,5.7921,-10.609
5355.5,6.9972,-8.0014
5367.2,8.3461,-8.3788
5378.9,7.0033,-8.4606
5390.6,7.4454,-9.7196
5402.3,6.8468,-8.0371
5414.1,5.1309,-9.9591
5425.8,5.6963,-7.0758
5437.5,7.1108,-7.0325
5449.2,7.3456,-5.781
5460.9,10.216,-5.248
5472.7,8.4884,-8.1741
5484.4,7.6239,-5.6116
5496.1,8.357,-3.9341
5507.8,7.3994,-5.2092
5519.5,6.0644,-7.2986
5531.3,6.6575,-8.7379
5543,7.3089,-11.318
5554.7,5.255,-10.141
5566.4,5.9355,-11.603
5578.1,6.5609,-10.917
5589.8,5.4036,-12.089
5601.6,7.2189,-9.7706
5613.3,5.8765,-7.1644
5625,4.7519,-4.8868
5636.7,4.6198,-8.5293
5648.4,4.3323,-10.5
5660.2,4.0615,-8.7035
5671.9,2.3695,-9.7429
5683.6,0.020741,-10.515
5695.3,4.0061,-7.7379
5707,4.7864,-5.0072
5718.8,4.3897,-4.5217
5730.5,7.9139,-8.2105
5742.2,6.084,-9.6944
5753.9,4.3239,-8.1211
5765.6,7.4667,-7.9452
5777.3,9.2194,-9.8464
5789.1,7.7029,-7.8828
5800.8,4.5104,-7.9835
5812.5,2.8309,-10.368
5824.2,4.533,-7.6693
5835.9,4.1296,-9.2219
5847.7,7.9517,-10.014
5859.4,6.4073,-6.74
5871.1,5.6641,-8.5445
5882.8,7.1546,-8.1427
5894.5,7.2526,-10.444
5906.3,4.9572,-10.714
5918,4.3832,-8.2775
5929.7,6.6874,-10.321
5941.4,5.9234,-8.3884
5953.1,3.0084,-10.123
5964.8,3.8342,-8.5822
5976.6,3.6037,-9.4825
5988.3,6.9482,-10.786
6000,5.9766,-6.5475
6011.7,5.2443,-5.7809
6023.4,5.3211,-5.6004
6035.2,3.4892,-5.5386
6046.9,6.1293,-5.4263
6058.6,6.9722,-6.1722
6070.3,4.2946,-9.0482
6082,3.896,-11.062
6093.8,2.5724,-10.5
6105.5,4.1513,-7.8149
6117.2,4.8628,-7.7028
6128.9,5.258,-7.8734
6140.6,1.4622,-7.8203
6152.3,6.145,-8.2638
6164.1,5.4298,-9.3003
6175.8,4.1091,-8.4478
6187.5,3.7732,-9.2063
6199.2,2.7182,-11.166
6210.9,5.1144,-9.1964
6222.7,7.7674,-11.001
6234.4,8.0651,-11.663
6246.1,6.1862,-9.866
6257.8,3.4776,-8.5334
6269.5,2.4125,-9.1797
6281.3,1.7964,-9.8142
6293,4.0447,-9.9585
6304.7,4.8413,-9.7144
6316.4,3.4129,-8.6805
6328.1,3.7995,-9.1223
6339.8,6.5453,-10.73
6351.6,3.3771,-7.8267
6363.3,4.1762,-10.112
6375,6.0841,-13.741
6386.7,4.388,-10.827
6398.4,2.9819,-6.6378
6410.2,2.1725,-6.2422
6421.9,4.8679,-8.3773
6433.6,5.8332,-9.6359
6445.3,5.2348,-9.4136
6457,4.5289,-9.8757
6468.8,4.4794,-11.571
6480.5,5.371,-9.7802
6492.2,5.2097,-9.1905
6503.9,1.6634,-7.3065
6515.6,4.159,-7.7552
6527.3,4.7215,-8.9492
6539.1,4.7682,-7.9846
6550.8,4.613,-7.8755
6562.5,4.3815,-7.5436
6574.2,5.6036,-9.9115
6585.9,6.0136,-8.8183
6597.7,4.5941,-8.6587
6609.4,6.3597,-10.869
6621.1,7.6084,-13.78
6632.8,6.2372,-11.21
6644.5,4.2304,-11.24
6656.3,3.043,-10.438
6668,0.6722,-7.0004
6679.7,0.63485,-7.1738
6691.4,2.9736,-7.8446
6703.1,2.1777,-8.2632
6714.8,1.8021,-7.3238
6726.6,2.4295,-11.701
6738.3,5.1394,-9.2285
6750,6.3625,-8.6437
6761.7,5.8149,-7.399
6773.4,5.0476,-8.3306
6785.2,3.6379,-10.116
6796.9,3.738,-11.158
6808.6,2.5412,-10.263
6820.3,1.3009,-12.358
6832,1.9607,-12.057
6843.8,3.6459,-12.765
6855.5,4.8428,-11.751
6867.2,3.1576,-10.025
6878.9,2.0486,-9.633
6890.6,1.618,-9.8757
6902.3,3.9203,-11.181
6914.1,4.7177,-10.954
6925.8,1.5977,-9.5605
6937.5,5.7472,-10.205
6949.2,7.6763,-11.42
6960.9,6.2133,-10.12
6972.7,6.9481,-7.8999
6984.4,3.8374,-8.7924
6996.1,0.92157,-8.9787
7007.8,5.7485,-10.279
7019.5,4.226,-10.016
7031.3,4.3018,-10.798
7043,3.6731,-8.2203
7054.7,5.2534,-5.7175
7066.4,3.2942,-6.9809
7078.1,3.2356,-8.5059
7089.8,5.377,-11.472
7101.6,5.553,-8.5575
7113.3,5.0232,-7.6133
7125,6.1129,-7.3815
7136.7,6.2715,-9.8583
7148.4,5.402,-11.607
7160.2,6.2333,-8.9615
7171.9,5.6934,-8.2761
7183.6,5.262,-14.264
7195.3,4.3359,-8.2245
7207,4.6023,-10.574
7218.8,2.6404,-10.038
7230.5,3.1853,-7.8268
7242.2,7.3278,-10.832
7253.9,6.0499,-11.87
7265.6,3.168,-11.39
7277.3,1.8463,-9.9796
7289.1,3.801,-8.5359
7300.8,3.7867,-10.062
7312.5,0.89194,-11.529
7324.2,4.0412,-9.9305
7335.9,3.0058,-10.118
7347.7,2.3189,-8.5683
7359.4,3.9085,-9.2475
7371.1,2.5244,-9.8984
7382.8,4.5633,-11.322
7394.5,6.8566,-8.4194
7406.3,3.4227,-8.8762
7418,1.719,-13.27
7429.7,2.053,-13.893
7441.4,1.243,-10.283
7453.1,0.51124,-10.118
7464.8,2.9637,-10.372
7476.6,1.066,-6.6621
7488.3,0.14886,-6.9084
7500,1.16,-7.6899
7511.7,2.2534,-9.7047
7523.4,5.9752,-11.268
7535.2,7.0136,-9.0041
7546.9,5.8499,-9.4222
7558.6,2.8731,-14.829
7570.3,0.97295,-12.029
7582,-0.018864,-11.144
7593.8,2.2156,-10.096
7605.5,3.7253,-12.717
7617.2,2.334,-10.59
7628.9,-0.1175,-12.571
7640.6,2.4086,-7.6317
7652.3,2.7175,-10.67
7664.1,1.8545,-10.105
7675.8,3.5345,-8.0824
7687.5,4.4048,-7.2198
7699.2,3.458,-9.7112
7710.9,3.189,-8.2658
7722.7,2.8128,-8.0466
7734.4,4.0648,-8.73
7746.1,3.6114,-10.776
7757.8,1.7055,-12.563
7769.5,3.3091,-11.256
7781.3,5.1786,-14.13
7793,4.9354,-11.113
7804.7,4.1895,-7.8289
7816.4,1.9663,-7.1885
7828.1,2.7055,-9.3527
7839.8,2.9782,-10.871
7851.6,2.6234,-8.7235
7863.3,1.4468,-7.9508
7875,0.91575,-8.8603
7886.7,-0.053974,-10.147
7898.4,-0.96939,-11.719
7910.2,1.1281,-10.456
7921.9,2.5996,-9.5455
7933.6,3.7021,-8.9291
7945.3,3.7954,-9.3763
7957,1.1748,-10.109
7968.8,1.1839,-8.8226
7980.5,1.3544,-10.062
7992.2,0.7794,-8.7305
8003.9,-0.58535,-8.0851
8015.6,1.5723,-13.693
8027.3,1.3524,-12.175
8039.1,2.5269,-9.8115
8050.8,1.2864,-8.0936
8062.5,1.4622,-8.1552
8074.2,3.4048,-10.658
8085.9,0.021352,-11.876
8097.7,2.2891,-9.9633
8109.4,3.5759,-5.6938
8121.1,5.4073,-6.9617
8132.8,1.4845,-11.154
8144.5,-1.2489,-10.851
8156.3,-1.3064,-10.442
8168,1.0788,-9.7892
8179.7,1.487,-11.239
8191.4,1.6892,-9.8534
8203.1,0.81527,-8.6485
8214.8,0.31443,-8.8783
8226.6,2.2119,-8.3226
8238.3,2.404,-10.89
8250,1.9887,-11.633
8261.7,1.4523,-9.3221
8273.4,-3.148,-7.5375
8285.2,1.0219,-8.1835
8296.9,-0.4263,-9.7409
8308.6,-1.4125,-7.1527
8320.3,-0.043909,-6.2633
8332,1.5204,-10.958
8343.8,4.7875,-8.9548
8355.5,2.7495,-11.125
8367.2,1.0764,-11.836
8378.9,1.7691,-8.5498
8390.6,-1.0156,-8.8406
8402.3,0.64369,-10.605
8414.1,2.9162,-11.91
8425.8,2.5748,-9.9878
8437.5,2.6407,-14.249
8449.2,2.2218,-15.116
8460.9,1.1087,-9.8382
8472.7,2.0069,-8.3278
8484.4,0.92163,-11.003
8496.1,0.07537,-11.976
8507.8,0.3695,-12.148
8519.5,1.6079,-10.41
8531.3,0.51499,-8.7758
8543,2.0803,-8.76
8554.7,0.76058,-10.493
8566.4,0.22249,-10.965
8578.1,1.9889,-11.47
8589.8,0.9381,-10.909
8601.6,1.189,-9.7874
8613.3,3.283,-9.3702
8625,3.6894,-10.046
8636.7,0.89466,-13.361
8648.4,-1.5601,-10.248
8660.2,-1.5108,-9.6146
8671.9,-0.30995,-7.9204
8683.6,-1.9303,-8.7903
8695.3,0.01839,-10.143
8707,3.2796,-8.7095
8718.8,2.0112,-9.7495
8730.5,-0.015678,-8.9843
8742.2,-0.12843,-5.9506
8753.9,1.6895,-5.6633
8765.6,0.013294,-7.6295
8777.3,2.947,-8.4856
8789.1,1.6162,-10.518
8800.8,-1.9856,-11.54
8812.5,1.0802,-10.297
8824.2,2.4909,-9.9143
8835.9,2.0317,-11.163
8847.7,-1.1373,-9.8791
8859.4,-0.79408,-9.8875
8871.1,1.0101,-14.318
8882.8,1.2223,-11.298
8894.5,0.22949,-9.296
8906.3,0.22021,-9.0638
8918,0.16993,-10.623
8929.7,-1.1626,-9.3634
8941.4,-2.2498,-8.2565
8953.1,-1.1471,-7.2199
8964.8,-4.2939,-8.5588
8976.6,-2.7364,-11.989
8988.3,-1.0305,-13.953
9000,-0.1669,-10.366
9011.7,-0.61777,-11.201
9023.4,-1.398,-10.947
9035.2,0.50169,-11.521
9046.9,1.2391,-12.175
9058.6,3.3398,-10.311
9070.3,3.2453,-9.1121
9082,2.3739,-10.123
9093.8,1.3799,-8.5819
9105.5,0.55541,-8.7653
9117.2,2.1164,-13.208
9128.9,0.77969,-10.482
9140.6,2.091,-11.004
9152.3,2.0593,-9.8546
9164.1,1.7165,-8.0452
9175.8,2.9119,-11.135
9187.5,3.16,-8.9567
9199.2,-0.55695,-11.391
9210.9,1.7902,-9.5419
9222.7,2.5755,-8.8886
9234.4,0.089338,-10.763
9246.1,0.18872,-12.611
9257.8,-2.1146,-13.387
9269.5,1.2573,-14.046
9281.3,3.1081,-10.902
9293,2.0095,-8.7421
9304.7,-1.1195,-9.8672
9316.4,-0.81809,-11.652
9328.1,-1.2725,-11.664
9339.8,-3.0638,-11.622
9351.6,-1.4252,-9.0978
9363.3,-0.31646,-11.512
9375,-0.036378,-14.278
9386.7,0.25697,-11.003
9398.4,-0.6005,-11.651
9410.2,-1.7836,-12.273
9421.9,-0.84244,-14.607
9433.6,-1.8978,-10.71
9445.3,-3.3466,-9.652
9457,-1.5841,-10.06
9468.8,-2.0932,-8.9593
9480.5,-6.0402,-9.8351
9492.2,-3.0553,-10.614
9503.9,-4.6429,-12.514
9515.6,-1.1834,-10.393
9527.3,0.46893,-10.839
9539.1,-2.5633,-11.217
9550.8,-1.2668,-11.73
9562.5,-0.972,-11.292
9574.2,-2.0368,-13.988
9585.9,-2.0453,-9.2861
9597.7,1.8517,-10.521
9609.4,-2.9018,-12.385
9621.1,-1.1366,-12.381
9632.8,0.013767,-10.879
9644.5,-1.3614,-8.6068
9656.3,-2.9609,-9.1595
9668,-1.1178,-11.866
9679.7,-2.3731,-10.667
9691.4,-5.5475,-8.6488
9703.1,0.14405,-11.373
9714.8,0.44593,-9.5009
9726.6,0.58243,-8.74
9738.3,-1.0865,-10.193
9750,0.18969,-11.265
9761.7,1.6619,-10.256
9773.4,0.61577,-9.585
9785.2,1.353,-9.9362
9796.9,-3.9283,-11.757
9808.6,-3.4206,-11.386
9820.3,-1.2617,-8.6502
9832,-2.0722,-12.397
9843.8,-0.57797,-10.094
9855.5,-1.4091,-7.9099
9867.2,-2.1257,-10.483
9878.9,-2.5749,-11.846
9890.6,0.99861,-12.972
9902.3,0.17993,-14.625
9914.1,-1.4182,-11.901
9925.8,0.46629,-11.284
9937.5,2.0462,-10.424
9949.2,1.3087,-9.8277
9960.9,1.2318,-9.5019
9972.7,-2.318,-12.326
9984.4,-0.42463,-13.835
9996.1,-1.0431,-13.253
10008,-1.1319,-10.354
10020,-2.9447,-8.9577
10031,0.39277,-9.427
10043,1.5843,-13.006
10055,2.264,-16.048
10066,0.82819,-13.299
10078,-2.1382,-13.696
10090,-3.6868,-8.8989
10102,-1.8316,-8.0909
10113,-2.102,-10.026
10125,0.14478,-13.95
10137,2.2698,-11.09
10148,-2.168,-11.271
10160,1.3273,-11.073
10172,0.071056,-13.61
10184,-0.1367,-12.387
10195,1.1956,-10.16
10207,-0.66704,-10.067
10219,-2.8492,-10.052
10230,-2.2213,-13.031
10242,-2.4098,-10.619
10254,-0.83252,-14.578
10266,1.4212,-10.854
10277,0.73885,-13.101
10289,0.1946,-15.083
10301,2.1429,-13.077
10313,2.298,-7.9055
10324,0.13676,-8.9052
10336,0.26605,-13.795
10348,1.1687,-12.65
10359,0.60818,-10.433
10371,0.91367,-9.1319
10383,-3.1588,-10.978
10395,-0.51101,-10.462
10406,1.5167,-13.046
10418,-3.3239,-12.465
10430,-3.7483,-10.366
10441,-1.9543,-8.8468
10453,0.16352,-9.3754
10465,0.013011,-9.3346
10477,-0.2106,-13.932
10488,-1.6451,-11.903
10500,-1.5157,-11.456
10512,-1.013,-9.2381
10523,-1.643,-11.456
10535,-1.1085,-11.298
10547,0.33062,-11.774
10559,-1.8277,-11.912
10570,-5.2719,-12.296
10582,-2.6046,-9.3271
10594,-2.217,-10.94
10605,-2.1367,-12.615
10617,-2.0242,-11.254
10629,-0.49785,-9.7374
10641,1.7733,-12.102
10652,1.1827,-9.9066
10664,-3.4707,-11.905
10676,-3.6287,-12.854
10688,-2.4076,-11.208
10699,-3.6974,-10.974
10711,-3.0115,-10.545
10723,-6.4338,-8.6067
10734,-4.6807,-10.87
10746,-2.6688,-11.225
10758,-4.7737,-12.549
10770,-3.0918,-10.294
10781,-2.2579,-10.694
10793,-1.7687,-11.092
10805,-2.5423,-11.076
10816,-3.713,-14.12
10828,-4.2581,-14.052
10840,-3.7406,-12.459
10852,-0.95582,-10.755
10863,-0.051666,-9.7022
10875,-1.8135,-12.177
10887,-4.3074,-10.631
10898,-1.9447,-12.866
10910,-0.75991,-12.362
10922,-1.4076,-12.158
10934,-2.6078,-13.189
10945,-1.972,-11.222
10957,-0.5989,-12.418
10969,-0.12372,-14.165
10980,-0.76321,-11.663
10992,-2.1236,-10.321
11004,0.7371,-10.731
11016,-0.32559,-10.114
11027,-0.44958,-12.07
11039,1.2865,-13.72
11051,-2.896,-10.75
11063,-6.6778,-12.117
11074,-2.8647,-12.21
11086,-2.5301,-11.045
11098,0.15576,-11.557
11109,1.15,-14.652
11121,0.92245,-13.944
11133,-1.6128,-13.442
11145,-5.4456,-8.8219
11156,-3.2557,-12.53
11168,2.0547,-16.213
11180,0.92056,-15.053
11191,-1.6976,-14.705
11203,0.052607,-13.558
11215,-1.3359,-10.075
11227,-3.3818,-10.074
11238,-1.1973,-13.659
11250,-1.3447,-10.8
11262,-0.53339,-10.231
11273,-0.56044,-11.881
11285,-3.0072,-10.316
11297,-2.4332,-9.8988
11309,-2.5987,-10.624
11320,-2.3676,-11.928
11332,-2.2989,-13.862
11344,-0.91156,-12.091
11355,-1.4491,-13
11367,-1.4717,-12.275
11379,-5.6036,-13.325
11391,-1.7745,-14.056
11402,-1.667,-15.091
11414,-0.92522,-11.817
11426,-1.0649,-10.973
11438,-0.78694,-13.016
11449,-2.4972,-13.622
11461,-3.6467,-11.565
11473,-3.0648,-10.29
11484,-3.7237,-9.8645
11496,-4.5837,-12.927
11508,-2.7599,-11.757
11520,-3.0993,-13.362
11531,-3.6094,-14.886
11543,-2.9988,-13.952
11555,-4.8489,-13.99
11566,-5.1962,-13.099
11578,-0.45469,-12.474
11590,0.40545,-11.268
11602,-5.2142,-11.887
11613,-3.3299,-12.469
11625,0.57494,-10.88
11637,0.22908,-12.351
11648,0.98445,-13.536
11660,0.96329,-11.742
11672,0.92361,-9.7442
11684,-1.1832,-8.0388
11695,-1.5377,-8.6175
11707,-2.6482,-12.462
11719,-0.63971,-10.463
11730,-0.085667,-12.633
11742,0.30108,-13.453
11754,0.33286,-15.542
11766,-0.67328,-11.213
11777,-3.1537,-9.4264
11789,-2.5116,-10.195
11801,-2.1661,-19.139
11813,-1.5182,-11.472
11824,-1.4052,-14.323
11836,-1.2806,-11.958
11848,-2.4925,-15.063
11859,-3.2328,-9.6657
11871,-3.6103,-10.148
11883,-3.5743,-13.44
11895,-2.146,-12.481
11906,-3.5917,-11.344
11918,-4.2295,-10.681
11930,-4.0824,-12.74
11941,-2.2061,-12.161
11953,-1.8939,-11.901
11965,-1.2373,-10.774
11977,-0.83636,-12.231
11988,1.5183,-12.526
12000,2.8411,-11.75
12012,-1.1293,-10.177
12023,-3.936,-10.176
12035,-1.0509,-12.741
12047,-1.4173,-14.231
12059,0.47861,-11.493
12070,1.4582,-10.394
12082,-2.4413,-13.077
12094,-7.4897,-13.617
12105,-4.8436,-16.634
12117,-4.1856,-11.784
12129,-3.1292,-10.638
12141,0.46384,-11.069
12152,-0.089516,-11.695
12164,-2.0672,-12.842
12176,-5.3396,-12.155
12188,-2.1581,-10.839
12199,-1.182,-12.38
12211,-1.3774,-15.323
12223,-4.6627,-14.435
12234,-3.1158,-12.611
12246,-0.4147,-11.936
12258,-0.43999,-10.519
12270,-1.9969,-10.537
12281,-2.8976,-10.827
12293,-3.2588,-10.872
12305,-5.1022,-13.179
12316,-4.3178,-11.964
12328,-3.8587,-11.601
12340,-1.2448,-12.047
12352,-0.56288,-11.162
12363,-2.1498,-12.804
12375,-3.9527,-12.111
12387,-4.7454,-12.479
12398,-3.2459,-11.288
12410,-3.8205,-11.767
12422,-3.232,-14.293
12434,-2.0469,-13.423
12445,-4.7433,-13.325
12457,-4.0543,-12.714
12469,-2.887,-11.345
12480,-1.4233,-12.46
12492,-4.0164,-14.664
12504,-4.547,-13.946
12516,-2.4956,-11.926
12527,-3.8474,-15.24
12539,-6.2618,-12.364
12551,-2.2815,-8.555
12563,-3.3121,-10.261
12574,-2.7953,-13.02
12586,-2.5532,-15.509
12598,-4.2652,-18.462
12609,-3.8641,-15.126
12621,-3.239,-11.19
12633,-4.8113,-11.05
12645,-2.4255,-13.744
12656,-2.4459,-13.937
12668,-5.2795,-10.59
12680,-4.7859,-8.7124
12691,-1.8432,-11.043
12703,0.42571,-13.068
12715,-3.034,-15.411
12727,-1.7942,-13.03
12738,-1.9518,-12.788
12750,-3.3334,-12.519
12762,-5.752,-13.04
12773,-2.5082,-12.526
12785,-2.6658,-11.375
12797,-3.0559,-11.82
12809,-3.5452,-14.044
12820,-5.1678,-14.196
12832,-4.8611,-13.377
12844,-3.2262,-12.613
12855,-1.9541,-12.266
12867,-1.8294,-13.003
12879,-3.6201,-16.223
12891,-5.3563,-14.707
12902,-5.4838,-16.3
12914,-2.5439,-12.973
12926,-2.2471,-10.819
12938,-5.5124,-13.332
12949,-5.3599,-13.284
12961,-3.5764,-12.662
12973,-3.4027,-15.193
12984,-3.6987,-16.852
12996,-2.745,-11.377
13008,-8.0175,-11.629
13020,-3.3118,-12.051
13031,-1.7044,-13.286
13043,-3.4841,-18.557
13055,-2.7895,-16.492
13066,-2.3114,-14.69
13078,-4.0189,-17.44
13090,-1.6997,-18.341
13102,-0.74053,-14.391
13113,-3.8412,-10.364
13125,-3.5935,-13.968
13137,-3.3341,-14.957
13148,-2.2341,-12.294
13160,-2.7337,-12.282
13172,-7.6461,-14.175
13184,-2.3608,-16.692
13195,-1.99,-12.692
13207,-2.4937,-13.747
13219,-2.5166,-12.096
13230,-4.6372,-13.2
13242,-5.2462,-15.373
13254,-5.1949,-15.316
13266,-1.3872,-11.863
13277,-0.052109,-13.153
13289,-2.3434,-13.94
13301,-2.6646,-15.986
13313,-3.792,-17.314
13324,-1.6599,-16.533
13336,-1.479,-16.013
13348,-2.8643,-14.357
13359,-4.9505,-14.421
13371,-6.6859,-15.481
13383,-0.85239,-15.35
13395,-2.7182,-14.67
13406,-4.2422,-13.038
13418,-6.9269,-11.886
13430,-6.7204,-13.838
13441,-2.6516,-18.771
13453,-4.1886,-17.498
13465,-8.2068,-15.363
13477,-8.3256,-14.799
13488,-4.0929,-15.681
13500,-2.3546,-14.853
13512,-6.1999,-12.496
13523,-6.3417,-11.951
13535,-6.1878,-12.04
13547,-7.5472,-13.733
13559,-6.5162,-13.947
13570,-4.1657,-15.745
13582,-5.2746,-14.859
13594,-6.2665,-9.6908
13605,-4.7943,-12.761
13617,-4.2615,-16.257
13629,-5.3231,-14.957
13641,-4.5664,-14.139
13652,-2.4297,-15.551
13664,-2.8861,-13.777
13676,-4.2054,-14.232
13688,-5.3015,-15.127
13699,-7.1036,-15.444
13711,-4.4257,-15.449
13723,-3.978,-15.215
13734,-3.7971,-15.872
13746,-4.8959,-12.53
13758,-7.296,-12.236
13770,-6.1384,-12.749
13781,-3.4657,-12.033
13793,-3.6573,-12.155
13805,-2.4393,-13.455
13816,-0.93446,-11.968
13828,-1.394,-12.397
13840,-2.4476,-12.593
13852,-3.5668,-13.896
13863,-5.0906,-12.919
13875,-4.3702,-13.979
13887,-7.1382,-16.823
13898,-7.5981,-16.086
13910,-6.8216,-14.4
13922,-8.354,-14.052
13934,-6.5275,-13.449
13945,-4.3057,-13.672
13957,-3.8591,-14.091
13969,-1.9837,-13.805
13980,-1.9787,-13.491
13992,-2.1822,-10.685
14004,-4.143,-10.447
14016,-6.8337,-11.088
14027,-5.8534,-16.336
14039,-1.7057,-17.262
14051,-5.3415,-13.983
14063,-7.4168,-13.424
14074,-3.7305,-14.735
14086,-3.5943,-15.067
14098,-5.7037,-15.086
14109,-3.719,-12.866
14121,-6.1238,-13.059
14133,-6.779,-14.341
14145,-7.7923,-15.648
14156,-5.5985,-14.192
14168,-5.2259,-14.126
14180,-7.643,-13.679
14191,-6.1939,-13.082
14203,-6.8297,-14.531
14215,-3.6571,-14.53
14227,-2.3147,-15.268
14238,-3.6056,-15.347
14250,-4.441,-14.012
14262,-5.032,-15.778
14273,-3.4171,-19.635
14285,-2.4172,-17.527
14297,-3.4366,-16.584
14309,-6.945,-15.399
14320,-7.5753,-14.251
14332,-5.0786,-11.593
14344,-6.0207,-12.751
14355,-7.5312,-15.291
14367,-6.2275,-15.621
14379,-6.4354,-12.764
14391,-5.8916,-13.676
14402,-6.4294,-14.531
14414,-6.5784,-17.447
14426,-6.8095,-18.077
14438,-7.3975,-14.512
14449,-6.2431,-13.299
14461,-7.4923,-14.109
14473,-8.1625,-13.97
14484,-7.249,-15.094
14496,-9.8238,-12.367
14508,-5.9417,-12.532
14520,-4.8765,-15.18
14531,-5.9959,-15.076
14543,-4.3005,-16.046
14555,-3.3991,-12.046
14566,-6.2207,-11.797
14578,-4.8025,-15.411
14590,-6.201,-15.119
14602,-8.3484,-11.911
14613,-6.6461,-12.586
14625,-5.6806,-15.101
14637,-4.5455,-16.884
14648,-3.8899,-16.165
14660,-2.248,-14.566
14672,-3.7231,-13.492
14684,-4.4089,-15.161
14695,-7.3031,-15.295
14707,-4.9801,-17.921
14719,-1.5763,-15.411
14730,-3.7724,-14.543
14742,-4.4142,-18.893
14754,-4.149,-15.6
14766,-5.3838,-11.455
14777,-4.9527,-13.731
14789,-5.8222,-14.39
14801,-4.6833,-15.305
14813,-4.6984,-13.899
14824,-4.8969,-12.827
14836,-2.6393,-12.55
14848,-2.9808,-12.092
14859,-5.5655,-12.698
14871,-6.0227,-12.783
14883,-6.4339,-14.171
14895,-4.5325,-16.744
14906,-4.0198,-14.406
14918,-5.9479,-13.072
14930,-5.987,-13.94
14941,-4.2796,-14.685
14953,-3.127,-14.54
14965,-6.6323,-15.55
14977,-5.2505,-14.563
14988,-5.8148,-13.628
15000,-7.2603,-12.967
15012,-6.8267,-16.817
15023,-5.2647,-16.369
15035,-4.5106,-15.305
15047,-3.5397,-13.847
15059,-3.7592,-19.207
15070,-6.0769,-16.912
15082,-7.2444,-13.087
15094,-8.7781,-12.921
15105,-6.7686,-16.352
15117,-5.8875,-16.741
15129,-4.5957,-16.028
15141,-6.7393,-14.836
15152,-6.7919,-12.569
15164,-4.9037,-14.185
15176,-3.6731,-15.946
15188,-6.9816,-15.189
15199,-5.8509,-11.799
15211,-6.314,-12.284
15223,-8.1288,-13.286
15234,-7.3193,-13.284
15246,-6.8697,-16.314
15258,-7.8896,-17.154
15270,-7.3113,-15.259
15281,-7.5217,-15.928
15293,-6.1429,-17.189
15305,-6.1051,-18.83
15316,-7.8658,-14.138
15328,-10.503,-12.685
15340,-7.7862,-14.865
15352,-6.1687,-16.29
15363,-7.5681,-14.698
15375,-5.6836,-15.231
15387,-5.3793,-16.337
15398,-5.8379,-17.162
15410,-8.7087,-19.771
15422,-8.0836,-15.606
15434,-6.6822,-15.195
15445,-10.106,-16.692
15457,-9.1556,-18.321
15469,-7.7608,-14.508
15480,-7.8554,-13.397
15492,-8.7853,-13.566
15504,-8.917,-14.656
15516,-7.7107,-14.029
15527,-7.7577,-13.52
15539,-5.5487,-12.382
15551,-7.0729,-13.784
15563,-6.146,-14.832
15574,-10.064,-14.771
15586,-9.2307,-15.74
15598,-7.9404,-16.697
15609,-8.1237,-13.74
15621,-8.4171,-12.139
15633,-7.1816,-12.787
15645,-7.6949,-15.237
15656,-7.8927,-18.165
15668,-6.0093,-16.395
15680,-3.8078,-14.694
15691,-5.3358,-15.238
15703,-8.705,-12.957
15715,-9.9901,-15.456
15727,-9.1415,-15.904
15738,-9.839,-15.464
15750,-11.287,-15.171
15762,-9.749,-13.771
15773,-8.2849,-14.814
15785,-8.6415,-15.321
15797,-7.3459,-14.387
15809,-7.0462,-12.593
15820,-8.4639,-13.143
15832,-8.8727,-14.354
15844,-6.2315,-13.211
15855,-6.8621,-13.961
15867,-7.3119,-16.887
15879,-6.7401,-18.106
15891,-6.4249,-14.187
15902,-8.7259,-13.258
15914,-8.4808,-14.692
15926,-7.758,-17.381
15938,-10.251,-16.915
15949,-9.8036,-16.839
15961,-7.2714,-16.076
15973,-8.696,-15.568
15984,-12.942,-16.513
15996,-9.6927,-14.826
16008,-8.055,-14.245
16020,-8.9014,-17.449
16031,-8.759,-16.318
16043,-9.1368,-15.013
16055,-9.3457,-16.1
16066,-8.1247,-15.727
16078,-9.2535,-14.929
16090,-8.1387,-14.673
16102,-6.9088,-16.368
16113,-7.8113,-16.219
16125,-8.7344,-16.433
16137,-11.68,-18.644
16148,-8.0566,-15.592
16160,-4.5153,-11.653
16172,-5.4116,-12.867
16184,-7.4757,-14.218
16195,-9.1142,-14.175
16207,-9.9807,-14.663
16219,-9.2545,-16.269
16230,-8.77,-12.687
16242,-5.7823,-11.599
16254,-7.7257,-14.979
16266,-13.275,-16.274
16277,-10.019,-16.887
16289,-10.697,-16.991
16301,-8.5287,-16.028
16313,-9.7831,-13.232
16324,-9.7491,-13.582
16336,-9.815,-16.924
16348,-9.2242,-16.298
16359,-9.5916,-13.793
16371,-5.6216,-15.687
16383,-7.8476,-14.191
16395,-9.8844,-18.919
16406,-8.2825,-17.947
16418,-7.4697,-18.305
16430,-7.2074,-16.587
16441,-8.6946,-16.633
16453,-6.4763,-15.335
16465,-7.3493,-16.772
16477,-10.001,-13.951
16488,-7.8542,-16.492
16500,-9.3327,-14.856
16512,-9.589,-14.197
16523,-7.3441,-13.554
16535,-8.6701,-13.993
16547,-12.159,-14.889
16559,-12.063,-17.434
16570,-11.201,-16.146
16582,-12.44,-16.84
16594,-11.296,-18.246
16605,-9.6644,-17.28
16617,-9.5511,-17.66
16629,-8.9168,-16.476
16641,-7.1909,-18.689
16652,-8.6736,-17.116
16664,-11.808,-18.533
16676,-9.1026,-17.754
16688,-11.543,-16.383
16699,-11.457,-16.41
16711,-7.1393,-18.838
16723,-7.074,-19.812
16734,-8.0441,-21.619
16746,-8.6081,-16.389
16758,-11.428,-16.22
16770,-11.717,-17.057
16781,-9.0683,-16.292
16793,-9.7535,-16.466
16805,-11.852,-18.212
16816,-10.032,-19.081
16828,-9.2415,-18.44
16840,-7.2449,-15.447
16852,-9.615,-13.177
16863,-8.8997,-14.311
16875,-7.3852,-18.198
16887,-8.8238,-15.934
16898,-8.5103,-14.39
16910,-6.5113,-14.591
16922,-6.8304,-16.519
16934,-8.7084,-16.325
16945,-7.619,-14.784
16957,-9.4372,-15.064
16969,-12.584,-18.561
16980,-8.4829,-16.944
16992,-8.2947,-15.017
17004,-11.36,-14.9
17016,-11.546,-18.675
17027,-10.238,-14.974
17039,-11.24,-16.852
17051,-10.54,-16.154
17063,-7.7029,-15.724
17074,-9.3762,-16.702
17086,-12.691,-17.036
17098,-10.482,-16.851
17109,-11.494,-15.752
17121,-8.0085,-16.677
17133,-8.5509,-18.638
17145,-8.7846,-17.485
17156,-10.13,-18.303
17168,-8.8184,-19.848
17180,-10.395,-16.569
17191,-9.5566,-17.302
17203,-9.1631,-18.044
17215,-10.53,-14.672
17227,-10.151,-16.245
17238,-11.625,-15.159
17250,-9.5653,-13.096
17262,-8.3798,-12.585
17273,-8.7906,-18.423
17285,-8.5834,-21.959
17297,-8.4141,-19.458
17309,-10.716,-19.06
17320,-12.035,-17.976
17332,-13.683,-17.057
17344,-9.8692,-16.292
17355,-8.4766,-15.7
17367,-9.0164,-14.761
17379,-12.619,-18.351
17391,-10.205,-19.595
17402,-9.401,-16.761
17414,-8.1715,-16.196
17426,-9.7953,-16.053
17438,-11.795,-14.78
17449,-11.114,-15.19
17461,-10.171,-16.116
17473,-11.906,-16.489
17484,-12.98,-19.711
17496,-10.198,-18.705
17508,-7.5477,-17.758
17520,-8.7503,-18.799
17531,-9.2957,-18.905
17543,-9.8716,-16.644
17555,-11.778,-17.08
17566,-7.2024,-17.949
17578,-10.509,-18.113
17590,-9.4721,-19.719
17602,-9.6199,-18.274
17613,-7.8221,-16.963
17625,-8.1805,-14.609
17637,-13.877,-16.393
17648,-12.667,-17.942
17660,-10.567,-17.251
17672,-10.232,-15.494
17684,-9.2092,-18.417
17695,-10.715,-17.033
17707,-10.07,-16.951
17719,-9.1529,-18.787
17730,-10.8,-18.593
17742,-10.412,-13.666
17754,-10.778,-14.885
17766,-9.0594,-17.377
17777,-11.377,-17.302
17789,-12.147,-18.697
17801,-11.911,-18.753
17813,-11.241,-15.434
17824,-12.106,-14.676
17836,-10.595,-17.189
17848,-12.946,-19.628
17859,-11.011,-18.41
17871,-10.66,-17.028
17883,-11.763,-16.774
17895,-11.403,-16.893
17906,-11.219,-16.649
17918,-10.967,-16.831
17930,-12.194,-17.799
17941,-12.743,-18.172
17953,-13.521,-15.193
17965,-13.462,-14.046
17977,-13.006,-15.229
17988,-14.188,-16.112
18000,-10.635,-15.591
18012,-9.9491,-17.898
18023,-10.19,-18.21
18035,-10.427,-15.833
18047,-10.985,-14.64
18059,-11.314,-15.72
18070,-7.9992,-16.958
18082,-9.1204,-18.218
18094,-12.769,-16.07
18105,-12.795,-16.438
18117,-10.475,-15.233
18129,-11.984,-17.642
18141,-13.537,-17.736
18152,-12.514,-18.307
18164,-11.229,-19.059
18176,-12.47,-18.69
18188,-13.425,-17.633
18199,-14.201,-16.222
18211,-13.27,-14.65
18223,-12.178,-15.634
18234,-11.331,-20.706
18246,-11.508,-17.662
18258,-9.307,-16.699
18270,-8.9516,-17.886
18281,-12.657,-16.392
18293,-13.484,-15.829
18305,-12.452,-18.394
18316,-12.315,-19.22
18328,-10.995,-18.469
18340,-10.353,-17.179
18352,-8.7227,-17.245
18363,-8.3213,-15.192
18375,-9.7611,-19.171
18387,-10.263,-17.6
18398,-8.7777,-16.181
18410,-10.632,-18.345
18422,-12.599,-18.048
18434,-12.98,-16.448
18445,-12.651,-18.92
18457,-12.137,-18.476
18469,-11.71,-16.043
18480,-12.044,-15.48
18492,-10.341,-17.953
18504,-11.809,-19.122
18516,-14.026,-16.547
18527,-10.99,-16.485
18539,-9.4022,-20.698
18551,-12.473,-18.52
18563,-14.817,-17.932
18574,-11.543,-21.818
18586,-10.635,-20.814
18598,-12.82,-16.973
18609,-11.898,-16.517
18621,-9.3719,-18.127
18633,-8.705,-19.859
18645,-12.922,-19.063
18656,-16.916,-19.486
18668,-13.461,-18.175
18680,-10.806,-15.972
18691,-9.452,-16.048
18703,-11.298,-17.273
18715,-13.795,-16.658
18727,-12.827,-16.607
18738,-11.446,-16.34
18750,-14.856,-19.442
18762,-15.341,-15.198
18773,-13.862,-16.716
18785,-15.46,-18.089
18797,-12.977,-17.307
18809,-11.375,-17.043
18820,-11.152,-18.948
18832,-14.36,-17.099
18844,-14.768,-16.049
18855,-12.178,-18.647
18867,-13.485,-18.82
18879,-13.399,-14.279
18891,-12.621,-14.239
18902,-13.656,-16.694
18914,-14.784,-18.287
18926,-13.706,-18.913
18938,-14.692,-19.011
18949,-11.272,-18.981
18961,-11.106,-20.579
18973,-9.8361,-20.827
18984,-9.2806,-17.556
18996,-10.285,-14.342
19008,-12.3,-14.201
19020,-11.994,-14.244
19031,-12.969,-14.28
19043,-13.384,-16.025
19055,-14.242,-16.909
19066,-11.434,-17.172
19078,-12.385,-16.619
19090,-12.882,-19.399
19102,-13.924,-18.545
19113,-14.817,-19.728
19125,-17.354,-18.227
19137,-16.151,-15.24
19148,-14.204,-16.309
19160,-13.264,-17.89
19172,-10.577,-16.709
19184,-8.683,-18.102
19195,-10.823,-20.425
19207,-11.673,-18.613
19219,-12.553,-17.346
19230,-13.636,-17.382
19242,-13.985,-17.329
19254,-16.83,-20.234
19266,-14.788,-22.009
19277,-13.561,-21.732
19289,-11.92,-19.214
19301,-12.764,-16.179
19313,-15.733,-14.838
19324,-17.469,-17.014
19336,-15.414,-15.511
19348,-15.515,-16.071
19359,-11.65,-16.306
19371,-12.233,-18.577
19383,-12.174,-17.259
19395,-13.586,-17.833
19406,-15.526,-19.949
19418,-13.078,-18.385
19430,-11.04,-17.859
19441,-12.137,-17.119
19453,-11.881,-17.148
19465,-15.317,-18.1
19477,-13.358,-15.987
19488,-10.984,-15.873
19500,-12.992,-17.77
19512,-13.598,-18.467
19523,-16.775,-19.575
19535,-16.282,-19.187
19547,-13.528,-17.446
19559,-12.596,-18.056
19570,-15.276,-20.762
19582,-11.228,-20.179
19594,-12.261,-16.84
19605,-13.398,-18.593
19617,-11.744,-18.591
19629,-12.655,-17.145
19641,-13.966,-16.632
19652,-12.833,-18.288
19664,-11.722,-15.534
19676,-11.524,-12.484
19688,-18.294,-17.046
19699,-12.255,-18.005
19711,-10.668,-19.479
19723,-14.213,-21.193
19734,-16.293,-15.817
19746,-16.732,-16.069
19758,-16.496,-18.349
19770,-15.312,-20.196
19781,-15.893,-18.462
19793,-16.694,-15.937
19805,-14.209,-16.827
19816,-14.68,-18.664
19828,-14.886,-18.39
19840,-18.504,-17.291
19852,-16.61,-17.512
19863,-15.361,-16.543
19875,-16.269,-18.12
19887,-14.224,-15.293
19898,-13.838,-19.086
19910,-15.729,-16.674
19922,-16.795,-17.534
19934,-17.658,-18.74
19945,-14.834,-16.398
19957,-15.2,-16.496
19969,-15.812,-18.453
19980,-13.445,-19.283
19992,-12.206,-15.749
20004,-13.348,-14.834
20016,-12.864,-16.444
20027,-10.723,-17.698
20039,-12.144,-17.554
20051,-13.716,-18.735
20063,-15.382,-13.844
20074,-16.314,-14.243
20086,-17.171,-18.489
20098,-16.042,-20.101
20109,-14.83,-17.487
20121,-15.462,-19.512
20133,-20.184,-18.825
20145,-15.51,-16.594
20156,-15.926,-16.236
20168,-16.804,-18.64
20180,-15.643,-18.549
20191,-15.805,-18.32
20203,-15.413,-15.936
20215,-14.411,-16.757
20227,-14.311,-17.385
20238,-13.23,-17.775
20250,-11.253,-19.568
20262,-10.243,-17.26
20273,-11.983,-15.641
20285,-13.379,-13.807
20297,-11.846,-17.97
20309,-12.92,-20.381
20320,-16.184,-18.977
20332,-16.579,-18.929
20344,-14.225,-19.937
20355,-17.813,-19.965
20367,-18.707,-18.209
20379,-17.122,-16.757
20391,-14.613,-17.678
20402,-15.032,-21.093
20414,-16.402,-19.938
20426,-14.821,-17.748
20438,-13.722,-18.461
20449,-13.551,-21.548
20461,-12.92,-17.789
20473,-12.412,-14.998
20484,-12.129,-17.405
20496,-13.695,-18.364
20508,-13.6,-21.004
20520,-14.014,-21.908
20531,-13.07,-19.262
20543,-12.755,-18.115
20555,-16.026,-22.35
20566,-15.01,-22.246
20578,-15.476,-19.06
20590,-15.75,-18.498
20602,-17.704,-18.452
20613,-16.751,-18.747
20625,-16.048,-20.254
20637,-13.973,-21.879
20648,-14.292,-20.424
20660,-15.971,-17.9
20672,-11.818,-17.334
20684,-12.566,-17.554
20695,-16.739,-18.761
20707,-15.084,-18.873
20719,-14.103,-20.356
20730,-16.345,-21.768
20742,-16.271,-20.6
20754,-15.53,-19.889
20766,-15.173,-18.891
20777,-14.206,-18.879
20789,-13.476,-17.336
20801,-13.791,-17.454
20813,-14.439,-20.583
20824,-14.1,-20.711
20836,-15.035,-17.055
20848,-16.904,-18.895
20859,-15.262,-20.176
20871,-14.069,-19.451
20883,-16.175,-20.454
20895,-17.501,-19.411
20906,-16.291,-17.599
20918,-15.485,-19.78
20930,-12.493,-20.834
20941,-14.819,-19.02
20953,-18.377,-19.012
20965,-19.417,-22.115
20977,-16.953,-23.118
20988,-12.011,-22.454
21000,-11.908,-16.612
21012,-17.09,-17.879
21023,-17.704,-19.036
21035,-11.751,-18.16
21047,-9.7817,-19.235
21059,-11.653,-21.377
21070,-14.934,-17.213
21082,-18.762,-18.991
21094,-15.864,-21.016
21105,-17.212,-23.54
21117,-15.414,-17.978
21129,-12.073,-18.115
21141,-12.572,-18.354
21152,-17.832,-18.606
21164,-19.343,-18.217
21176,-17.305,-18.372
21188,-17.46,-17.887
21199,-17.515,-18.107
21211,-14.484,-17.986
21223,-14.092,-17.64
21234,-14.236,-21.606
21246,-16.009,-20.906
21258,-15.016,-20.175
21270,-14.739,-17.443
21281,-17.049,-16.114
21293,-18.429,-16.915
21305,-15.255,-16.342
21316,-16.289,-16.245
21328,-16.713,-17.45
21340,-12.9,-15.985
21352,-13.218,-17.936
21363,-15.397,-22.359
21375,-16.229,-24.449
21387,-17.464,-21.981
21398,-16.161,-18.926
21410,-16,-18.116
21422,-16.721,-21.192
21434,-14.433,-21.172
21445,-14.259,-20.159
21457,-15.439,-18.688
21469,-14.408,-18.265
21480,-15.372,-20.813
21492,-15.211,-20.301
21504,-13.37,-21.46
21516,-15.449,-22.524
21527,-14.505,-22.81
21539,-12.887,-19.966
21551,-16.258,-18.154
21563,-17.39,-16.747
21574,-10.761,-18.086
21586,-9.3804,-17.729
21598,-11.928,-20.396
21609,-12.139,-22.111
21621,-11.907,-20.305
21633,-12.141,-17.369
21645,-13.888,-16.865
21656,-17.089,-18.361
21668,-16.741,-16.514
21680,-15.942,-20.692
21691,-15.119,-18.442
21703,-14.869,-18.738
21715,-11.199,-16.474
21727,-14.33,-14.828
21738,-18.692,-16.145
21750,-15.844,-16.114
21762,-14.177,-15.26
21773,-16.37,-16.624
21785,-17.686,-18.945
21797,-14.108,-20.442
21809,-13.486,-21.864
21820,-14.602,-19.271
21832,-15.75,-19.326
21844,-15.747,-16.766
21855,-18.073,-17.865
21867,-13.076,-20.977
21879,-13.432,-20.071
21891,-14.481,-21.974
21902,-15.202,-19.3
21914,-16.473,-18.627
21926,-17.135,-18.461
21938,-14.248,-18.025
21949,-15.321,-18.742
21961,-16.93,-22.965
21973,-15.642,-18.927
21984,-13.806,-18.737
21996,-13.68,-16.734
22008,-12.666,-17.698
22020,-15.252,-19.141
22031,-17.066,-19.352
22043,-15.614,-19.569
22055,-12.953,-18.284
22066,-14.849,-19.004
22078,-17.613,-19.35
22090,-18.239,-20.272
22102,-19.481,-23.456
22113,-16.993,-18.247
22125,-14.62,-17.313
22137,-13.876,-19.714
22148,-15.44,-19.097
22160,-18.986,-16.536
22172,-19.904,-18.387
22184,-19.271,-20.899
22195,-17.239,-23.078
22207,-16.744,-20.917
22219,-17.117,-21.12
22230,-17.832,-22.796
22242,-15.742,-20.312
22254,-18.465,-19.932
22266,-15.877,-20.621
22277,-16.457,-21.445
22289,-14.312,-22.189
22301,-14.182,-20.331
22313,-15.738,-21.143
22324,-16.646,-19.764
22336,-16.087,-19.245
22348,-16.775,-19.158
22359,-15.958,-20.706
22371,-13.1,-20.634
22383,-14.049,-21.205
22395,-16.346,-20.256
22406,-12.188,-19.092
22418,-12.802,-20.206
22430,-15.798,-22.242
22441,-16.593,-20.917
22453,-16.497,-20.968
22465,-19.057,-21.469
22477,-18.104,-20.744
22488,-15.932,-19.797
22500,-14.608,-19.392
22512,-14.546,-18.373
22523,-13.193,-18.602
22535,-14.969,-18.468
22547,-16.411,-19.344
22559,-18.88,-20.71
22570,-17.434,-23.185
22582,-15.924,-22.736
22594,-16.05,-21.396
22605,-16.904,-22.691
22617,-18.053,-24.256
22629,-19.231,-22.756
22641,-19.894,-18.698
22652,-17.735,-20.426
22664,-18.006,-22.898
22676,-17.746,-23.186
22688,-14.222,-18.871
22699,-16.754,-19.678
22711,-19.177,-19.769
22723,-18.516,-20.755
22734,-17.388,-19.76
22746,-16.247,-18.53
22758,-15.116,-20.431
22770,-14.942,-19.388
22781,-15.976,-20.299
22793,-17.14,-21.162
22805,-21.185,-18.286
22816,-22.584,-18.547
22828,-18.873,-17.377
22840,-15.335,-18.385
22852,-16.23,-17.945
22863,-18.451,-18.669
22875,-15.856,-16.731
22887,-16.259,-17.388
22898,-15.514,-20.611
22910,-15.188,-19.659
22922,-17.428,-21.539
22934,-15.535,-24.413
22945,-19.306,-25.252
22957,-14.55,-21.967
22969,-13.379,-21.503
22980,-16.529,-21.398
22992,-18.202,-18.133
23004,-16.124,-16.591
23016,-16.912,-18.274
23027,-19.92,-17.761
23039,-16.456,-17.307
23051,-17.978,-21.321
23063,-18.547,-21.929
23074,-17.796,-19.859
23086,-19.891,-18.032
23098,-17.386,-22.198
23109,-16.174,-22.597
23121,-17.384,-20.336
23133,-19.072,-20.341
23145,-18.098,-19.717
23156,-18.265,-20.372
23168,-18.436,-19.619
23180,-18.296,-18.322
23191,-18.349,-18.185
23203,-20.04,-22.761
23215,-21.17,-21.595
23227,-16.981,-20.314
23238,-18.606,-20.487
23250,-16.365,-22.846
23262,-15.373,-18.988
23273,-18.258,-17.808
23285,-15.602,-20.146
23297,-15.779,-23.412
23309,-19.784,-20.816
23320,-19.528,-19.536
23332,-17.84,-20.804
23344,-16.9,-20.047
23355,-18.072,-20.907
23367,-14.983,-21.362
23379,-13.158,-23.345
23391,-17.274,-23.786
23402,-19.469,-20.881
23414,-17.352,-17.776
23426,-14.879,-18.184
23438,-17.835,-17.534
23449,-21.554,-17.621
23461,-20.271,-18.602
23473,-17.836,-21.673
23484,-19.255,-20.693
23496,-18.562,-18.592
23508,-19.253,-20.029
23520,-16.147,-19.889
23531,-15.548,-20.361
23543,-17.437,-21.772
23555,-19.694,-19.577
23566,-17.545,-17.858
23578,-15.377,-16.965
23590,-15.807,-21.289
23602,-15.677,-21.737
23613,-16.377,-19.932
23625,-15.792,-20.726
23637,-18.975,-18.61
23648,-17.925,-19.643
23660,-17.215,-21.545
23672,-20.48,-22.104
23684,-19.515,-20.043
23695,-16.454,-20.747
23707,-18.077,-21.463
23719,-18.024,-21.964
23730,-19.567,-19.256
23742,-19.465,-19.542
23754,-17.323,-19.073
23766,-16.619,-19.272
23777,-17.185,-21.227
23789,-16.607,-20.244
23801,-17.322,-18.687
23813,-17.829,-19.884
23824,-18.843,-22.549
23836,-16.886,-17.888
23848,-15.796,-18.746
23859,-16.428,-20.286
23871,-14.354,-19.844
23883,-17.421,-22.925
23895,-14.166,-22.286
23906,-14.548,-20.304
23918,-17.556,-20.065
23930,-17.767,-19.548
23941,-18.965,-20.782
23953,-15.342,-23.202
23965,-16.362,-21.358
23977,-17.378,-18.883
23988,-17.948,-18.847
