FFT,Power Spectrum
Frequency[Hz],Level-L[dB],Level-R[dB]
11.719,-16.634,-20.498
23.438,2.8777,-1.4273
35.156,1.1893,-2.4292
46.875,7.0187,5.2157
58.594,11.058,10.113
70.313,8.0068,6.4273
82.031,5.7709,5.191
93.75,6.894,6.6629
105.47,5.229,3.8191
117.19,3.4172,1.379
128.91,14.207,12.77
140.63,15.081,14.56
152.34,8.2837,8.6663
164.06,4.86,7.0619
175.78,4.2526,4.7947
187.5,9.8442,7.8901
199.22,9.0294,8.9021
210.94,5.8347,7.2244
222.66,7.6573,6.4168
234.38,10.256,5.7646
246.09,10.848,6.2221
257.81,10.746,6.3028
269.53,8.3377,6.9555
281.25,4.4237,6.2404
292.97,7.4033,6.0138
304.69,5.9306,4.7938
316.41,5.0644,3.1448
328.13,4.1838,4.1035
339.84,4.1026,4.1686
351.56,4.6456,4.9941
363.28,5.7861,4.9245
375,5.8127,3.9078
386.72,6.772,2.8114
398.44,7.0446,6.539
410.16,9.5297,7.8962
421.88,10.461,8.6952
433.59,7.5252,8.0933
445.31,8.0996,8.7471
457.03,8.996,8.3381
468.75,5.9288,4.9569
480.47,7.6965,6.6576
492.19,4.0021,3.3903
503.91,6.9969,2.6354
515.63,6.1689,6.3621
527.34,4.5603,4.6345
539.06,4.2146,6.0261
550.78,3.4304,8.4083
562.5,5.3618,7.0395
574.22,4.8466,3.4912
585.94,6.4136,6.2796
597.66,9.0583,4.7655
609.38,9.8895,4.5095
621.09,10.757,8.434
632.81,7.1272,7.8008
644.53,3.162,6.4072
656.25,-0.71568,7.1043
667.97,4.2533,8.1937
679.69,6.0301,5.497
691.41,5.2328,5.4029
703.13,3.1532,8.3687
714.84,4.4771,9.4169
726.56,0.87134,5.7926
738.28,4.4637,6.9911
750,8.1318,3.9406
761.72,7.9819,5.428
773.44,3.6567,5.9247
785.16,3.1517,5.3614
796.88,4.2839,5.0254
808.59,7.5913,2.9731
820.31,3.1374,2.6633
832.03,4.0307,3.8033
843.75,6.5218,5.289
855.47,4.2126,8.0758
867.19,5.7054,7.221
878.91,6.1566,6.3253
890.63,8.0525,6.9339
902.34,5.2709,6.2644
914.06,7.4745,6.0996
925.78,6.3526,4.098
937.5,4.2567,4.587
949.22,5.9218,5.666
960.94,6.0515,5.7637
972.66,7.7142,3.6022
984.38,6.3298,1.966
996.09,5.7615,3.8109
1007.8,8.3429,3.7092
1019.5,5.816,2.4065
1031.3,3.3509,3.8443
1043,1.4969,2.7009
1054.7,1.6043,2.3032
1066.4,7.4629,4.5008
1078.1,8.5952,5.3353
1089.8,5.4986,5.7028
1101.6,5.4138,3.2003
1113.3,5.0497,5.7596
1125,5.3898,6.3588
1136.7,7.4285,6.6144
1148.4,8.188,4.9931
1160.2,7.042,2.1522
1171.9,6.6414,4.8531
1183.6,5.4152,4.9112
1195.3,3.9698,2.6179
1207,5.9306,2.8024
1218.8,7.9003,3.4694
1230.5,9.2258,6.7511
1242.2,8.4128,5.3455
1253.9,5.3784,4.3204
1265.6,1.9433,5.7031
1277.3,4.4576,8.0132
1289.1,5.1257,8.2291
1300.8,6.9285,6.9029
1312.5,6.9289,3.7272
1324.2,6.6315,3.9222
1335.9,2.7939,2.6349
1347.7,1.9719,2.4753
1359.4,2.3852,6.6452
1371.1,5.3864,6.1375
1382.8,7.3265,4.7174
1394.5,6.9165,3.053
1406.3,4.5599,3.4166
1418,3.7218,2.9935
1429.7,4.5288,5.7005
1441.4,4.2858,5.7308
1453.1,5.461,0.1737
1464.8,4.2831,0.10378
1476.6,1.5984,3.5636
1488.3,2.1574,4.7066
1500,0.85786,-0.43758
1511.7,3.6466,0.29958
1523.4,4.4935,3.2616
1535.2,4.2503,3.3632
1546.9,6.5084,5.5345
1558.6,5.7745,4.6002
1570.3,7.3189,1.4084
1582,6.2807,3.7393
1593.8,4.0479,3.1672
1605.5,8.5281,4.5167
1617.2,4.012,4.8143
1628.9,0.55483,5.2588
1640.6,2.3484,3.2163
1652.3,1.4805,0.8856
1664.1,2.527,0.24945
1675.8,5.955,3.7335
1687.5,6.3972,3.5751
1699.2,3.4879,6.3765
1710.9,2.922,5.8532
1722.7,1.9506,1.0962
1734.4,3.0479,2.6345
1746.1,5.3128,2.4063
1757.8,4.9541,0.087176
1769.5,2.5107,2.2754
1781.3,2.4557,3.374
1793,3.3694,3.2975
1804.7,2.1063,0.90324
1816.4,2.6794,3.6936
1828.1,1.2661,6.2408
1839.8,2.7168,4.9713
1851.6,1.4444,4.7502
1863.3,1.4896,5.9263
1875,0.41474,4.7393
1886.7,-0.24042,2.7474
1898.4,1.1927,0.59866
1910.2,0.3737,2.8861
1921.9,3.5532,3.2658
1933.6,2.9922,-0.16136
1945.3,6.6553,2.5374
1957,4.1029,2.21
1968.8,5.6201,0.57525
1980.5,4.8653,0.90172
1992.2,0.99563,-1.1058
2003.9,-0.39415,1.7767
2015.6,1.8854,4.1596
2027.3,1.8049,4.4924
2039.1,-0.6879,1.8163
2050.8,0.20523,2.4326
2062.5,1.1244,2.7298
2074.2,5.0491,2.2233
2085.9,4.1378,2.9716
2097.7,2.6451,3.1893
2109.4,3.9358,0.87556
2121.1,3.3167,3.3629
2132.8,0.69106,3.181
2144.5,0.43845,3.0889
2156.3,1.6591,3.2759
2168,3.1104,0.82557
2179.7,1.9328,0.84722
2191.4,1.9502,1.8156
2203.1,1.5866,2.7325
2214.8,1.7876,-0.55634
2226.6,2.3755,0.95983
2238.3,3.0875,4.4359
2250,3.7232,1.4347
2261.7,2.1814,1.6401
2273.4,1.8875,2.2491
2285.2,0.96557,1.1727
2296.9,2.6789,0.68929
2308.6,1.3889,2.939
2320.3,3.1573,-0.22611
2332,3.5308,2.3225
2343.8,3.2509,0.68887
2355.5,1.4753,-0.54049
2367.2,0.055126,2.1737
2378.9,5.8377,4.3077
2390.6,4.5967,3.3427
2402.3,0.63086,2.2252
2414.1,-1.4133,0.64516
2425.8,-0.28166,1.0862
2437.5,-2.1101,-0.40745
2449.2,-3.2332,1.4574
2460.9,-0.80412,0.22159
2472.7,-1.8589,1.3711
2484.4,-2.2684,2.3007
2496.1,-0.044147,1.0651
2507.8,-1.0816,2.5084
2519.5,1.3105,1.3712
2531.3,1.5992,1.3474
2543,2.0652,-0.41542
2554.7,1.252,-0.90064
2566.4,-1.3066,3.0778
2578.1,-1.7769,1.7904
2589.8,0.12771,1.478
2601.6,1.739,-0.98295
2613.3,1.8166,0.090198
2625,-0.21022,0.76866
2636.7,2.9203,4.7299
2648.4,2.7952,3.8248
2660.2,-0.10566,1.3028
2671.9,0.82791,1.2676
2683.6,2.5858,-0.43733
2695.3,2.531,1.1551
2707,-0.6961,1.1079
2718.8,-0.82979,-2.9408
2730.5,-1.4384,-1.8621
2742.2,-1.1042,-1.5422
2753.9,1.5169,-3.487
2765.6,0.77648,-2.6418
2777.3,-1.2743,-0.22654
2789.1,-1.1697,2.0697
2800.8,-0.85651,3.1027
2812.5,-0.12755,1.6974
2824.2,-0.13909,-0.3693
2835.9,-1.7681,0.45933
2847.7,0.77616,3.0006
2859.4,0.52388,3.8404
2871.1,1.0921,-0.24496
2882.8,-1.1576,0.1834
2894.5,-1.3421,0.12021
2906.3,-0.093571,-3.3673
2918,0.40877,-0.4503
2929.7,-0.49666,-1.1831
2941.4,1.6798,-2.3526
2953.1,0.79167,-2.6083
2964.8,-1.0708,-1.3603
2976.6,-0.55317,0.10572
2988.3,-2.6992,-2.3004
3000,-3.0397,-1.3233
3011.7,-1.799,0.78183
3023.4,-0.10974,5.0322
3035.2,-0.5641,4.654
3046.9,-1.7749,0.87069
3058.6,0.60278,-0.39273
3070.3,2.1784,-0.58883
3082,0.84414,0.53699
3093.8,2.2705,0.87549
3105.5,-0.65555,0.8406
3117.2,-3.7679,-0.27741
3128.9,-2.4674,-1.485
3140.6,-1.1182,0.45687
3152.3,-0.18616,1.2306
3164.1,-0.098402,2.6914
3175.8,1.1927,1.8762
3187.5,1.6499,0.50434
3199.2,-0.50953,1.3881
3210.9,-1.0222,-1.5813
3222.7,-1.6672,-3.1239
3234.4,-2.0914,-2.4231
3246.1,-2.0002,-1.4465
3257.8,-1.6004,-0.8917
3269.5,-1.5373,-3.9242
3281.3,-1.4967,-1.9558
3293,-1.2516,1.23
3304.7,-0.43016,1.4391
3316.4,-0.82926,-1.5512
3328.1,2.1004,0.5321
3339.8,1.5755,-0.10143
3351.6,0.4952,-0.36881
3363.3,2.5052,-1.6451
3375,-0.14802,-3.0425
3386.7,-3.6758,-1.1467
3398.4,-2.1819,0.071787
3410.2,-0.95006,-1.0972
3421.9,-1.0844,-2.6707
3433.6,-1.9597,-0.62899
3445.3,-3.0202,-0.050534
3457,0.51739,-1.8936
3468.8,0.19669,0.65618
3480.5,-0.9296,-0.39673
3492.2,-2.1629,-0.096906
3503.9,-3.8503,0.49051
3515.6,-1.5935,-0.63161
3527.3,-4.6496,-3.6818
3539.1,-6.2196,-3.8245
3550.8,-3.4144,-1.7139
3562.5,-1.3503,-1.9121
3574.2,-1.1085,-1.2809
3585.9,-1.5987,1.6278
3597.7,1.5806,2.1364
3609.4,-2.1242,0.89976
3621.1,-4.363,0.097455
3632.8,-2.2025,0.28828
3644.5,1.1777,2.3818
3656.3,-0.58663,-0.75135
3668,0.12411,-4.318
3679.7,0.63673,-1.9015
3691.4,-2.9091,-2.2358
3703.1,-1.4474,-1.2424
3714.8,-1.6583,-1.2136
3726.6,-2.3196,-2.4545
3738.3,-1.2263,-4.6449
3750,0.66527,-4.3742
3761.7,-1.0874,-2.769
3773.4,-3.0255,-2.1325
3785.2,-5.6574,-5.2324
3796.9,-4.3426,-2.5672
3808.6,-3.9201,-1.9973
3820.3,-4.4788,-2.3946
3832,-5.2218,-2.181
3843.8,-3.5803,-0.85771
3855.5,1.5831,-1.0615
3867.2,2.4066,-2.0822
3878.9,-0.13513,-1.2094
3890.6,-0.60182,-1.7184
3902.3,-2.2392,-3.3582
3914.1,-4.2013,-4.5271
3925.8,-6.6536,0.46253
3937.5,-1.6229,-0.21945
3949.2,-0.9746,-3.4124
3960.9,-0.52885,-2.543
3972.7,0.4824,-0.9854
3984.4,-1.9795,-3.4043
3996.1,-2.5056,-1.1798
4007.8,-1.1257,-2.6086
4019.5,0.31871,-0.74028
4031.3,-0.65218,-0.93463
4043,1.2463,-0.33971
4054.7,1.3604,-2.0915
4066.4,-0.67917,-6.3856
4078.1,1.141,-3.8885
4089.8,0.68444,-1.0015
4101.6,-1.1274,1.1614
4113.3,-3.5167,-0.98196
4125,-4.619,-3.141
4136.7,-6.3307,-0.38377
4148.4,-2.9732,-1.1463
4160.2,-0.42551,-3.1993
4171.9,0.38381,-5.8964
4183.6,-4.2987,-2.6409
4195.3,-3.3363,-3.8754
4207,-2.9308,-2.9055
4218.8,-0.23064,-1.9285
4230.5,-0.37821,0.28298
4242.2,-3.0474,-1.8136
4253.9,-2.1295,-3.0225
4265.6,-2.3008,-2.1517
4277.3,-2.0664,0.76855
4289.1,-4.6143,-2.2907
4300.8,-0.91778,-0.69552
4312.5,-4.5701,-0.48945
4324.2,-3.5168,-2.4368
4335.9,-1.9525,-2.4339
4347.7,-4.1234,-0.83123
4359.4,-4.0599,0.2486
4371.1,-3.6811,-2.8113
4382.8,-4.5436,-1.6299
4394.5,-5.0853,0.47353
4406.3,-4.9357,-0.29647
4418,-2.1402,-0.90224
4429.7,-0.72221,-4.6623
4441.4,-1.7404,-6.9108
4453.1,-3.4976,-3.4576
4464.8,-5.958,-2.8194
4476.6,-5.5101,-1.3985
4488.3,-3.2421,-2.6931
4500,-2.751,-5.1247
4511.7,-3.4918,-3.792
4523.4,-2.3651,0.49686
4535.2,-0.0055612,-0.39783
4546.9,-1.3304,-3.5254
4558.6,-3.4524,-0.36521
4570.3,-3.6448,-0.15338
4582,-1.8265,-0.68061
4593.8,-2.792,-2.3542
4605.5,-4.3091,-3.0144
4617.2,-2.8221,-2.7177
4628.9,-2.7874,-1.823
4640.6,-3.4941,-2.5924
4652.3,-4.3295,-2.8663
4664.1,-1.1469,-2.1949
4675.8,-0.13684,-2.1759
4687.5,-0.27813,-3.1197
4699.2,-2.0132,-5.0973
4710.9,-3.8675,-6.0613
4722.7,-4.655,-2.2969
4734.4,-3.6541,-2.8573
4746.1,-5.7126,-2.592
4757.8,-3.2972,-2.7891
4769.5,-3.3163,-0.16854
4781.3,-3.3226,-2.8464
4793,-6.0021,-2.5631
4804.7,-8.8627,-0.7333
4816.4,-3.9936,-1.1465
4828.1,-2.1944,0.80854
4839.8,-4.7928,-1.1453
4851.6,-2.1002,-3.0057
4863.3,-3.7622,-2.9929
4875,-5.1152,-4.0819
4886.7,-8.8892,-5.0273
4898.4,-6.8139,-2.486
4910.2,-4.3223,-1.2957
4921.9,-6.3214,-2.4877
4933.6,-4.5781,-4.0425
4945.3,-2.8465,-5.0273
4957,-5.6423,-5.5107
4968.8,-6.6861,-4.5969
4980.5,-5.0055,-1.6211
4992.2,-3.6396,-0.18568
5003.9,-2.9174,-0.27998
5015.6,-1.3742,-3.0429
5027.3,-1.9728,-1.707
5039.1,-5.1449,-2.7142
5050.8,-4.0756,-0.91643
5062.5,-7.3077,0.40866
5074.2,-7.2199,-2.0907
5085.9,-4.5479,-5.501
5097.7,-4.2708,-5.2628
5109.4,-3.9345,-3.9152
5121.1,-3.7729,-3.954
5132.8,-1.8149,-2.884
5144.5,-4.7341,-3.2786
5156.3,-7.2569,-2.5882
5168,-4.4961,-3.3679
5179.7,-2.9906,-3.9547
5191.4,-5.3627,-2.5019
5203.1,-6.1322,-1.38
5214.8,-5.1505,-3.0201
5226.6,-5.1263,-3.5636
5238.3,-3.4914,-2.6579
5250,-2.7011,-4.2877
5261.7,-4.1266,-5.83
5273.4,-5.3593,-6.2524
5285.2,-4.7205,-3.1942
5296.9,-4.3625,-1.8922
5308.6,-2.4699,-4.319
5320.3,-2.9235,-1.825
5332,-2.9383,-2.3074
5343.8,-2.2822,-5.3073
5355.5,-5.8236,-3.7264
5367.2,-5.4502,-2.6269
5378.9,-2.924,-2.3403
5390.6,-2.9648,-2.544
5402.3,-3.2327,-4.4843
5414.1,-5.7174,-2.9615
5425.8,-9.0821,-0.25356
5437.5,-4.3901,-1.0639
5449.2,-1.5215,-3.9795
5460.9,-3.3279,-1.9447
5472.7,-3.5263,-0.43061
5484.4,-3.4143,-4.2173
5496.1,-5.7008,-3.6438
5507.8,-4.1181,-1.2251
5519.5,-1.5245,-2.6908
5531.3,0.11905,-2.0473
5543,-3.2563,-3.4269
5554.7,-5.4585,-0.278
5566.4,-6.8471,0.60966
5578.1,-6.2786,-2.251
5589.8,-6.3941,-3.3066
5601.6,-7.2763,1.3803
5613.3,-7.8588,1.4752
5625,-5.9075,-0.30592
5636.7,-3.9718,0.18825
5648.4,-4.3327,-1.3436
5660.2,-4.3108,0.14008
5671.9,-0.99216,-0.92051
5683.6,-3.0997,0.94257
5695.3,-3.7584,-0.53092
5707,-3.6184,0.52258
5718.8,-6.7103,-0.62079
5730.5,-3.3943,-2.5592
5742.2,-2.7852,-2.5208
5753.9,-0.6394,-0.06691
5765.6,-2.0551,-1.5418
5777.3,-2.3611,-2.9091
5789.1,-4.5552,-0.7203
5800.8,-3.1639,-2.1366
5812.5,-3.1168,-3.6939
5824.2,-5.8235,-3.2207
5835.9,-3.5094,-0.95358
5847.7,-1.1046,0.98295
5859.4,-1.6469,-0.89053
5871.1,-5.2773,-3.4747
5882.8,-2.2247,-0.093587
5894.5,-1.8134,-2.7447
5906.3,-2.4856,-5.4009
5918,-2.2223,-4.2222
5929.7,-3.4175,-3.6262
5941.4,-0.83077,-4.5543
5953.1,-2.0108,-4.1652
5964.8,-4.7379,-4.6236
5976.6,-2.1816,-5.0622
5988.3,-3.5165,-2.4482
6000,-3.0823,-0.30838
6011.7,-2.2258,-0.36103
6023.4,-3.4681,-0.70416
6035.2,-6.2427,-0.31819
6046.9,-6.0713,-2.7487
6058.6,-5.508,-2.1821
6070.3,-3.4361,-4.236
6082,-3.6479,-3.9937
6093.8,-0.18726,-1.3481
6105.5,-0.20128,-1.9769
6117.2,-0.54643,-4.3492
6128.9,-2.2916,-3.8016
6140.6,-3.036,-3.8837
6152.3,-2.6203,-2.5572
6164.1,-5.5387,-0.43171
6175.8,-2.2084,0.2277
6187.5,-3.0261,-3.1849
6199.2,-3.195,-4.35
6210.9,-2.9219,-4.6061
6222.7,-5.3087,-5.4392
6234.4,-5.5568,-6.8751
6246.1,-3.6727,-7.0157
6257.8,-5.161,-7.5729
6269.5,-3.7262,-6.9836
6281.3,-4.5093,-3.4938
6293,-4.3523,-1.0481
6304.7,-4.7395,-0.17288
6316.4,-4.4366,-1.8054
6328.1,-4.9091,-3.7335
6339.8,-5.9033,-3.7442
6351.6,-4.7514,-3.9207
6363.3,-2.7556,-0.42866
6375,-2.4926,-1.5186
6386.7,-6.8182,-2.3719
6398.4,-4.207,-3.687
6410.2,-4.6011,-1.0937
6421.9,-7.2147,-1.4675
6433.6,-7.5812,-1.5402
6445.3,-5.6607,-1.1166
6457,-5.7,-2.7994
6468.8,-4.3129,-5.6783
6480.5,-3.0506,-3.7349
6492.2,-5.9796,-1.7794
6503.9,-5.4722,-2.9805
6515.6,-5.0604,-6.3893
6527.3,-5.3631,-7.3793
6539.1,-4.5819,-7.1574
6550.8,-3.7926,-4.7347
6562.5,-4.1495,-6.5455
6574.2,-3.9031,-2.6201
6585.9,-2.233,-2.0588
6597.7,-3.1959,-4.2834
6609.4,-4.9971,-7.1608
6621.1,-7.8691,-8.6613
6632.8,-6.455,-3.2678
6644.5,-4.0385,-0.095923
6656.3,-5.937,-1.8597
6668,-5.24,-2.2306
6679.7,-4.8813,-3.2306
6691.4,-10.189,-3.3555
6703.1,-5.4477,-5.6019
6714.8,-4.5587,-7.1478
6726.6,-5.0345,-6.0686
6738.3,-2.4921,-7.854
6750,-2.6143,-7.4125
6761.7,-5.8408,-6.2849
6773.4,-6.5659,-4.2632
6785.2,-7.7282,-4.6056
6796.9,-4.9573,-5.699
6808.6,-3.9714,-4.3196
6820.3,-2.7753,-4.8941
6832,-6.176,-8.86
6843.8,-8.3367,-8.23
6855.5,-7.8612,-7.6916
6867.2,-5.6359,-9.5946
6878.9,-3.5773,-7.838
6890.6,-4.011,-5.661
6902.3,-3.0458,-6.8664
6914.1,-7.9308,-9.1443
6925.8,-7.5402,-6.0594
6937.5,-4.2417,-5.3034
6949.2,-4.9449,-7.8715
6960.9,-5.6248,-5.3861
6972.7,-5.793,-6.0251
6984.4,-6.4565,-6.3471
6996.1,-6.6812,-4.6215
7007.8,-6.6388,-5.7675
7019.5,-8.0322,-7.8004
7031.3,-6.8158,-9.3261
7043,-6.616,-6.7292
7054.7,-6.4883,-4.6753
7066.4,-5.8696,-5.9922
7078.1,-6.1888,-7.2414
7089.8,-3.9688,-6.0555
7101.6,-5.3972,-4.2431
7113.3,-7.6681,-3.7229
7125,-10.843,-9.4361
7136.7,-8.146,-7.0595
7148.4,-6.0014,-6.3141
7160.2,-4.2117,-7.9583
7171.9,-4.6147,-6.8756
7183.6,-7.4122,-6.0649
7195.3,-9.1795,-7.4747
7207,-7.0737,-7.0104
7218.8,-5.0816,-6.9894
7230.5,-4.825,-3.7087
7242.2,-6.1711,-2.5107
7253.9,-8.7788,-6.2108
7265.6,-7.7918,-7.9761
7277.3,-6.2726,-4.396
7289.1,-8.8156,-6.1814
7300.8,-9.3305,-8.4454
7312.5,-8.7852,-8.2196
7324.2,-6.5539,-4.4345
7335.9,-6.8581,-6.6624
7347.7,-8.4196,-8.754
7359.4,-3.8873,-6.7831
7371.1,-7.1384,-6.7749
7382.8,-11.379,-5.6119
7394.5,-9.8283,-4.8003
7406.3,-7.9466,-7.4427
7418,-8.2569,-8.4681
7429.7,-8.0395,-5.9767
7441.4,-5.1738,-7.9798
7453.1,-3.219,-12.572
7464.8,-1.7521,-12.014
7476.6,-3.8152,-10.034
7488.3,-0.94637,-7.4261
7500,3.5107,-4.7674
7511.7,22.925,-2.7826
7523.4,28.894,-3.6165
7535.2,23.172,-6.4417
7546.9,3.8905,-6.3051
7558.6,-1.6206,-6.2093
7570.3,-6.3717,-4.8047
7582,-9.2443,-5.903
7593.8,-8.5602,-6.1433
7605.5,-7.2398,-5.1665
7617.2,-10.957,-6.4739
7628.9,-7.9581,-10.526
7640.6,-7.7957,-6.48
7652.3,-10.245,-5.4697
7664.1,-9.7493,-8.3727
7675.8,-8.6754,-10.299
7687.5,-8.3915,-7.3846
7699.2,-9.8133,-6.3537
7710.9,-11.387,-7.4474
7722.7,-8.5177,-8.3295
7734.4,-7.223,-9.7101
7746.1,-8.4965,-9.3271
7757.8,-6.2302,-8.8435
7769.5,-9.2036,-11.765
7781.3,-4.8987,-6.9983
7793,-4.9302,-6.8884
7804.7,-7.2699,-8.356
7816.4,-10.623,-9.9067
7828.1,-7.2,-9.7595
7839.8,-8.6692,-10.305
7851.6,-11.865,-10.756
7863.3,-9.7576,-8.9109
7875,-10.964,-6.8147
7886.7,-9.5317,-5.7591
7898.4,-7.7876,-4.5963
7910.2,-8.4312,-5.5986
7921.9,-11.997,-6.8957
7933.6,-9.8658,-12.105
7945.3,-7.1515,-11.119
7957,-7.1155,-8.36
7968.8,-9.7234,-6.994
7980.5,-10.76,-8.5612
7992.2,-10.666,-8.0143
8003.9,-9.5367,-6.7417
8015.6,-7.4925,-9.4483
8027.3,-9.2911,-9.8213
8039.1,-8.1062,-7.9741
8050.8,-9.2491,-7.8809
8062.5,-10.073,-8.4878
8074.2,-7.4041,-7.9272
8085.9,-7.9861,-9.2296
8097.7,-9.2726,-9.1434
8109.4,-6.6181,-9.8992
8121.1,-7.0919,-9.8415
8132.8,-6.3386,-8.7974
8144.5,-8.7802,-9.2272
8156.3,-5.5985,-8.5892
8168,-7.3993,-8.1175
8179.7,-7.2078,-8.3781
8191.4,-9.3598,-8.1063
8203.1,-6.9756,-7.4505
8214.8,-8.3947,-8.986
8226.6,-10.148,-5.7148
8238.3,-8.9163,-5.5809
8250,-9.0616,-9.087
8261.7,-9.8176,-8.3221
8273.4,-8.4342,-9.0891
8285.2,-7.9961,-8.3821
8296.9,-7.2514,-8.2798
8308.6,-6.3492,-6.591
8320.3,-6.5152,-8.0711
8332,-6.3031,-10.289
8343.8,-7.3832,-7.5581
8355.5,-9.9262,-10.089
8367.2,-10.915,-10.786
8378.9,-10.628,-6.293
8390.6,-11.387,-7.0204
8402.3,-8.6037,-10.297
8414.1,-6.3112,-10.255
8425.8,-6.9541,-10.039
8437.5,-9.0366,-9.2372
8449.2,-7.539,-8.9905
8460.9,-6.1572,-10.58
8472.7,-7.8511,-11.069
8484.4,-12.84,-7.2156
8496.1,-9.6913,-6.8037
8507.8,-6.125,-9.4368
8519.5,-5.5057,-8.5922
8531.3,-7.3342,-6.7749
8543,-11.309,-7.7046
8554.7,-10.318,-8.5274
8566.4,-9.7886,-9.0981
8578.1,-8.4114,-8.2378
8589.8,-9.9212,-8.3766
8601.6,-9.4139,-9.0431
8613.3,-8.5775,-9.745
8625,-9.3012,-10.745
8636.7,-9.793,-11.785
8648.4,-8.9527,-12.274
8660.2,-9.2826,-10.624
8671.9,-10.063,-10.686
8683.6,-6.2731,-7.7193
8695.3,-9.2766,-6.6033
8707,-8.0764,-8.8938
8718.8,-7.8608,-8.5121
8730.5,-10.038,-9.2059
8742.2,-9.5848,-7.5652
8753.9,-8.5349,-8.3912
8765.6,-9.9714,-8.9556
8777.3,-12.987,-9.0929
8789.1,-11.128,-7.5812
8800.8,-10.996,-8.6481
8812.5,-10.104,-10.92
8824.2,-8.7387,-7.0991
8835.9,-7.1099,-7.5561
8847.7,-10.867,-7.7739
8859.4,-10.206,-7.942
8871.1,-9.0143,-10.835
8882.8,-7.1483,-12.009
8894.5,-9.1555,-9.5283
8906.3,-8.3536,-8.6682
8918,-6.0019,-7.8705
8929.7,-6.6997,-9.4482
8941.4,-9.0086,-9.4876
8953.1,-9.4687,-9.6097
8964.8,-8.6745,-10.325
8976.6,-9.4937,-11.963
8988.3,-12.531,-11.665
9000,-13.726,-13.185
9011.7,-15.143,-13.606
9023.4,-11.843,-11.831
9035.2,-9.7824,-10.674
9046.9,-10.466,-9.5669
9058.6,-11.418,-11.08
9070.3,-10.866,-10.603
9082,-11.167,-9.4389
9093.8,-10.174,-13.28
9105.5,-9.8157,-10.135
9117.2,-8.8697,-9.7498
9128.9,-9.1674,-9.0167
9140.6,-9.4237,-10.395
9152.3,-5.4402,-8.6287
9164.1,-6.383,-7.7561
9175.8,-9.0867,-8.6136
9187.5,-9.4419,-9.7463
9199.2,-10.846,-9.2386
9210.9,-9.1079,-9.372
9222.7,-10.444,-11.456
9234.4,-9.8246,-11.644
9246.1,-9.6361,-12.78
9257.8,-8.8156,-9.3729
9269.5,-9.0504,-6.7753
9281.3,-9.759,-8.014
9293,-10.159,-10.478
9304.7,-10.011,-10.788
9316.4,-7.921,-11.134
9328.1,-8.1474,-10.634
9339.8,-8.3057,-6.7515
9351.6,-6.9114,-5.4185
9363.3,-7.8751,-9.2938
9375,-8.1414,-8.8352
9386.7,-8.6211,-8.464
9398.4,-7.8885,-8.4636
9410.2,-9.3513,-9.3628
9421.9,-9.0855,-8.1223
9433.6,-11.885,-9.3383
9445.3,-10.28,-6.6294
9457,-11.725,-6.9559
9468.8,-11.879,-9.9727
9480.5,-9.6641,-7.903
9492.2,-10.024,-9.9001
9503.9,-11.658,-11.556
9515.6,-10.594,-12.001
9527.3,-8.0053,-8.9368
9539.1,-9.2041,-11.5
9550.8,-9.5464,-11.618
9562.5,-11.542,-8.2062
9574.2,-12.146,-10.145
9585.9,-12.365,-10.888
9597.7,-10.899,-8.0056
9609.4,-11.794,-7.3464
9621.1,-13.048,-10.872
9632.8,-11.364,-13.254
9644.5,-9.6584,-8.5849
9656.3,-9.1104,-9.6911
9668,-13.135,-9.1264
9679.7,-9.5167,-8.5744
9691.4,-8.2896,-10.077
9703.1,-9.0842,-11.85
9714.8,-7.7014,-9.4573
9726.6,-7.3571,-10.956
9738.3,-8.4981,-10.254
9750,-9.0951,-11.675
9761.7,-10.583,-9.4143
9773.4,-9.3096,-9.0757
9785.2,-8.502,-9.9367
9796.9,-8.3829,-10.83
9808.6,-8.5157,-11.39
9820.3,-10.473,-10.9
9832,-10.515,-10.038
9843.8,-9.4518,-10.516
9855.5,-8.8164,-12.028
9867.2,-7.1624,-11.857
9878.9,-7.6414,-12.647
9890.6,-6.5656,-11.122
9902.3,-7.4276,-9.9568
9914.1,-11.746,-12.514
9925.8,-11.022,-13.628
9937.5,-10.422,-12.812
9949.2,-12.918,-11.373
9960.9,-12.982,-10.845
9972.7,-13.626,-9.5615
9984.4,-10.829,-7.3399
9996.1,-12.519,-9.9909
10008,-12.52,-10.662
10020,-13.105,-9.7059
10031,-11.174,-7.5299
10043,-11.097,-12.871
10055,-10.979,-12.145
10066,-8.9601,-8.2451
10078,-9.9387,-9.4203
10090,-13.045,-11.213
10102,-11.025,-12.165
10113,-10.648,-9.7407
10125,-12.612,-11.598
10137,-11.476,-9.4709
10148,-9.3569,-10.379
10160,-9.7713,-14.04
10172,-11.184,-14.289
10184,-11.461,-12.886
10195,-15.683,-12.379
10207,-14.671,-11.401
10219,-12.543,-12.78
10230,-12.817,-8.8729
10242,-13.746,-10.464
10254,-11.728,-11.165
10266,-11.974,-11.123
10277,-11.246,-11.517
10289,-10.04,-10.423
10301,-9.8177,-10.505
10313,-8.9484,-11.568
10324,-9.4199,-11.914
10336,-10.05,-12.111
10348,-11.082,-13.019
10359,-9.0536,-11.135
10371,-7.0941,-12.546
10383,-7.849,-12.338
10395,-13.642,-10.853
10406,-12.809,-10.715
10418,-13.688,-13.282
10430,-12.885,-12.116
10441,-12.172,-9.6244
10453,-12.58,-9.8153
10465,-15.918,-8.3754
10477,-14.99,-11.649
10488,-10.442,-9.9351
10500,-11.653,-10.255
10512,-12.154,-10.093
10523,-10.477,-9.8928
10535,-12.27,-10.177
10547,-11.497,-12.114
10559,-9.4185,-13.781
10570,-11.899,-12.769
10582,-6.728,-12.745
10594,-10.391,-13.461
10605,-13.162,-10.838
10617,-11.493,-10.893
10629,-11.727,-14.108
10641,-11.106,-13.985
10652,-12.511,-13.53
10664,-9.7197,-12.901
10676,-10.152,-13.438
10688,-11.607,-9.4711
10699,-11.354,-9.7684
10711,-10.922,-13.126
10723,-12.432,-14.644
10734,-12.631,-13.606
10746,-12.76,-13.843
10758,-11.854,-11.207
10770,-9.7531,-11.12
10781,-10.914,-10.399
10793,-9.9671,-12.157
10805,-11.702,-11.576
10816,-12.778,-11.996
10828,-10.559,-14.404
10840,-10.704,-15.311
10852,-12.092,-14.692
10863,-13.126,-14.026
10875,-12.593,-11.012
10887,-10.779,-11.219
10898,-12.021,-12.404
10910,-14.361,-10.729
10922,-11.966,-9.9034
10934,-10.627,-12.319
10945,-11.046,-11.064
10957,-9.0407,-10.286
10969,-11.118,-12.504
10980,-11.506,-13.202
10992,-10.702,-11.905
11004,-8.2491,-11.689
11016,-10.109,-12.982
11027,-10.828,-15.416
11039,-9.4964,-10.901
11051,-10.417,-10.169
11063,-11.427,-12.65
11074,-13.603,-10.865
11086,-14.519,-12.453
11098,-12.296,-12.458
11109,-9.5972,-10.783
11121,-10.207,-9.6033
11133,-11.585,-11.202
11145,-7.8286,-12.984
11156,-10.053,-12.427
11168,-12.068,-12.04
11180,-11.723,-12.386
11191,-10.853,-11.96
11203,-9.6572,-11.394
11215,-11.849,-11.572
11227,-8.4894,-13.918
11238,-7.5167,-13.224
11250,-8.7108,-12.915
11262,-9.5337,-12.192
11273,-9.9225,-13.683
11285,-9.1522,-14.361
11297,-10.163,-13.45
11309,-13.242,-13.95
11320,-12.024,-14.585
11332,-10.464,-12.319
11344,-11.395,-12.887
11355,-13.299,-14.323
11367,-12.542,-14.716
11379,-9.0336,-15.103
11391,-8.5713,-13.746
11402,-9.2085,-12.171
11414,-6.7483,-13.838
11426,-8.3909,-15.412
11438,-11.32,-11.575
11449,-11.395,-11.089
11461,-8.0811,-16.031
11473,-12.464,-12.792
11484,-10.604,-17.527
11496,-8.9175,-14.736
11508,-10.833,-14.524
11520,-11.057,-13.976
11531,-9.2087,-15.44
11543,-6.1058,-13.959
11555,-6.8203,-15.208
11566,-12.322,-14.782
11578,-15.023,-16.167
11590,-12.151,-15.511
11602,-10.842,-13.949
11613,-10.354,-14.555
11625,-8.8484,-14.853
11637,-8.6135,-15.255
11648,-7.1836,-14.322
11660,-8.49,-13.854
11672,-8.7646,-15.98
11684,-8.938,-18.607
11695,-9.2695,-15.125
11707,-7.7594,-15.091
11719,-7.1979,-13.426
11730,-7.665,-13.625
11742,-9.4928,-14.063
11754,-12.34,-13.415
11766,-11.778,-11.857
11777,-11.754,-12.726
11789,-11.355,-13.357
11801,-10.257,-11.559
11813,-9.1785,-15.144
11824,-11.011,-15.103
11836,-11.164,-13.285
11848,-7.2803,-13.423
11859,-8.2663,-12.115
11871,-12.064,-12.36
11883,-11.688,-15.112
11895,-11.668,-15.78
11906,-12.285,-13.545
11918,-10.447,-13.73
11930,-8.7586,-15.651
11941,-9.252,-13.222
11953,-10.124,-14.503
11965,-9.335,-15.153
11977,-10.409,-13.146
11988,-12.306,-13.924
12000,-12.69,-13.789
12012,-9.4616,-10.016
12023,-7.7271,-10.662
12035,-9.4821,-13.571
12047,-11.037,-13.163
12059,-11.196,-11.014
12070,-13.115,-13.632
12082,-10.024,-11.781
12094,-11.016,-12.493
12105,-12.086,-12.927
12117,-12.156,-12.049
12129,-9.4909,-13.809
12141,-9.1249,-13.106
12152,-11.28,-15.682
12164,-9.6576,-14.589
12176,-10.613,-9.7769
12188,-11.856,-10.336
12199,-11.396,-12.653
12211,-9.3783,-11.186
12223,-8.4754,-12.464
12234,-9.8673,-16.093
12246,-10.585,-16.725
12258,-8.5306,-14.856
12270,-9.945,-12.448
12281,-11.098,-11.444
12293,-13.43,-11.342
12305,-12.728,-10.294
12316,-14.155,-11.636
12328,-9.7291,-16.677
12340,-8.0751,-11.933
12352,-7.9594,-11.518
12363,-11.436,-14.46
12375,-13.92,-14.74
12387,-9.2402,-13.022
12398,-9.6005,-15.984
12410,-13.828,-11.162
12422,-12.559,-10.161
12434,-11.675,-10.879
12445,-10.969,-13.797
12457,-10.432,-14.751
12469,-9.782,-13.511
12480,-10.469,-15.221
12492,-11.439,-14.501
12504,-11.188,-15.052
12516,-11.34,-13.943
12527,-11.436,-11.963
12539,-12.468,-14.949
12551,-13.43,-20.041
12563,-14.777,-14.316
12574,-10.85,-13.586
12586,-9.6655,-13.053
12598,-11.07,-15.303
12609,-11.507,-16.85
12621,-10.825,-16.55
12633,-10.625,-15.256
12645,-12.155,-10.875
12656,-13.162,-12.169
12668,-12.976,-13.384
12680,-10.081,-14.229
12691,-11.324,-14.813
12703,-11.698,-14.255
12715,-13.447,-14.431
12727,-11.482,-12.012
12738,-8.7608,-13.378
12750,-9.4067,-13.064
12762,-10.369,-15.889
12773,-9.5472,-15.958
12785,-9.4505,-14.535
12797,-10.558,-14.801
12809,-12.342,-15.07
12820,-12.116,-12.197
12832,-11.267,-12.58
12844,-11.911,-13.298
12855,-10.899,-14.645
12867,-8.5816,-16.275
12879,-10.081,-13.829
12891,-12.529,-11.45
12902,-10.639,-15.95
12914,-7.8011,-16.29
12926,-9.1424,-15.075
12938,-10.863,-10.892
12949,-9.116,-13.142
12961,-9.2624,-16.957
12973,-9.3529,-14.377
12984,-10.664,-11.885
12996,-11.264,-10.3
13008,-10.426,-12.527
13020,-11.115,-16.088
13031,-12.192,-14.475
13043,-12.914,-14.563
13055,-11.524,-15.494
13066,-12.468,-16.822
13078,-12.595,-15.58
13090,-10.84,-12.818
13102,-10.808,-8.941
13113,-11.171,-9.1731
13125,-13.588,-12.35
13137,-13.048,-14.285
13148,-12.383,-14.243
13160,-11.369,-16.432
13172,-11.426,-16.015
13184,-10.121,-13.503
13195,-11.924,-13.612
13207,-10.294,-12.642
13219,-9.1919,-14.528
13230,-11.722,-15.97
13242,-10.709,-15.103
13254,-12.085,-14.45
13266,-13.122,-15.53
13277,-12.388,-17.809
13289,-13.733,-14.115
13301,-9.3277,-12.182
13313,-9.473,-14.945
13324,-10.213,-16.066
13336,-11.333,-13.817
13348,-12.995,-12.627
13359,-9.8744,-16.075
13371,-11.521,-16.784
13383,-12.066,-15.997
13395,-12.348,-16.018
13406,-12.057,-15.751
13418,-12.853,-15.42
13430,-15.041,-15.781
13441,-12.87,-13.141
13453,-10.446,-15.43
13465,-12.682,-16.942
13477,-12.223,-13.753
13488,-14.053,-14.112
13500,-16.973,-13.932
13512,-15.048,-14.135
13523,-13.702,-13.983
13535,-14.499,-10.984
13547,-13.485,-11.042
13559,-13.052,-13.897
13570,-10.306,-16.456
13582,-8.6374,-17.557
13594,-12.579,-15.15
13605,-13.557,-15.407
13617,-11.296,-15.028
13629,-12.174,-15.029
13641,-14.005,-16.347
13652,-15.4,-13.93
13664,-13.996,-11.897
13676,-13.98,-12.53
13688,-15.635,-13.501
13699,-15.621,-16.165
13711,-14.29,-11.128
13723,-15.663,-13.142
13734,-15.069,-13.97
13746,-12.756,-15.729
13758,-15.113,-17.388
13770,-16.381,-17.783
13781,-11.698,-15.894
13793,-10.712,-14.853
13805,-11.785,-13.48
13816,-13.611,-17.529
13828,-14.307,-18.079
13840,-13.378,-13.883
13852,-16.643,-14.63
13863,-14.398,-18.061
13875,-13.602,-15.507
13887,-13.843,-17.708
13898,-12.991,-14.777
13910,-14.335,-15.793
13922,-14.893,-14.627
13934,-13.712,-14.897
13945,-13.482,-16.085
13957,-12.707,-15.952
13969,-12.285,-16.65
13980,-11.706,-16.933
13992,-12.02,-17.395
14004,-13.815,-18.103
14016,-12.652,-14.069
14027,-14.775,-11.723
14039,-14.292,-11.475
14051,-14.745,-12.703
14063,-13.406,-14.856
14074,-15.9,-14.331
14086,-13.647,-12.637
14098,-11.54,-11.094
14109,-11.669,-13.482
14121,-12.823,-17.925
14133,-13.072,-17.753
14145,-14.438,-15.483
14156,-14.687,-13.779
14168,-14.087,-12.789
14180,-13.801,-12.306
14191,-11.627,-16.808
14203,-12.299,-19.798
14215,-13.476,-17.825
14227,-13.315,-17.01
14238,-14.57,-11.515
14250,-12.768,-13.75
14262,-13.791,-16.113
14273,-13.277,-16.01
14285,-11.619,-15.979
14297,-12.461,-15.774
14309,-15.044,-14.634
14320,-12.692,-14.662
14332,-11.43,-14.329
14344,-13.65,-15.523
14355,-17.704,-14.268
14367,-16.318,-15.323
14379,-15.982,-15.641
14391,-16.283,-15.057
14402,-14.235,-14.015
14414,-16.674,-12.965
14426,-14.69,-15.843
14438,-13.442,-18.251
14449,-12.369,-14.47
14461,-11.114,-15.6
14473,-13.281,-20.249
14484,-17.196,-18.895
14496,-14.96,-19.217
14508,-12.524,-18.018
14520,-17.442,-18.042
14531,-12.616,-17.643
14543,-14.606,-16.104
14555,-16.458,-14.165
14566,-15.927,-16.282
14578,-13.099,-14.797
14590,-12.626,-16.986
14602,-16.924,-16.846
14613,-13.89,-16.265
14625,-14.712,-12.639
14637,-13.926,-12.774
14648,-12.48,-13.335
14660,-16.881,-16.406
14672,-11.247,-15.801
14684,-11.714,-15.48
14695,-15.407,-17.369
14707,-15.911,-17.639
14719,-13.322,-16.74
14730,-12.564,-14.499
14742,-13.442,-16.088
14754,-13.427,-13.584
14766,-13.681,-13.703
14777,-15.804,-15.993
14789,-16.007,-17.113
14801,-15.011,-17.766
14813,-13.293,-15.614
14824,-13.693,-15.598
14836,-15.114,-14.604
14848,-15.277,-12.186
14859,-11.679,-12.599
14871,-13.434,-11.512
14883,-14.755,-14.638
14895,-13.997,-16.374
14906,-13.187,-15.579
14918,-12.219,-14.398
14930,-12.9,-16.477
14941,-13.048,-16.648
14953,-13.457,-16.355
14965,-14.354,-16.599
14977,-15.139,-13.679
14988,-18.109,-14.011
15000,-15.093,-19.001
15012,-13.643,-17.325
15023,-14.297,-17.284
15035,-8.9133,-16.228
15047,-2.881,-12.541
15059,-7.3434,-16.59
15070,-14.975,-19.728
15082,-16.027,-16.437
15094,-14.786,-16.562
15105,-12.784,-18.616
15117,-13.972,-16.929
15129,-17.697,-13.175
15141,-17.177,-11.298
15152,-18.267,-12.24
15164,-17.899,-14.807
15176,-16.327,-16.756
15188,-13.871,-16.823
15199,-11.924,-16.788
15211,-12.072,-16.894
15223,-12.013,-16.853
15234,-11.813,-15.003
15246,-13.516,-16.32
15258,-15.691,-16.523
15270,-18.026,-19.605
15281,-18.71,-17.3
15293,-15.567,-17.589
15305,-16.48,-15.841
15316,-17.126,-16.023
15328,-15.058,-18.804
15340,-14.004,-16.393
15352,-15.279,-20.33
15363,-18.859,-18.02
15375,-20.728,-17.476
15387,-17.668,-21.29
15398,-16.186,-19.535
15410,-16.989,-19.258
15422,-17.031,-19.149
15434,-14.127,-17.684
15445,-14.25,-18.133
15457,-13.736,-19.108
15469,-13.526,-17.618
15480,-17.678,-17.527
15492,-19.399,-16.665
15504,-15.805,-13.538
15516,-16.249,-14.023
15527,-16.31,-17.261
15539,-16.32,-18.409
15551,-19.2,-19.768
15563,-18.226,-20.253
15574,-17.339,-20.903
15586,-15.362,-17.799
15598,-13.746,-16.896
15609,-14.925,-15.599
15621,-15.135,-14.91
15633,-14.968,-17.724
15645,-18.15,-20.81
15656,-20.482,-21.038
15668,-17.007,-18.715
15680,-15.86,-14.237
15691,-17.721,-15.406
15703,-16.327,-18.555
15715,-15.439,-19.246
15727,-13.522,-17.834
15738,-15.247,-19.216
15750,-15.989,-19.015
15762,-17.313,-20.02
15773,-17.672,-21.011
15785,-17.582,-17.822
15797,-15.416,-17.461
15809,-12.61,-19.38
15820,-14.203,-18.852
15832,-17.245,-17.971
15844,-20.51,-19.42
15855,-17.721,-18.659
15867,-15.897,-17.171
15879,-14.056,-15.687
15891,-16.063,-19.823
15902,-17.113,-18.684
15914,-15.291,-21.297
15926,-16.528,-18.292
15938,-17.351,-16.622
15949,-16.077,-16.614
15961,-17.719,-13.392
15973,-20.123,-15.389
15984,-19.199,-17.399
15996,-15.873,-17.489
16008,-12.918,-19.273
16020,-12.713,-19.171
16031,-15.426,-19.716
16043,-16.482,-16.675
16055,-16.508,-17.87
16066,-15.295,-17.833
16078,-15.524,-17.349
16090,-17.205,-19.533
16102,-15.644,-19.061
16113,-18.87,-20.718
16125,-19.542,-21.108
16137,-20.007,-20.23
16148,-17.122,-16.792
16160,-16.574,-21.49
16172,-17.064,-18.861
16184,-17.69,-18.764
16195,-15.629,-18.741
16207,-14.486,-17.868
16219,-17.498,-17.131
16230,-18.018,-15.721
16242,-17.546,-16.652
16254,-20.209,-19.175
16266,-18.336,-20.027
16277,-17.011,-15.672
16289,-15.139,-19.064
16301,-12.89,-24.277
16313,-14.088,-20.035
16324,-13.42,-17.892
16336,-14.961,-19.474
16348,-19.038,-22.035
16359,-15.333,-19.714
16371,-15.045,-21.159
16383,-17.239,-15.365
16395,-17.031,-14.776
16406,-16.627,-18.928
16418,-15.915,-17.345
16430,-17.958,-17.629
16441,-16.927,-19.757
16453,-16.588,-22.183
16465,-19.354,-21.695
16477,-19.729,-22.033
16488,-18.461,-21.426
16500,-15.07,-21.574
16512,-16.346,-23.574
16523,-17.615,-21.266
16535,-14.774,-20.672
16547,-17.69,-19.821
16559,-18.285,-19.733
16570,-16.79,-20.276
16582,-19.01,-19.806
16594,-19.08,-17.446
16605,-19.76,-18.037
16617,-21.126,-21.076
16629,-18.13,-19.475
16641,-18.488,-18.581
16652,-16.762,-16.561
16664,-19.472,-16.855
16676,-17.752,-19.122
16688,-17.724,-20.15
16699,-19.896,-20.692
16711,-19.372,-18.977
16723,-17.634,-18.048
16734,-16.808,-19.601
16746,-17.243,-18.792
16758,-19.143,-18.18
16770,-18.022,-18.523
16781,-17.912,-17.883
16793,-17.533,-17.908
16805,-18.122,-19.691
16816,-18.483,-18.055
16828,-17.582,-21.02
16840,-15.571,-19.693
16852,-16.031,-20.02
16863,-16.595,-21.243
16875,-17.036,-21.659
16887,-19.941,-20.563
16898,-20.715,-20.317
16910,-20.788,-21.718
16922,-20.823,-22.26
16934,-23.81,-21.241
16945,-20.957,-20.515
16957,-21.007,-23.516
16969,-20.166,-20.923
16980,-18.399,-20.183
16992,-18.357,-20.17
17004,-18.503,-21.21
17016,-19.289,-22.849
17027,-19.695,-17.404
17039,-21.581,-18.741
17051,-20.045,-19.08
17063,-19.991,-18.793
17074,-19.137,-18.953
17086,-19.574,-18.761
17098,-22.785,-17.565
17109,-19.921,-18.609
17121,-17.186,-18.398
17133,-19.196,-20.207
17145,-20.371,-21.434
17156,-21.35,-20.037
17168,-20.489,-18.877
17180,-20.458,-17.041
17191,-20.033,-18.144
17203,-19.098,-22.631
17215,-21.826,-21.013
17227,-24.083,-19.407
17238,-23.575,-17.852
17250,-20.232,-19.671
17262,-18.918,-19.502
17273,-18.674,-22.544
17285,-19.991,-23.671
17297,-20.213,-19.773
17309,-19.502,-19.473
17320,-22.06,-21.305
17332,-20.735,-21.827
17344,-21.181,-26.094
17355,-22.756,-23.52
17367,-20.175,-20.805
17379,-18.377,-20.039
17391,-17.511,-20.655
17402,-21.23,-19.923
17414,-22.88,-20.102
17426,-19.11,-24.819
17438,-18.757,-20.685
17449,-22.465,-19.609
17461,-25.571,-19.672
17473,-21.988,-18.756
17484,-21.746,-20.814
17496,-21.489,-20.111
17508,-17.154,-20.094
17520,-16.261,-24.5
17531,-20.418,-22.432
17543,-24.077,-20.997
17555,-19.379,-21.296
17566,-18.348,-21.248
17578,-21.796,-20.245
17590,-23.236,-24.278
17602,-22.815,-23.175
17613,-23.243,-21.862
17625,-24.814,-21.012
17637,-23.242,-20.007
17648,-26.117,-21.829
17660,-23.763,-19.165
17672,-23.172,-16.426
17684,-18.799,-18.789
17695,-19.394,-21.923
17707,-19.555,-20.408
17719,-19.89,-20.594
17730,-19.748,-23.173
17742,-19.32,-20.376
17754,-18.587,-19.719
17766,-18.921,-18.47
17777,-21.409,-18.944
17789,-20.827,-22.993
17801,-17.998,-23.043
17813,-18.596,-22.318
17824,-20.318,-21.611
17836,-20.311,-19.209
17848,-22.223,-18.871
17859,-23.231,-19.491
17871,-21.172,-19.169
17883,-20.635,-18.868
17895,-22.418,-19.111
17906,-23.467,-21.36
17918,-22.8,-23.245
17930,-21.989,-22.648
17941,-20.961,-20.915
17953,-20.438,-22.636
17965,-20.516,-21.291
17977,-18.886,-20.136
17988,-21.685,-21.082
18000,-21.071,-23.154
18012,-18.636,-21.39
18023,-19.567,-21.342
18035,-21.485,-19.928
18047,-20.367,-19.281
18059,-21.466,-18.369
18070,-23.782,-19.426
18082,-22.039,-21.994
18094,-22.153,-22.619
18105,-19.696,-19.238
18117,-20.581,-18.793
18129,-21.033,-22.024
18141,-23.772,-22.7
18152,-25.714,-21.42
18164,-28.086,-20.168
18176,-26.65,-19.754
18188,-23.457,-19.089
18199,-21.307,-21.306
18211,-21.286,-24.529
18223,-21.145,-23.394
18234,-22.092,-23.046
18246,-20.754,-21.64
18258,-19.669,-20.162
18270,-19.973,-23.696
18281,-19.334,-22.272
18293,-18.278,-22.443
18305,-17.868,-24.162
18316,-21.743,-23.041
18328,-23.033,-23.804
18340,-24.308,-21.223
18352,-23.376,-22.54
18363,-22.913,-24.468
18375,-24.379,-25.589
18387,-21.248,-25.082
18398,-19.135,-22.595
18410,-20.378,-20.043
18422,-22.003,-21.768
18434,-23.089,-24.022
18445,-21.269,-23.921
18457,-20.81,-24.9
18469,-19.986,-20.428
18480,-21.327,-19.349
18492,-20.397,-21.464
18504,-20.003,-22.651
18516,-20.517,-22.38
18527,-22.251,-21.531
18539,-26.36,-22.027
18551,-26.487,-21.163
18563,-23.87,-22.166
18574,-22.084,-22.065
18586,-22.622,-21.529
18598,-21.563,-23.945
18609,-21.147,-24.162
18621,-21.603,-21.799
18633,-18.688,-22.152
18645,-17.402,-20.329
18656,-20.685,-19.049
18668,-23.171,-22.759
18680,-21.318,-24.156
18691,-20.931,-19.958
18703,-21.492,-17.171
18715,-23.67,-20.78
18727,-24.207,-23.357
18738,-24.012,-24.139
18750,-22.516,-21.252
18762,-20.535,-22.828
18773,-17.905,-26.471
18785,-19.57,-25.958
18797,-19.744,-24.242
18809,-17.801,-22.928
18820,-21.502,-22.107
18832,-21.224,-21.489
18844,-18.707,-20.134
18855,-22.086,-22.29
18867,-24.284,-21.216
18879,-24.09,-19.686
18891,-24.175,-19.979
18902,-23.54,-21.846
18914,-22.423,-20.708
18926,-24.244,-21.34
18938,-22.757,-23.614
18949,-22.255,-23.272
18961,-23.241,-21.524
18973,-23.736,-23.591
18984,-20.424,-22.242
18996,-19.822,-21.138
19008,-21.306,-21.447
19020,-21.87,-22.696
19031,-21.035,-23.378
19043,-23.356,-20.196
19055,-25.133,-21.368
19066,-23.935,-20.828
19078,-23.515,-21.606
19090,-22.406,-25.782
19102,-21.176,-24.283
19113,-24.698,-24.192
19125,-23.5,-22.347
19137,-20.304,-21.346
19148,-20.496,-24.39
19160,-19.598,-22.851
19172,-20.817,-22.177
19184,-22.171,-21.184
19195,-23.327,-21.318
19207,-25.016,-21.622
19219,-25.196,-21.203
19230,-25.78,-21.129
19242,-25.916,-22.059
19254,-21.127,-26.473
19266,-18.23,-23.244
19277,-17.347,-22.646
19289,-20.406,-22.705
19301,-23.174,-22.477
19313,-21.846,-24.388
19324,-20.597,-22.471
19336,-21.567,-23.759
19348,-20.548,-23.355
19359,-20.635,-23.262
19371,-22.067,-24.393
19383,-23.39,-26.207
19395,-23.592,-27.583
19406,-21.335,-23.001
19418,-21.444,-20.573
19430,-21.64,-21.295
19441,-22.184,-19.38
19453,-24.081,-18.901
19465,-24.137,-23.309
19477,-21.954,-21.176
19488,-20.821,-22.043
19500,-20.111,-22.234
19512,-18.482,-21.348
19523,-17.376,-21.493
19535,-19.201,-22.508
19547,-21.794,-22.034
19559,-22.237,-23.056
19570,-21.048,-24.669
19582,-22.791,-24.116
19594,-21.216,-22.045
19605,-18.817,-23.273
19617,-22.288,-23.61
19629,-24.164,-22.648
19641,-24.204,-23.096
19652,-22.544,-23.775
19664,-22.128,-22.57
19676,-22.325,-25.401
19688,-24.015,-24.79
19699,-26.153,-24.134
19711,-24.972,-21.574
19723,-24.468,-21.774
19734,-21.319,-21.683
19746,-21.284,-21.074
19758,-21.869,-24.098
19770,-23.714,-24.29
19781,-24.147,-24.547
19793,-20.672,-21.03
19805,-19.521,-19.962
19816,-21.585,-20.434
19828,-23.223,-19.982
19840,-22.041,-21.734
19852,-18.427,-26.562
19863,-19.451,-22.289
19875,-23.062,-22.239
19887,-17.827,-25.512
19898,-17.54,-26.43
19910,-19.435,-25.07
19922,-20.546,-23.956
19934,-20.828,-26.02
19945,-22.054,-23.444
19957,-22.259,-20.584
19969,-23.456,-23.02
19980,-21.754,-26.54
19992,-20.109,-21.563
20004,-23.293,-21.154
20016,-23.672,-26.407
20027,-23.978,-25.933
20039,-23.389,-26.084
20051,-21.235,-24.661
20063,-22.369,-23.446
20074,-21.85,-21.346
20086,-22.286,-21.305
20098,-24.09,-21.64
20109,-24.41,-22.927
20121,-21.385,-25.269
20133,-17.721,-23.339
20145,-18.498,-23.459
20156,-22.083,-24.06
20168,-23.515,-21.992
20180,-20.629,-23.249
20191,-21.26,-25.082
20203,-20.118,-23.454
20215,-20.881,-24.812
20227,-23.158,-26.191
20238,-24.971,-25.114
20250,-23.346,-23.37
20262,-22.916,-24.611
20273,-25.737,-21.82
20285,-23.493,-21.255
20297,-21.565,-22.589
20309,-22.947,-23.545
20320,-21.856,-24.266
20332,-21.302,-23.656
20344,-20.593,-24.139
20355,-20.167,-27.092
20367,-21.277,-28.024
20379,-22.948,-23.19
20391,-20.286,-23.487
20402,-17.993,-24.385
20414,-20.267,-25.324
20426,-21.798,-25.051
20438,-20.605,-25.273
20449,-20.068,-26.951
20461,-21.002,-23.49
20473,-21.433,-24.027
20484,-19.295,-23.609
20496,-20.911,-23.091
20508,-22.128,-23.582
20520,-19.401,-23.466
20531,-21.241,-21.623
20543,-24.55,-23.285
20555,-20.68,-24.828
20566,-20.455,-26.863
20578,-21.325,-23.667
20590,-22.644,-22.332
20602,-25.185,-24.812
20613,-23.039,-24.638
20625,-21.826,-23.433
20637,-23.879,-23.018
20648,-25.379,-22.995
20660,-25.464,-24.68
20672,-23.619,-26.045
20684,-22.887,-26.765
20695,-26.045,-28.453
20707,-24.881,-26.037
20719,-24.267,-23.544
20730,-24.755,-23.637
20742,-23.437,-23.917
20754,-20.866,-25.973
20766,-21.667,-26.521
20777,-24.578,-26.869
20789,-26.85,-24.99
20801,-24.275,-26.564
20813,-22.588,-26.177
20824,-22.379,-26.092
20836,-22.862,-25.882
20848,-22.477,-25.725
20859,-23.985,-24.585
20871,-22.828,-21.894
20883,-22.737,-24.766
20895,-24.117,-27.514
20906,-22.764,-24.238
20918,-21.441,-25.876
20930,-21.899,-27.587
20941,-22.57,-23.516
20953,-21.849,-25.17
20965,-24.189,-28.507
20977,-20.419,-27.831
20988,-19.084,-26.982
21000,-21.014,-25.905
21012,-24.352,-28.166
21023,-23.359,-29.741
21035,-23.639,-28.691
21047,-23.569,-25.16
21059,-22.486,-24.406
21070,-20.638,-24.683
21082,-22.035,-25.987
21094,-24.793,-25.694
21105,-22.169,-25.387
21117,-19.201,-25.733
21129,-20.278,-24.507
21141,-24.687,-24.991
21152,-24.03,-26.701
21164,-22.117,-25.932
21176,-22.522,-23.531
21188,-21.456,-23.034
21199,-23.327,-25.363
21211,-28.618,-25.363
21223,-23.952,-24.687
21234,-22.68,-25.922
21246,-24.641,-25.698
21258,-24.607,-25.439
21270,-23.931,-26.316
21281,-24.874,-27.941
21293,-25.858,-27.03
21305,-25.258,-29.501
21316,-25.052,-26.884
21328,-21.505,-26.731
21340,-21.986,-27.603
21352,-22.757,-26.213
21363,-20.86,-27.971
21375,-22.262,-23.881
21387,-24.793,-23.266
21398,-25.362,-23.783
21410,-24.975,-25.69
21422,-25.032,-27.584
21434,-25.085,-27.399
21445,-20.22,-29.044
21457,-20.15,-27.202
21469,-26.181,-25.605
21480,-23.53,-25.489
21492,-26.862,-28.355
21504,-26.209,-25.47
21516,-23.352,-25.457
21527,-25.021,-27.125
21539,-24.889,-28.313
21551,-24.804,-28.829
21563,-25.306,-24.847
21574,-23.043,-23.73
21586,-24.98,-25.46
21598,-24.355,-23.938
21609,-23.139,-24.58
21621,-22.736,-26.205
21633,-23.057,-26.613
21645,-24.868,-27.453
21656,-24.727,-26.006
21668,-25.168,-27.315
21680,-24.931,-31.046
21691,-25.608,-25.174
21703,-25.329,-27.026
21715,-26.5,-26.689
21727,-24.416,-26.576
21738,-20.517,-28.789
21750,-22.504,-28.359
21762,-22.758,-24.978
21773,-21.805,-25.714
21785,-24.609,-28.943
21797,-25.611,-30.518
21809,-25.608,-27.795
21820,-26.942,-25.75
21832,-23.285,-27.719
21844,-23.752,-30.167
21855,-26.702,-32.083
21867,-24.406,-30.724
21879,-24.338,-28.247
21891,-25.673,-26.859
21902,-24.028,-25.532
21914,-25.969,-28.536
21926,-24.183,-30.322
21938,-23.956,-29.403
21949,-24.27,-26.845
21961,-24.507,-26.862
21973,-25.11,-25.478
21984,-27.228,-25.039
21996,-23.806,-22.63
22008,-23.6,-23.34
22020,-23.434,-24.85
22031,-23.315,-25.699
22043,-22.569,-29.269
22055,-25.801,-27.124
22066,-26.17,-26.195
22078,-24.975,-24.707
22090,-22.504,-23.275
22102,-22.151,-25.843
22113,-25.46,-27.043
22125,-25.127,-26.964
22137,-23.162,-27.523
22148,-25.216,-28.287
22160,-24.194,-28.372
22172,-22.127,-29.841
22184,-23.982,-29.102
22195,-26.633,-28.22
22207,-27.813,-27.634
22219,-25.848,-26.091
22230,-24.507,-24.697
22242,-25.366,-26.126
22254,-25.314,-26.592
22266,-28.531,-24.381
22277,-25.086,-28.71
22289,-24.334,-31.545
22301,-20.959,-32.04
22313,-23.382,-31.869
22324,-23.678,-32.492
22336,-25.295,-30.909
22348,-27.463,-26.988
22359,-27.494,-26.96
22371,-27.02,-31.559
22383,-26.015,-29.972
22395,-26.491,-28.509
22406,-26.232,-27.696
22418,-24.968,-27.625
22430,-24.452,-27.431
22441,-23.05,-28.658
22453,-23.91,-29.73
22465,-26.469,-27.704
22477,-26.448,-26.41
22488,-24.117,-29.552
22500,-24.541,-29.506
22512,-26.683,-28.686
22523,-24.813,-32.622
22535,-24.944,-28.726
22547,-26.032,-25.537
22559,-21.987,-26.478
22570,-18.698,-29.248
22582,-22.093,-28.353
22594,-25.444,-28.229
22605,-27.209,-29.176
22617,-26.034,-28.344
22629,-26.032,-28.75
22641,-26.148,-25.709
22652,-26.916,-27.178
22664,-27.274,-30.753
22676,-27.749,-28.78
22688,-30.249,-26.354
22699,-29.62,-25.475
22711,-26.042,-25.624
22723,-28.221,-26.538
22734,-26.531,-29.153
22746,-25.164,-26.795
22758,-26.109,-27.006
22770,-24.366,-26.768
22781,-25.028,-27.219
22793,-28.058,-24.674
22805,-26.203,-26.799
22816,-30.216,-30.305
22828,-29.228,-27.85
22840,-28.672,-26.938
22852,-31.293,-29.06
22863,-30.287,-26.544
22875,-29.66,-25.711
22887,-25.206,-28.778
22898,-23.957,-28.265
22910,-27.37,-27.725
22922,-27.022,-25.661
22934,-26.657,-27.163
22945,-25.867,-30.313
22957,-27.408,-29.872
22969,-27.444,-28.897
22980,-25.903,-27.235
22992,-25.358,-23.72
23004,-27.638,-23.992
23016,-28.015,-28.431
23027,-30.468,-29.708
23039,-30.177,-30.402
23051,-27.228,-28.647
23063,-26.125,-29.062
23074,-27.265,-29.7
23086,-28.018,-29.358
23098,-27.747,-31.007
23109,-28.118,-31.019
23121,-30.483,-27.023
23133,-28.078,-27.986
23145,-28.931,-30.058
23156,-27.2,-29.425
23168,-27.85,-30.361
23180,-29.991,-27.233
23191,-27.688,-25.808
23203,-27.008,-30.26
23215,-28.38,-28.83
23227,-28.511,-30.117
23238,-28.778,-30.82
23250,-29.284,-26.845
23262,-29.334,-27.989
23273,-28.672,-28.63
23285,-27.86,-29.501
23297,-26.103,-29.287
23309,-24.741,-29.884
23320,-25.428,-28.963
23332,-27.935,-26.051
23344,-25.407,-26.404
23355,-24.153,-27.155
23367,-27.347,-27.707
23379,-29.004,-28.689
23391,-26.238,-27.593
23402,-25.963,-28.699
23414,-25.115,-28.18
23426,-24.853,-29.66
23438,-26.404,-30.317
23449,-25.131,-27.603
23461,-28.268,-23.007
23473,-29.89,-22.827
23484,-26.178,-27.31
23496,-30.221,-31.774
23508,-28.868,-29.381
23520,-27.597,-28.433
23531,-26.8,-28.356
23543,-27.146,-30.691
23555,-28.486,-31.508
23566,-29.039,-29.588
23578,-30.14,-29.041
23590,-29.019,-30.187
23602,-26.365,-28.965
23613,-28.082,-30.95
23625,-29.157,-28.513
23637,-28.191,-28.879
23648,-26.424,-30.13
23660,-25.296,-30.93
23672,-25.73,-30.739
23684,-28.9,-28.753
23695,-29.421,-26.956
23707,-28.106,-26.038
23719,-25.976,-27.166
23730,-25.557,-27.867
23742,-27.578,-29.688
23754,-25.089,-31.777
23766,-27.081,-32.85
23777,-28.686,-30.846
23789,-29.862,-32.133
23801,-27.731,-28.454
23813,-28.434,-27.236
23824,-31.691,-29.302
23836,-26.035,-27.911
23848,-26.446,-29.147
23859,-28.223,-28.987
23871,-27.19,-27.883
23883,-28.662,-27.503
23895,-28.922,-30.232
23906,-28.574,-28.046
23918,-28.706,-28.811
23930,-28.076,-30.353
23941,-28.9,-29.636
23953,-28.941,-26.152
23965,-26.482,-24.94
23977,-28.156,-29.546
23988,-29.962,-29.629
