FFT,Power Spectrum
Frequency[Hz],Level-L[dB],Level-R[dB]
11.719,-19.055,-21.907
23.438,1.5277,-1.0966
35.156,0.2011,-1.1182
46.875,3.3527,2.8759
58.594,7.1383,7.1236
70.313,5.6518,9.2814
82.031,7.7108,11.162
93.75,9.5849,11.074
105.47,9.1681,8.5567
117.19,7.287,6.6272
128.91,14.707,11.241
140.63,15.393,13.129
152.34,6.3091,8.5267
164.06,4.834,4.6811
175.78,5.4357,4.0786
187.5,12.612,9.5695
199.22,11.53,7.9671
210.94,7.4976,5.3759
222.66,6.5603,6.4838
234.38,8.4422,5.8729
246.09,8.0756,1.7494
257.81,9.4901,3.8297
269.53,7.114,5.0253
281.25,4.8106,6.2094
292.97,4.8409,5.5342
304.69,5.1667,5.0372
316.41,3.2033,4.143
328.13,5.0867,4.6057
339.84,3.8101,2.6533
351.56,3.8394,2.7355
363.28,6.9396,6.1788
375,6.7525,8.5822
386.72,7.3645,7.397
398.44,9.1677,6.8169
410.16,9.7575,6.8549
421.88,8.572,6.4147
433.59,8.7943,4.6316
445.31,9.4469,4.6248
457.03,5.4626,5.6595
468.75,3.3107,6.8333
480.47,5.1734,6.8038
492.19,5.5714,6.1905
503.91,6.6323,6.1722
515.63,4.0112,4.4661
527.34,1.6415,1.6043
539.06,-0.25562,3.8598
550.78,4.1655,5.6007
562.5,5.5828,3.7647
574.22,7.3235,5.5207
585.94,6.6136,7.3258
597.66,6.9335,6.742
609.38,8.3876,8.6126
621.09,8.0772,7.2403
632.81,11.435,6.1674
644.53,10.803,6.6884
656.25,7.6311,5.2793
667.97,7.8741,3.704
679.69,8.6002,8.251
691.41,8.7415,7.4942
703.13,8.2505,4.6788
714.84,4.8855,3.5065
726.56,2.9902,4.1936
738.28,4.2648,3.9739
750,6.8988,4.5119
761.72,6.9375,5.7393
773.44,4.4368,6.9754
785.16,5.2252,4.9784
796.88,5.5266,3.538
808.59,5.1209,4.0847
820.31,3.4653,3.1242
832.03,6.9368,1.0572
843.75,7.2092,5.5693
855.47,4.8371,7.4554
867.19,5.0679,5.7533
878.91,6.7909,7.1197
890.63,6.6417,6.5378
902.34,6.961,6.717
914.06,8.0001,5.6911
925.78,8.1022,5.2956
937.5,5.8322,5.3408
949.22,5.0307,1.9549
960.94,6.7582,2.2524
972.66,5.2952,3.6671
984.38,2.7275,2.1607
996.09,6.1957,2.987
1007.8,6.5281,2.8064
1019.5,3.9145,4.8244
1031.3,4.3265,5.7605
1043,4.0712,6.5927
1054.7,2.3055,5.9657
1066.4,1.493,7.2451
1078.1,3.1046,6.1133
1089.8,3.1864,2.7937
1101.6,6.3967,6.439
1113.3,7.4421,8.1818
1125,7.7286,5.4788
1136.7,7.1366,3.9497
1148.4,5.1446,4.7419
1160.2,4.9165,5.8628
1171.9,6.7804,6.4657
1183.6,6.2413,5.1224
1195.3,3.6828,3.716
1207,2.8768,3.1357
1218.8,6.3432,5.3755
1230.5,8.6603,7.3377
1242.2,6.9725,5.3582
1253.9,7.3136,4.9856
1265.6,6.6935,5.6398
1277.3,3.6203,7.0297
1289.1,2.6232,6.6938
1300.8,3.3112,5.1365
1312.5,4.1986,2.8075
1324.2,6.3959,4.5605
1335.9,7.8522,4.3731
1347.7,7.8346,2.1441
1359.4,5.2506,1.808
1371.1,6.1271,4.8909
1382.8,8.0439,4.3186
1394.5,4.1888,5.3072
1406.3,2.7054,6.228
1418,4.2909,5.4523
1429.7,3.1022,5.6774
1441.4,3.5979,4.6306
1453.1,1.6153,2.9312
1464.8,1.0281,2.8295
1476.6,3.5103,4.8614
1488.3,1.5427,4.3879
1500,4.828,2.4789
1511.7,7.2777,5.8687
1523.4,6.2611,7.8362
1535.2,2.9191,6.8023
1546.9,5.613,2.1136
1558.6,6.4196,2.0622
1570.3,5.9553,3.1306
1582,0.18653,2.339
1593.8,0.4085,-0.86131
1605.5,4.0608,4.6122
1617.2,6.4825,4.8167
1628.9,6.3977,4.8032
1640.6,4.4107,6.0395
1652.3,1.0368,5.6673
1664.1,-1.3682,3.6245
1675.8,-0.43424,1.3372
1687.5,1.2084,3.5328
1699.2,5.6721,5.451
1710.9,4.7885,1.7431
1722.7,1.5693,1.6626
1734.4,2.2893,-0.77031
1746.1,1.8506,1.222
1757.8,1.4845,3.9331
1769.5,6.4062,3.8247
1781.3,6.4459,2.544
1793,4.0417,2.5816
1804.7,0.54525,2.7261
1816.4,3.6253,3.0033
1828.1,5.0542,3.2323
1839.8,5.327,0.94065
1851.6,1.678,0.82025
1863.3,2.6781,5.1445
1875,2.3957,6.703
1886.7,3.6871,5.3641
1898.4,3.8295,4.9158
1910.2,2.0456,4.9371
1921.9,-0.4668,4.0081
1933.6,2.411,1.8025
1945.3,5.7557,2.3551
1957,3.6093,4.0682
1968.8,0.49062,3.941
1980.5,-0.0042635,3.1757
1992.2,-0.63895,3.543
2003.9,-0.75363,-0.12426
2015.6,0.97001,1.562
2027.3,2.2326,2.6724
2039.1,1.8233,3.5471
2050.8,-0.823,0.69345
2062.5,-1.5776,-1.2216
2074.2,-1.5641,1.828
2085.9,1.768,3.0997
2097.7,2.0618,2.3687
2109.4,1.8412,2.5723
2121.1,1.1163,0.67712
2132.8,1.9976,1.2657
2144.5,0.75246,1.7375
2156.3,1.8115,-1.5783
2168,3.2052,-2.8036
2179.7,3.4577,-1.1534
2191.4,2.0448,-0.10108
2203.1,1.0347,1.1497
2214.8,-0.45251,-1.2978
2226.6,-1.4216,0.55879
2238.3,-0.5985,-1.5828
2250,-0.82952,0.3716
2261.7,1.3681,-0.035696
2273.4,2.3344,3.5019
2285.2,2.0919,3.9479
2296.9,2.027,3.2068
2308.6,1.5477,4.6357
2320.3,-2.3759,3.8181
2332,-0.028792,1.1051
2343.8,2.8196,0.094962
2355.5,-1.9877,-0.24593
2367.2,0.062198,4.4021
2378.9,1.9568,6.8267
2390.6,-1.2489,4.0449
2402.3,0.88625,2.854
2414.1,-0.056791,2.2972
2425.8,-1.9265,2.6732
2437.5,1.5655,2.2258
2449.2,2.37,-0.28649
2460.9,1.9654,1.2554
2472.7,-0.43448,0.40695
2484.4,-0.0035007,2.2444
2496.1,4.0474,1.8738
2507.8,1.3992,1.5438
2519.5,-2.596,2.2349
2531.3,-0.92464,1.4955
2543,-0.22438,-0.54052
2554.7,-2.7968,1.9229
2566.4,1.2303,2.7941
2578.1,3.0594,-0.85266
2589.8,2.2024,-1.753
2601.6,0.072446,-0.0051331
2613.3,-0.80455,-0.88539
2625,3.2561,-2.2571
2636.7,-0.13416,-1.6879
2648.4,-1.5534,0.5883
2660.2,-3.362,3.4779
2671.9,0.594,1.5771
2683.6,0.40568,0.70589
2695.3,-0.38094,3.044
2707,-0.23445,1.9206
2718.8,-0.1377,2.6621
2730.5,-0.71083,1.3096
2742.2,0.19653,1.5592
2753.9,-0.055733,0.81417
2765.6,-3.2016,1.007
2777.3,-4.973,-1.237
2789.1,-0.49052,-0.17068
2800.8,-0.21004,-0.0064252
2812.5,-1.0209,1.0643
2824.2,1.6947,3.59
2835.9,2.8466,3.3579
2847.7,1.7148,2.5246
2859.4,-0.72455,1.3196
2871.1,-0.59422,1.6316
2882.8,-1.1437,1.0615
2894.5,2.4861,1.8432
2906.3,2.7809,0.87272
2918,1.5194,-0.057964
2929.7,0.92559,0.96225
2941.4,-0.21992,-0.37163
2953.1,-1.7642,0.41572
2964.8,-1.397,0.71575
2976.6,2.0043,-0.2058
2988.3,2.8083,-1.8555
3000,1.7269,-3.8308
3011.7,-0.34702,-3.3743
3023.4,-2.9926,0.058227
3035.2,-2.449,-2.2301
3046.9,-1.2535,2.0301
3058.6,-2.152,2.4596
3070.3,-1.0088,0.80375
3082,-0.73797,-3.7394
3093.8,0.057049,-3.6417
3105.5,-1.6745,-0.55915
3117.2,1.8644,1.3096
3128.9,1.6338,-1.2674
3140.6,-1.2808,0.42046
3152.3,1.8538,1.8713
3164.1,1.2176,1.4579
3175.8,-1.1875,-1.2578
3187.5,-3.8473,-3.4152
3199.2,-1.1708,-0.59665
3210.9,-1.0326,-0.80042
3222.7,-1.1811,-0.55733
3234.4,-4.1261,0.11559
3246.1,-0.41108,-0.043749
3257.8,-0.57734,0.63224
3269.5,-6.3857,-0.024837
3281.3,-2.3323,-3.908
3293,-0.57678,-4.0348
3304.7,1.2593,0.67102
3316.4,-0.12149,-0.059789
3328.1,-0.29819,0.27438
3339.8,-0.78426,-0.50467
3351.6,-2.1424,-3.5043
3363.3,-1.4297,-2.9578
3375,-0.89942,-0.46971
3386.7,-0.66349,0.38569
3398.4,-0.83746,-2.1522
3410.2,-2.0332,-2.5358
3421.9,-0.46967,0.34484
3433.6,-0.67095,-1.3259
3445.3,-0.17666,-1.5426
3457,0.50547,-0.53667
3468.8,0.51961,-1.213
3480.5,-4.1287,-2.4568
3492.2,-3.8962,-4.1838
3503.9,-3.1964,-2.7148
3515.6,-4.6244,-5.5499
3527.3,-4.0387,-3.6754
3539.1,-2.2258,-2.8629
3550.8,-1.0224,-1.3908
3562.5,-1.4777,0.5392
3574.2,0.31759,1.5518
3585.9,0.12737,0.88937
3597.7,-3.5326,-1.4516
3609.4,-2.7623,-1.9528
3621.1,-1.8351,0.60912
3632.8,-3.7255,-1.5321
3644.5,-4.0403,-4.5451
3656.3,-1.9464,-1.8632
3668,-1.2418,-0.83985
3679.7,-2.0346,-2.4808
3691.4,-2.2206,-4.1074
3703.1,-1.9316,-0.72708
3714.8,0.78414,-0.93148
3726.6,-0.0034016,0.12705
3738.3,0.33016,-0.44041
3750,-1.716,-0.22032
3761.7,-1.472,-6.0496
3773.4,-1.0762,-2.667
3785.2,-0.060847,-2.1474
3796.9,-0.78797,-0.34257
3808.6,-3.1972,-0.95291
3820.3,-2.5132,-1.8014
3832,-0.1417,-5.9754
3843.8,-0.8726,-1.6899
3855.5,-0.36519,-1.5003
3867.2,-0.90646,0.21224
3878.9,-3.2751,-0.77697
3890.6,-2.5278,-2.634
3902.3,-1.3913,-2.2578
3914.1,-1.9013,-2.2398
3925.8,-4.1639,-1.9838
3937.5,-3.7509,0.15424
3949.2,-3.6677,1.3543
3960.9,-3.6125,-1.4066
3972.7,-5.9235,-5.4054
3984.4,-3.2051,-5.9212
3996.1,-2.7598,-4.572
4007.8,-3.6348,-1.0606
4019.5,-1.25,-0.46503
4031.3,-2.0756,-1.669
4043,-3.1183,-1.6002
4054.7,-2.9597,-2.5918
4066.4,-0.98759,0.017056
4078.1,-2.0081,-0.81346
4089.8,-0.92377,-1.6622
4101.6,-2.0916,-4.9834
4113.3,-4.4324,-3.751
4125,-1.7553,-4.4411
4136.7,-3.4135,0.45316
4148.4,-3.5977,1.8279
4160.2,-3.9277,-0.20961
4171.9,-4.8699,-3.0945
4183.6,-3.6165,-5.1629
4195.3,-2.4018,-5.5664
4207,-5.1048,-2.7992
4218.8,-5.6126,0.018105
4230.5,-2.6824,1.0358
4242.2,-1.3413,-0.29764
4253.9,-2.3355,-3.6317
4265.6,-1.8523,-1.4703
4277.3,-2.6435,-1.7332
4289.1,-1.9146,-2.7754
4300.8,-3.3298,-3.1446
4312.5,-1.9956,-4.3862
4324.2,-0.46305,-6.0599
4335.9,0.13468,-2.5543
4347.7,-2.1543,-2.8937
4359.4,-0.24684,-4.862
4371.1,-0.70934,-2.6394
4382.8,-5.2423,-1.7838
4394.5,-1.7601,-1.4715
4406.3,-0.26915,-1.5725
4418,0.40978,-2.9454
4429.7,0.35513,-1.9348
4441.4,-1.4843,-3.5284
4453.1,-2.3972,-3.0043
4464.8,-2.1169,-3.3559
4476.6,-1.1987,-3.1409
4488.3,-2.3925,-3.0522
4500,-3.3682,-3.1941
4511.7,-5.7206,-5.0127
4523.4,-6.5762,-3.5224
4535.2,-6.3359,-0.95396
4546.9,-4.538,-0.61193
4558.6,-4.136,-0.87065
4570.3,-4.8753,-1.3435
4582,-1.6334,-4.5823
4593.8,-4.7464,-1.7647
4605.5,-1.4387,-0.78106
4617.2,-3.147,-5.6639
4628.9,-4.4211,-5.325
4640.6,-5.575,-0.47794
4652.3,-7.439,-0.58752
4664.1,-3.4827,-6.9886
4675.8,-2.1938,-4.652
4687.5,-2.9782,-3.0675
4699.2,-4.4388,-2.7541
4710.9,0.28409,-2.8998
4722.7,0.59626,-2.1242
4734.4,-2.1551,-4.7833
4746.1,-4.8998,-5.3302
4757.8,-5.6652,-2.0184
4769.5,-4.7227,-1.3447
4781.3,-2.7898,-3.5271
4793,-3.1516,-4.4218
4804.7,-4.2257,0.41973
4816.4,-3.6337,-0.2677
4828.1,-3.9636,-5.3489
4839.8,-5.0487,-5.2683
4851.6,-4.0337,-3.566
4863.3,-3.3042,-2.764
4875,-3.6538,-4.4579
4886.7,-9.5905,-4.3763
4898.4,-4.1845,-1.4293
4910.2,-2.6746,-2.123
4921.9,-1.559,-4.8358
4933.6,-2.4144,-1.8131
4945.3,-3.0105,-3.0601
4957,-2.0278,-7.1258
4968.8,-2.3382,-4.4951
4980.5,-3.0025,-1.5725
4992.2,-1.2222,-2.8546
5003.9,-1.5208,-1.8419
5015.6,-2.9773,-4.4993
5027.3,-1.2134,-5.0323
5039.1,-0.48363,-4.2775
5050.8,-0.8896,-4.2721
5062.5,-1.7586,-6.0073
5074.2,-2.935,-4.8877
5085.9,-0.0080483,-4.9512
5097.7,1.455,-5.5385
5109.4,1.6344,-7.3163
5121.1,-0.34274,-2.9033
5132.8,-1.3575,-4.7154
5144.5,-0.84126,-7.3608
5156.3,-0.35347,-3.1138
5168,-1.4011,-3.6565
5179.7,-4.3085,-4.016
5191.4,-4.5755,-2.3254
5203.1,-1.515,-0.51753
5214.8,-1.1138,-3.1425
5226.6,-3.0206,-6.5075
5238.3,-4.4417,-4.4734
5250,-6.1826,-2.7332
5261.7,-1.7119,-2.1451
5273.4,-2.921,-0.20075
5285.2,-3.1109,-0.70898
5296.9,-2.0188,-5.0015
5308.6,-4.5326,-4.4839
5320.3,-3.2061,-2.8134
5332,-3.0516,-3.0963
5343.8,-3.5824,-4.9895
5355.5,-6.3866,-4.6272
5367.2,-5.0725,-3.5466
5378.9,-3.6048,-5.8063
5390.6,-2.8219,-4.5134
5402.3,1.0885,-3.0429
5414.1,0.48671,-4.2239
5425.8,-3.102,-3.8975
5437.5,-2.5583,-4.6487
5449.2,-3.4198,-2.9472
5460.9,-6.4516,-3.1958
5472.7,-7.0829,-5.9661
5484.4,-4.7268,-6.3377
5496.1,-2.6804,-6.4033
5507.8,-3.5268,-6.0264
5519.5,-3.7442,-5.8498
5531.3,-6.0611,-4.7623
5543,-4.7188,-3.5973
5554.7,-5.1772,-3.3612
5566.4,-5.9289,-1.6568
5578.1,1.3627,-5.2832
5589.8,2.0247,-2.1188
5601.6,-3.2183,-4.2138
5613.3,-4.4012,-6.1058
5625,-2.3138,-5.3448
5636.7,-2.0033,-0.7093
5648.4,-5.7047,-0.21797
5660.2,-1.8613,-0.29678
5671.9,-1.5005,-0.2114
5683.6,-4.3154,-0.71013
5695.3,-3.7549,-1.3349
5707,-4.2233,-3.1513
5718.8,-6.975,-3.5918
5730.5,-7.2812,-3.3866
5742.2,-4.5596,-3.2058
5753.9,-2.6049,-5.0015
5765.6,-1.8423,-5.7398
5777.3,-3.7529,-4.1391
5789.1,-3.0601,-4.0421
5800.8,-2.8538,-0.8595
5812.5,-1.8366,-0.95751
5824.2,0.33693,-2.9865
5835.9,-2.3249,-5.5622
5847.7,-3.0655,-4.4553
5859.4,-2.427,-2.9444
5871.1,-1.8223,-2.0745
5882.8,-1.671,-3.4498
5894.5,-2.1408,-2.435
5906.3,-3.3601,-2.4311
5918,-4.6667,-4.5614
5929.7,-4.1356,-2.8693
5941.4,-1.7693,0.077495
5953.1,-1.0394,0.32394
5964.8,-3.5528,-3.0819
5976.6,-3.3067,-5.9254
5988.3,-1.9829,-6.1996
6000,-1.7081,-5.7519
6011.7,0.18949,-4.4302
6023.4,-1.4638,-3.272
6035.2,-4.4786,-3.0182
6046.9,-6.2202,-3.0213
6058.6,-5.258,-4.642
6070.3,-1.4476,-5.6201
6082,0.92324,-5.9314
6093.8,0.96629,-4.9336
6105.5,-2.5849,-6.6763
6117.2,-1.1802,-6.0738
6128.9,-0.5326,-6.3868
6140.6,-0.66861,-5.4809
6152.3,-0.62704,-5.5054
6164.1,-0.17145,-4.6316
6175.8,-3.7179,-3.6414
6187.5,-6.3425,-4.932
6199.2,-2.5524,-6.9143
6210.9,-3.9066,-3.6336
6222.7,-0.78487,-4.4365
6234.4,-0.22311,-3.917
6246.1,-1.6618,-3.5757
6257.8,-1.8056,-5.8117
6269.5,-2.0662,-4.7651
6281.3,-3.2716,-3.2351
6293,-4.7814,-4.449
6304.7,-3.8229,-5.234
6316.4,-2.5076,-1.981
6328.1,-2.6713,-3.6298
6339.8,0.015256,-6.0518
6351.6,0.74944,-5.4857
6363.3,-0.82792,-5.173
6375,-3.9678,-6.853
6386.7,-5.5003,-7.3482
6398.4,-1.0212,-5.487
6410.2,-0.78543,-3.6394
6421.9,-1.5561,-5.2434
6433.6,-1.1004,-5.6712
6445.3,-3.0954,-3.6045
6457,-2.5706,-1.7655
6468.8,-3.7036,-2.1847
6480.5,-4.3241,-4.6754
6492.2,-3.4779,-3.1092
6503.9,0.10889,-3.2798
6515.6,0.26087,-4.8984
6527.3,-3.1183,-6.5834
6539.1,-3.2826,-7.2781
6550.8,-2.8517,-6.2468
6562.5,-3.202,-4.6244
6574.2,-1.8435,-5.2831
6585.9,-0.088104,-5.3756
6597.7,-1.4579,-5.3396
6609.4,-4.3163,-6.1448
6621.1,-4.4324,-4.8745
6632.8,-1.571,-3.4748
6644.5,0.44507,-4.3996
6656.3,-0.26651,-5.3507
6668,-4.4193,-5.461
6679.7,-5.3284,-7.8903
6691.4,-3.4347,-7.5879
6703.1,-2.8827,-7.6633
6714.8,-2.7173,-9.8437
6726.6,-0.71508,-7.1247
6738.3,-1.3998,-6.3031
6750,-4.1439,-5.2958
6761.7,-2.7944,-5.8392
6773.4,-3.1968,-5.1542
6785.2,-2.9841,-7.1328
6796.9,-1.7459,-10.937
6808.6,-1.2949,-9.4662
6820.3,-0.26054,-6.8256
6832,-0.14762,-6.7816
6843.8,-0.044869,-6.2818
6855.5,-0.46104,-4.3919
6867.2,-1.3652,-4.689
6878.9,-0.92207,-6.4184
6890.6,-2.3811,-7.5624
6902.3,-1.8749,-7.6766
6914.1,-3.2304,-5.7561
6925.8,-0.14563,-6.9125
6937.5,2.0701,-9.1441
6949.2,-0.82507,-7.3711
6960.9,-0.81912,-8.2968
6972.7,-0.44095,-6.9818
6984.4,-1.1832,-5.3002
6996.1,-2.4172,-3.494
7007.8,-0.31832,-6.7566
7019.5,-0.84979,-6.5685
7031.3,0.42336,-5.2884
7043,1.848,-7.5711
7054.7,0.20638,-8.9001
7066.4,-2.0064,-7.0577
7078.1,-3.7766,-7.2146
7089.8,-0.85434,-9.4528
7101.6,-0.11096,-6.2086
7113.3,0.52906,-6.3016
7125,-0.5208,-3.7529
7136.7,-0.44203,-6.4814
7148.4,-0.9398,-6.9501
7160.2,0.58353,-6.3418
7171.9,0.24247,-6.3322
7183.6,2.5425,-6.7204
7195.3,3.8662,-7.4834
7207,4.2805,-7.0878
7218.8,3.8205,-4.4992
7230.5,3.055,-5.6401
7242.2,-0.32872,-6.7187
7253.9,4.8758,-6.858
7265.6,5.9678,-7.1279
7277.3,5.0869,-7.1555
7289.1,3.4344,-6.3751
7300.8,6.22,-9.1631
7312.5,6.7088,-6.5055
7324.2,4.4725,-6.0002
7335.9,5.4066,-5.877
7347.7,7.3074,-6.7391
7359.4,6.1674,-9.8385
7371.1,10.308,-10.955
7382.8,11.754,-10.058
7394.5,11.088,-11.418
7406.3,13.263,-11.17
7418,14.984,-5.4092
7429.7,16.291,-4.335
7441.4,15.976,-7.6001
7453.1,17.969,-8.527
7464.8,25.757,-7.5632
7476.6,28.535,-6.568
7488.3,33.235,-5.725
7500,39.954,-7.5896
7511.7,60.696,6.6825
7523.4,69.019,15.119
7535.2,65.201,11.54
7546.9,43.429,-5.4331
7558.6,35.27,-9.966
7570.3,29.458,-10.101
7582,26.663,-6.6328
7593.8,19.678,-5.4356
7605.5,15.576,-7.1571
7617.2,16.491,-10.07
7628.9,14.813,-9.4714
7640.6,13.03,-6.4
7652.3,10.312,-6.361
7664.1,10.024,-10.042
7675.8,9.5444,-8.3798
7687.5,6.4433,-10.459
7699.2,5.9455,-6.8379
7710.9,6.1616,-7.5478
7722.7,3.6097,-9.393
7734.4,6.073,-7.3004
7746.1,6.2556,-6.2294
7757.8,4.3673,-8.8905
7769.5,3.1012,-8.34
7781.3,4.9141,-6.259
7793,4.7307,-7.8876
7804.7,1.1138,-9.3801
7816.4,0.66434,-8.1433
7828.1,1.2739,-7.1885
7839.8,3.2707,-6.292
7851.6,2.6356,-8.5017
7863.3,1.8598,-9.7583
7875,-0.19643,-9.0663
7886.7,-1.3157,-9.4707
7898.4,-1.3125,-7.8689
7910.2,-3.1533,-9.1102
7921.9,-1.0483,-5.8902
7933.6,-0.68608,-10.254
7945.3,-2.4976,-12.277
7957,-3.2677,-10.139
7968.8,-1.5338,-9.8294
7980.5,-0.93248,-12.044
7992.2,-1.0313,-12.491
8003.9,-1.8238,-10.715
8015.6,-5.5558,-8.6877
8027.3,-5.7908,-8.4075
8039.1,-1.52,-5.224
8050.8,-2.4877,-5.088
8062.5,-3.5163,-8.1058
8074.2,-4.8756,-9.1406
8085.9,-3.5079,-8.5835
8097.7,-6.4496,-6.3579
8109.4,-5.5533,-6.6861
8121.1,-7.6072,-10.989
8132.8,-6.9538,-8.9547
8144.5,-6.0057,-8.379
8156.3,-7.8697,-9.5135
8168,-4.2971,-8.8284
8179.7,-2.8974,-8.6018
8191.4,-2.882,-8.4026
8203.1,-2.5245,-6.9057
8214.8,-6.7758,-8.0014
8226.6,-5.2635,-10.548
8238.3,-4.3779,-6.3683
8250,-3.9433,-4.0897
8261.7,-2.8852,-7.017
8273.4,-2.6635,-8.2953
8285.2,-4.2323,-7.3507
8296.9,-5.7398,-4.2842
8308.6,-5.4474,-6.6028
8320.3,-4.4927,-9.5974
8332,-6.383,-9.8352
8343.8,-6.8278,-8.2283
8355.5,-8.4222,-12.462
8367.2,-8.154,-9.371
8378.9,-7.57,-7.0643
8390.6,-9.2335,-10.829
8402.3,-10.564,-11.041
8414.1,-6.9393,-9.9381
8425.8,-5.9561,-12.431
8437.5,-6.9659,-15.168
8449.2,-9.2749,-8.8143
8460.9,-9.3068,-5.2682
8472.7,-8.2568,-8.7694
8484.4,-8.1653,-12.688
8496.1,-5.6946,-9.6834
8507.8,-5.4479,-7.1738
8519.5,-5.2048,-8.5894
8531.3,-7.9336,-8.9461
8543,-11.019,-8.4441
8554.7,-7.8951,-9.4563
8566.4,-8.9146,-13.119
8578.1,-9.5959,-10.787
8589.8,-8.8512,-8.2676
8601.6,-9.1765,-6.609
8613.3,-5.8679,-6.8824
8625,-5.9691,-10.596
8636.7,-6.7599,-10.472
8648.4,-5.321,-10.907
8660.2,-9.2863,-11.764
8671.9,-8.6473,-7.4543
8683.6,-9.8354,-6.6674
8695.3,-10.501,-9.1988
8707,-9.4506,-13.648
8718.8,-7.8359,-12.398
8730.5,-7.6842,-12.596
8742.2,-9.84,-9.8166
8753.9,-7.4707,-10.684
8765.6,-5.9773,-10.096
8777.3,-10.258,-11.774
8789.1,-8.5817,-15.405
8800.8,-9.683,-11.83
8812.5,-11.534,-10.388
8824.2,-8.8022,-9.5097
8835.9,-7.3556,-11.522
8847.7,-8.2198,-12.395
8859.4,-7.8482,-12.821
8871.1,-7.769,-13.034
8882.8,-6.7186,-10.741
8894.5,-5.8011,-10.941
8906.3,-6.3621,-9.7633
8918,-7.149,-9.1582
8929.7,-8.7897,-9.3613
8941.4,-9.0728,-12.59
8953.1,-9.54,-9.2262
8964.8,-6.0158,-9.5258
8976.6,-6.8896,-9.3033
8988.3,-7.0631,-9.0959
9000,-10,-10.746
9011.7,-5.3767,-12.859
9023.4,-4.2322,-12.397
9035.2,-5.3994,-9.8192
9046.9,-6.9793,-8.265
9058.6,-8.6687,-7.9822
9070.3,-11.779,-11.535
9082,-9.204,-8.3477
9093.8,-7.8497,-7.9012
9105.5,-9.7222,-9.8185
9117.2,-10.636,-10.138
9128.9,-10.845,-12.55
9140.6,-7.6996,-10.933
9152.3,-11.133,-8.5113
9164.1,-12.77,-11.51
9175.8,-10.8,-11.106
9187.5,-10.583,-11.154
9199.2,-8.9113,-11.879
9210.9,-9.2975,-12.072
9222.7,-10.47,-10.908
9234.4,-11.07,-8.4994
9246.1,-11.792,-9.3922
9257.8,-10.572,-10.641
9269.5,-11.349,-11.005
9281.3,-9.3582,-13.601
9293,-7.7091,-11.837
9304.7,-8.6083,-10.663
9316.4,-4.0702,-10.396
9328.1,-9.1344,-9.9679
9339.8,-11.338,-9.7624
9351.6,-9.9232,-9.0293
9363.3,-8.5496,-9.4564
9375,-8.4796,-10.413
9386.7,-10.188,-9.5425
9398.4,-7.9685,-11.692
9410.2,-6.5634,-13.724
9421.9,-10.134,-11.12
9433.6,-7.4621,-12.174
9445.3,-6.8408,-11.209
9457,-7.5929,-10.932
9468.8,-8.676,-10.984
9480.5,-10.201,-9.0823
9492.2,-10.458,-7.7662
9503.9,-10.949,-8.069
9515.6,-9.0914,-10.835
9527.3,-9.1965,-11.542
9539.1,-8.9088,-10.447
9550.8,-11.403,-9.9434
9562.5,-12.418,-11.32
9574.2,-12.013,-9.78
9585.9,-9.7165,-10.162
9597.7,-9.3232,-11.028
9609.4,-8.3473,-11.685
9621.1,-10.587,-8.4897
9632.8,-12.695,-7.7847
9644.5,-12.056,-8.1098
9656.3,-10.624,-8.8003
9668,-10.606,-9.971
9679.7,-10.094,-9.1673
9691.4,-9.2885,-11.355
9703.1,-6.6563,-10.491
9714.8,-6.532,-12.735
9726.6,-11.909,-12.409
9738.3,-9.2621,-11.447
9750,-10.124,-11.255
9761.7,-10.66,-13.525
9773.4,-11.134,-15.988
9785.2,-6.4523,-13.287
9796.9,-8.9345,-11.784
9808.6,-9.6777,-11.999
9820.3,-7.2152,-10.743
9832,-12.023,-10.288
9843.8,-9.1294,-10.681
9855.5,-11.681,-11.962
9867.2,-8.1913,-12.67
9878.9,-10.827,-8.8397
9890.6,-12.395,-9.198
9902.3,-12.069,-12.747
9914.1,-9.0675,-12.345
9925.8,-9.3976,-12.142
9937.5,-13.983,-16.177
9949.2,-9.2906,-14.152
9960.9,-9.4876,-10.898
9972.7,-12.326,-9.8545
9984.4,-13.34,-11.263
9996.1,-11.257,-14.549
10008,-8.7442,-10.233
10020,-10.626,-12.623
10031,-10.435,-13.699
10043,-11.103,-12.647
10055,-9.5573,-13.276
10066,-8.6359,-13.625
10078,-9.7433,-10.913
10090,-10.237,-12.125
10102,-8.5806,-11.687
10113,-9.8908,-11.61
10125,-9.8333,-13.913
10137,-11.12,-11.058
10148,-13.854,-11.352
10160,-14.84,-13.07
10172,-12.567,-12.847
10184,-9.0644,-13.871
10195,-10.698,-12.997
10207,-12.624,-10.711
10219,-10.288,-9.6841
10230,-11.314,-9.2467
10242,-11.171,-11.072
10254,-9.469,-13.774
10266,-8.6073,-10.841
10277,-13.111,-10.203
10289,-11.597,-11.472
10301,-9.7952,-14.959
10313,-10.052,-13.369
10324,-9.2831,-11.848
10336,-9.0145,-11.734
10348,-11.578,-11.791
10359,-10.205,-13.271
10371,-9.1535,-13.714
10383,-9.7127,-13.823
10395,-10.49,-12.619
10406,-10.848,-12.389
10418,-11.518,-10.668
10430,-11.953,-11.535
10441,-14.105,-13.601
10453,-13.445,-14.491
10465,-11.522,-12.724
10477,-10.173,-15.207
10488,-8.4917,-16.765
10500,-7.9493,-15.742
10512,-11.424,-13.464
10523,-12.197,-11.949
10535,-12.029,-11.621
10547,-13.186,-11.893
10559,-13.088,-11.949
10570,-11.051,-10.397
10582,-9.4117,-8.8943
10594,-8.9457,-9.5645
10605,-9.9779,-11.783
10617,-10.667,-9.6577
10629,-10.192,-9.4445
10641,-9.4259,-10.378
10652,-10.583,-11.528
10664,-12.202,-12.032
10676,-13.028,-12.467
10688,-12.826,-13.111
10699,-11.141,-11.286
10711,-9.9373,-11.174
10723,-10.033,-9.147
10734,-9.842,-10.891
10746,-11.788,-13.769
10758,-13.997,-13.348
10770,-13.908,-13.251
10781,-11.688,-12.052
10793,-10.195,-13.752
10805,-7.471,-13.476
10816,-6.7424,-13.976
10828,-8.3153,-12.565
10840,-11.545,-11.796
10852,-12.04,-11.074
10863,-11.168,-11.932
10875,-11.2,-14.169
10887,-10.577,-14.696
10898,-11.123,-12.904
10910,-10.849,-13.494
10922,-11.216,-12.145
10934,-10.461,-13.32
10945,-10.207,-14.856
10957,-10.411,-16.59
10969,-6.3973,-15.974
10980,-7.1172,-11.754
10992,-8.424,-12.539
11004,-8.8107,-17.89
11016,-12.3,-12.944
11027,-8.8423,-12.39
11039,-6.296,-15.541
11051,-9.1759,-11.867
11063,-11.018,-10.625
11074,-11.118,-12.641
11086,-11.525,-13.279
11098,-8.2617,-11.914
11109,-9.357,-11.793
11121,-14.843,-12.376
11133,-12.801,-13.316
11145,-11.759,-11.362
11156,-13.076,-10.709
11168,-11.389,-12.781
11180,-12.798,-12.05
11191,-13.683,-12.157
11203,-12.011,-14.211
11215,-11.469,-15.367
11227,-10.128,-17.937
11238,-10.373,-17.228
11250,-9.8011,-14.615
11262,-8.5707,-13.824
11273,-8.4392,-13.054
11285,-6.5336,-15.085
11297,-7.4353,-17.253
11309,-10.945,-15.028
11320,-10.036,-13.357
11332,-10.83,-13.07
11344,-13.807,-8.9389
11355,-10.73,-10.437
11367,-7.6406,-12.915
11379,-9.671,-14.081
11391,-10.36,-13.084
11402,-10.424,-12.781
11414,-11.521,-13.884
11426,-10.881,-13.092
11438,-9.2325,-11.701
11449,-10.036,-13.502
11461,-11.605,-11.59
11473,-9.793,-11.986
11484,-8.7758,-12.588
11496,-11.924,-13.483
11508,-14.702,-12.076
11520,-14.098,-13.326
11531,-11.641,-14.051
11543,-11.959,-12.847
11555,-12.483,-12.52
11566,-8.9239,-12.473
11578,-8.9601,-13.576
11590,-10.013,-13.449
11602,-10.963,-13.237
11613,-9.1552,-15.658
11625,-10.572,-16.033
11637,-12.606,-13.717
11648,-10.566,-14.111
11660,-11.005,-14.828
11672,-12.823,-14.653
11684,-11.603,-14.619
11695,-11.404,-13.122
11707,-9.7133,-12.468
11719,-10.378,-12.987
11730,-13.176,-13.449
11742,-11.222,-14.825
11754,-11.606,-15.583
11766,-11.108,-16.351
11777,-10.916,-13.406
11789,-10.289,-15.534
11801,-10.409,-14.994
11813,-10.604,-10.85
11824,-12.445,-10.28
11836,-11.775,-12.4
11848,-8.9494,-13.01
11859,-9.2664,-11.888
11871,-10.223,-12.137
11883,-11.667,-13.64
11895,-10.141,-14.387
11906,-8.0077,-16.593
11918,-11.656,-14.33
11930,-9.8067,-12.721
11941,-10.835,-14.186
11953,-11.179,-13.051
11965,-11.261,-16.669
11977,-7.9145,-16.719
11988,-9.2969,-12.658
12000,-12.204,-12.509
12012,-10.482,-14.231
12023,-11.743,-16.07
12035,-8.0931,-14.037
12047,-8.2408,-13.001
12059,-8.9977,-13.793
12070,-10.061,-13.877
12082,-11.909,-12.417
12094,-11.842,-14.369
12105,-10.986,-13.462
12117,-10.924,-13.779
12129,-10.725,-14.868
12141,-9.5492,-14.203
12152,-10.175,-13.861
12164,-11.743,-14.326
12176,-7.519,-14.642
12188,-7.0756,-12.867
12199,-11.199,-13.292
12211,-9.4498,-14.166
12223,-13.38,-13.527
12234,-10.861,-12.819
12246,-15.767,-16.791
12258,-13.539,-15.888
12270,-11.865,-15.112
12281,-12.499,-13.717
12293,-9.6097,-15.063
12305,-10.562,-16.784
12316,-11.332,-15.312
12328,-11.357,-12.88
12340,-12.488,-13.669
12352,-11.59,-13.577
12363,-7.2944,-11.89
12375,-11.5,-13.591
12387,-9.4092,-14.252
12398,-10.411,-14.254
12410,-10.375,-11.536
12422,-10.92,-10.097
12434,-16.172,-12.648
12445,-11.386,-15.992
12457,-9.4546,-15.06
12469,-10.674,-13.905
12480,-11.728,-15.311
12492,-11.257,-14.302
12504,-9.8911,-14.774
12516,-7.9761,-19.082
12527,-9.2662,-16.391
12539,-9.0922,-12.194
12551,-8.9979,-13.001
12563,-11.167,-16.381
12574,-11.283,-18.143
12586,-13.706,-18.156
12598,-12.762,-18.382
12609,-10.297,-17.578
12621,-9.7476,-14.425
12633,-11.681,-14.676
12645,-9.7162,-16.915
12656,-8.0356,-19.171
12668,-9.9389,-14.355
12680,-9.7383,-12.645
12691,-8.1069,-13.818
12703,-7.2375,-16.918
12715,-10.434,-16.742
12727,-10.08,-16.23
12738,-8.0468,-14.574
12750,-10.181,-13.648
12762,-8.8709,-11.522
12773,-6.1461,-11.169
12785,-8.1605,-14.103
12797,-12.223,-12.497
12809,-12.464,-12.929
12820,-11.727,-15.344
12832,-8.2912,-12.92
12844,-9.3951,-11.79
12855,-12.483,-16.678
12867,-9.2676,-19.48
12879,-11.447,-18.602
12891,-13.71,-16.279
12902,-13.722,-13.542
12914,-13.423,-16.163
12926,-12.145,-11.801
12938,-9.4006,-10.778
12949,-11.43,-13.043
12961,-11.147,-14.041
12973,-13.392,-15.379
12984,-12.32,-13.695
12996,-9.9923,-12.922
13008,-10.268,-12.696
13020,-11.731,-13.658
13031,-11.958,-15.83
13043,-10.567,-15.939
13055,-11.251,-18.52
13066,-14.12,-16.019
13078,-13.116,-12.993
13090,-16.256,-15.894
13102,-16.764,-16.153
13113,-12.47,-13.546
13125,-12.903,-13.094
13137,-12.887,-16.445
13148,-14.118,-17.863
13160,-9.8711,-16.098
13172,-11.613,-15.067
13184,-13.409,-16.472
13195,-13.728,-15.333
13207,-13.217,-14.499
13219,-12.409,-16.09
13230,-11.962,-15.568
13242,-11.171,-11.385
13254,-11.295,-13.695
13266,-13.08,-12.238
13277,-15.231,-14.177
13289,-14.404,-16.878
13301,-11.053,-15.137
13313,-13.216,-16.048
13324,-10.515,-16.405
13336,-8.094,-17.525
13348,-9.4168,-15.97
13359,-10.902,-15.471
13371,-12.73,-16.239
13383,-12.313,-14.998
13395,-13.294,-14.153
13406,-14.312,-12.389
13418,-16.787,-15.013
13430,-13.504,-12.443
13441,-13.975,-16.658
13453,-15.167,-17.513
13465,-14.199,-15.33
13477,-12.136,-15.263
13488,-13.36,-15.547
13500,-12.584,-13.973
13512,-11.64,-13.686
13523,-12.656,-12.973
13535,-14.784,-13.329
13547,-15.368,-14.219
13559,-13.333,-13.296
13570,-10.396,-13.055
13582,-10.815,-12.281
13594,-12.498,-15.255
13605,-11.978,-16.355
13617,-12.093,-13.803
13629,-13.153,-12.409
13641,-11.681,-15.998
13652,-13.659,-20.418
13664,-14.355,-19.497
13676,-12.683,-17.808
13688,-11.979,-17.647
13699,-14.492,-15.282
13711,-15.956,-13.941
13723,-11.96,-15.565
13734,-11.626,-15.978
13746,-14.194,-15.217
13758,-13.251,-15.465
13770,-12.803,-17.411
13781,-11.373,-18.549
13793,-10.833,-17.227
13805,-14.609,-15.055
13816,-14.251,-14.274
13828,-13.807,-18.036
13840,-12.943,-17.855
13852,-13.041,-17.269
13863,-14.33,-15.354
13875,-13.557,-15.685
13887,-13.434,-13.673
13898,-12.479,-12.455
13910,-16.023,-15.398
13922,-16.102,-14.887
13934,-16.106,-14.375
13945,-15.431,-14.454
13957,-13.909,-15
13969,-11.617,-13.635
13980,-9.4939,-15.499
13992,-10.82,-12.95
14004,-14.319,-14.751
14016,-14.061,-17.722
14027,-12.222,-15.977
14039,-13.797,-13.841
14051,-15.246,-13.051
14063,-14.914,-14.854
14074,-15.842,-16.232
14086,-13.137,-13.984
14098,-13.224,-16.539
14109,-13.656,-17.956
14121,-15.934,-17.66
14133,-16.87,-15.372
14145,-11.956,-14.272
14156,-14.362,-13.637
14168,-17.393,-14.142
14180,-14.473,-13.941
14191,-11.721,-14.605
14203,-13.614,-15.678
14215,-13.288,-17.69
14227,-13.165,-15.788
14238,-15.134,-12.622
14250,-14.348,-17.463
14262,-14.733,-18.188
14273,-12.645,-18.966
14285,-11.663,-16.142
14297,-13.547,-13.709
14309,-12.959,-13.203
14320,-13.765,-18.21
14332,-15.005,-16.521
14344,-15.186,-17.497
14355,-15.011,-16.936
14367,-12.814,-17.595
14379,-11.778,-15.928
14391,-11.172,-14.183
14402,-12.5,-14.742
14414,-16.518,-16.191
14426,-14.125,-17.247
14438,-15.463,-17.833
14449,-13.145,-18.836
14461,-13.289,-16.64
14473,-16.155,-16.382
14484,-13.94,-13.873
14496,-15.396,-17.218
14508,-16.233,-17.629
14520,-15.082,-18.44
14531,-16.581,-16.975
14543,-18.911,-14.207
14555,-18.038,-14.661
14566,-16.104,-21.101
14578,-14.556,-20.138
14590,-12.192,-20.318
14602,-12.96,-18.168
14613,-14.717,-16.271
14625,-13.963,-20.738
14637,-13.101,-15.92
14648,-12.03,-15.008
14660,-11.803,-18.716
14672,-12.539,-22.694
14684,-16.702,-21.962
14695,-17.096,-20.152
14707,-16.138,-21.2
14719,-14.259,-19.17
14730,-13.665,-16.212
14742,-14.739,-15.603
14754,-16.71,-14.682
14766,-17.705,-15.347
14777,-12.934,-15.182
14789,-14.66,-16.908
14801,-15.678,-18.929
14813,-16,-18.045
14824,-13.777,-14.594
14836,-11.115,-13.788
14848,-13.15,-14.072
14859,-15.092,-20.374
14871,-16.563,-20.187
14883,-16.465,-17.798
14895,-16.349,-16.528
14906,-14.736,-17.225
14918,-16.045,-16.028
14930,-16.924,-16.065
14941,-16.85,-16.557
14953,-13.886,-16.235
14965,-15.191,-15.003
14977,-15.774,-14.825
14988,-15.25,-18.192
15000,-11.967,-16.64
15012,-12.309,-18.276
15023,-11.528,-15.239
15035,-5.7756,-15.977
15047,3.8759,-4.4333
15059,2.1704,-5.8306
15070,-9.2024,-17.74
15082,-14.715,-18.516
15094,-15.957,-20.13
15105,-17.78,-19.827
15117,-17.475,-16.827
15129,-16.061,-17.004
15141,-18.025,-15.999
15152,-17.583,-16.313
15164,-15.239,-19.416
15176,-15.511,-20.26
15188,-16.322,-17.422
15199,-16.957,-18.931
15211,-16.815,-16.244
15223,-14.464,-13.457
15234,-16.075,-16.208
15246,-16.886,-18.513
15258,-17.496,-19.968
15270,-16.971,-19.815
15281,-17.325,-20.228
15293,-16.182,-20.182
15305,-15.703,-17.227
15316,-15.831,-18.883
15328,-15.881,-14.314
15340,-17.472,-15.033
15352,-18.437,-18.097
15363,-16.362,-18.379
15375,-16.562,-21.461
15387,-17.455,-20.267
15398,-17.541,-18.459
15410,-16.778,-21.321
15422,-14.148,-16.856
15434,-17.774,-16.785
15445,-13.563,-19.073
15457,-14.833,-17.977
15469,-19.101,-14.917
15480,-14.768,-14.812
15492,-14.523,-16.762
15504,-16.418,-19.766
15516,-15.205,-20.509
15527,-14.531,-18.786
15539,-15.225,-17.779
15551,-17.07,-19.593
15563,-18.698,-22.739
15574,-21.433,-18.506
15586,-18.383,-19.083
15598,-16.791,-18.777
15609,-16.885,-18.451
15621,-18.021,-20.165
15633,-16.026,-19.491
15645,-15.968,-18.581
15656,-14.478,-19.041
15668,-14.522,-19.724
15680,-15.724,-19.795
15691,-13.423,-20.807
15703,-14.44,-20.925
15715,-14.2,-20.69
15727,-15.792,-19.767
15738,-17.443,-21.975
15750,-18.925,-18.657
15762,-16.383,-18.1
15773,-15.854,-19.419
15785,-15.804,-17.657
15797,-15.48,-17.032
15809,-15.914,-18.737
15820,-14.701,-16.045
15832,-17.243,-15.194
15844,-18.737,-16.805
15855,-17.678,-16.154
15867,-16.383,-17.686
15879,-16.809,-18.8
15891,-15.094,-22.625
15902,-14.306,-24.761
15914,-17.237,-21.662
15926,-22.208,-19.671
15938,-17.383,-20.213
15949,-15.834,-17.637
15961,-15.257,-20.981
15973,-14.217,-21.437
15984,-16.934,-21.244
15996,-17.759,-20.102
16008,-16.563,-20.936
16020,-15.477,-18.14
16031,-16.779,-19.129
16043,-17.687,-19.596
16055,-15.595,-15.864
16066,-15.821,-17.605
16078,-18.901,-16.455
16090,-16.13,-18.785
16102,-18.282,-19.081
16113,-17.567,-19.042
16125,-15.018,-20.388
16137,-16.194,-19.265
16148,-18.879,-18.965
16160,-18.891,-18.502
16172,-17.302,-16.472
16184,-17.217,-19.007
16195,-18.228,-20.029
16207,-18.071,-20.376
16219,-15.239,-20.64
16230,-15.85,-19.894
16242,-18.422,-16.906
16254,-18.459,-16.786
16266,-18.996,-16.947
16277,-19.224,-20.123
16289,-20.893,-20.765
16301,-20.051,-18.999
16313,-18.591,-18.184
16324,-17.252,-21.063
16336,-16.662,-21.688
16348,-16.647,-18.643
16359,-17.671,-19.69
16371,-15.78,-21.766
16383,-15.14,-19.907
16395,-18.385,-20.607
16406,-21.715,-22.014
16418,-19.023,-19.077
16430,-16.732,-17.479
16441,-15.667,-18.923
16453,-16.541,-22.903
16465,-15.84,-20.109
16477,-19.331,-19.606
16488,-15.855,-19.353
16500,-16.278,-18.248
16512,-16.633,-19.136
16523,-17.89,-19.574
16535,-17.683,-18.604
16547,-18.166,-19.382
16559,-20.848,-15.441
16570,-18.916,-14.393
16582,-18.057,-17.451
16594,-18.356,-22.746
16605,-18.14,-22.244
16617,-17.644,-20.104
16629,-19.428,-19.864
16641,-18.809,-19.084
16652,-19.535,-19.716
16664,-20.577,-19.778
16676,-20.986,-21.244
16688,-16.764,-19.006
16699,-14.177,-18.632
16711,-16.194,-19.429
16723,-17.558,-20.906
16734,-17.372,-19.897
16746,-18.041,-18.889
16758,-20.526,-20.647
16770,-21.093,-19.646
16781,-19.56,-20.27
16793,-19.221,-22.296
16805,-17.295,-21.233
16816,-17.149,-23.542
16828,-17.663,-24.21
16840,-18.03,-19.726
16852,-16.45,-18.758
16863,-16.919,-20.427
16875,-19.44,-21.005
16887,-18.018,-19.905
16898,-17.868,-20.753
16910,-17.469,-18.363
16922,-18.959,-19.378
16934,-20.389,-20.789
16945,-20.335,-21.713
16957,-20.869,-21.738
16969,-19.322,-21.136
16980,-17.681,-18.048
16992,-18.444,-16.985
17004,-20.281,-20.037
17016,-22.282,-24.738
17027,-17.274,-23.219
17039,-17.493,-19.784
17051,-17.827,-18.952
17063,-19.433,-21.175
17074,-21.191,-18.939
17086,-21.783,-19.565
17098,-21.811,-21.649
17109,-21.629,-21.219
17121,-20.781,-24.684
17133,-19.624,-23.197
17145,-18.412,-20.288
17156,-19.082,-22.426
17168,-19.716,-24.455
17180,-21.82,-21.323
17191,-20.272,-20.025
17203,-21.92,-19.202
17215,-19.592,-17.934
17227,-17.869,-20.154
17238,-22.211,-20.875
17250,-21.993,-20.583
17262,-20.909,-21.519
17273,-24.672,-22.557
17285,-24.451,-22.469
17297,-21.809,-19.345
17309,-22.067,-18.194
17320,-20.295,-18.93
17332,-20.297,-20.28
17344,-21.324,-20.021
17355,-22.621,-22.512
17367,-20.257,-24.041
17379,-18.679,-21.693
17391,-19.423,-19.856
17402,-22.265,-20.147
17414,-19.765,-23.38
17426,-19.918,-21.763
17438,-20.195,-21.419
17449,-22.261,-22.657
17461,-21.75,-21.165
17473,-19.188,-22.413
17484,-18.706,-24.2
17496,-19.423,-19.332
17508,-18.392,-20.249
17520,-19.016,-21.19
17531,-21.501,-22.845
17543,-25.164,-24.043
17555,-21.47,-23.595
17566,-23.073,-23.602
17578,-22.072,-23.129
17590,-19.354,-22.941
17602,-17.452,-21.602
17613,-20.625,-21.571
17625,-20.051,-22.522
17637,-20.238,-21.662
17648,-18.933,-23.134
17660,-17.085,-22.17
17672,-20.482,-21.161
17684,-19.147,-23.404
17695,-18.604,-23.698
17707,-21.17,-22.803
17719,-23.123,-19.126
17730,-23,-18.086
17742,-21.991,-24.204
17754,-20.542,-22.827
17766,-22.837,-23.173
17777,-21.959,-24.18
17789,-20.84,-22.389
17801,-19.509,-23.138
17813,-21.159,-21.259
17824,-21.066,-22.721
17836,-19.559,-20.58
17848,-20.499,-21.198
17859,-19.928,-24.449
17871,-19.946,-21.733
17883,-19.729,-21.378
17895,-22.033,-22.249
17906,-20.699,-24.114
17918,-22.347,-24.011
17930,-25.765,-22.93
17941,-22.265,-21.519
17953,-19.383,-21.334
17965,-20.63,-22.038
17977,-22.027,-22.006
17988,-20.152,-20.83
18000,-19.848,-20.073
18012,-23.084,-25.641
18023,-20.97,-22.934
18035,-20.358,-19.971
18047,-20.567,-20.77
18059,-21.155,-23.322
18070,-23.347,-22.458
18082,-23.437,-23.66
18094,-21.015,-25.171
18105,-19.777,-22.65
18117,-23.384,-22.528
18129,-26.426,-23.127
18141,-22.444,-22.822
18152,-19.79,-23.16
18164,-21.803,-21.281
18176,-21.653,-21.61
18188,-23.474,-21.667
18199,-23.553,-22.65
18211,-22.414,-21.706
18223,-23.132,-23.813
18234,-20.34,-21.011
18246,-19.858,-20.147
18258,-22.914,-22.468
18270,-22.455,-23.764
18281,-24.114,-22.013
18293,-25.415,-22.063
18305,-23.573,-23.133
18316,-20.577,-24.243
18328,-19.127,-25.087
18340,-20.218,-25.315
18352,-20.612,-25.327
18363,-20.712,-23.737
18375,-18.4,-21.79
18387,-19.16,-19.521
18398,-21.983,-22.148
18410,-20.481,-25.067
18422,-20.993,-20.989
18434,-23.845,-20.673
18445,-25.069,-23.911
18457,-23.756,-26.514
18469,-22.705,-23.621
18480,-23.207,-20.478
18492,-20.559,-21.378
18504,-22.648,-22.098
18516,-20.74,-23.719
18527,-23.13,-23.101
18539,-23.476,-23.279
18551,-23.046,-23.736
18563,-23.129,-24.351
18574,-22.484,-19.821
18586,-22.66,-20.505
18598,-23.03,-20.606
18609,-25.118,-21.027
18621,-24.795,-21.484
18633,-24.649,-20.899
18645,-24.194,-23.618
18656,-22.702,-23.796
18668,-21.532,-21.851
18680,-24.315,-23.709
18691,-24.922,-25.502
18703,-22.456,-24.877
18715,-21.521,-24.866
18727,-19.022,-25.213
18738,-21.92,-24.192
18750,-22.856,-21.642
18762,-24.806,-21.302
18773,-23.484,-21.918
18785,-20.492,-23.553
18797,-20.745,-23.5
18809,-19.576,-24.879
18820,-20.183,-24.076
18832,-21.275,-23.493
18844,-19.05,-24.246
18855,-20.249,-20.541
18867,-23.87,-23.243
18879,-20.731,-23.297
18891,-22.511,-21.941
18902,-21.145,-22.781
18914,-21.843,-24.556
18926,-26.772,-23.676
18938,-23.943,-23.258
18949,-20.451,-22.813
18961,-21.317,-23.035
18973,-21.678,-23.447
18984,-21.415,-21.894
18996,-22.95,-18.727
19008,-24.233,-19.444
19020,-23.064,-23.584
19031,-21.284,-21.978
19043,-21.748,-19.984
19055,-22.775,-22.012
19066,-22.919,-22.519
19078,-20.952,-24.079
19090,-22.16,-24.693
19102,-22.762,-25.245
19113,-23.799,-25.38
19125,-23.041,-25.591
19137,-21.51,-23.418
19148,-20.272,-23.495
19160,-22.569,-26.166
19172,-23.732,-22.096
19184,-22,-25.039
19195,-21.976,-23.8
19207,-21.756,-22.818
19219,-20.026,-24.252
19230,-20.024,-23.033
19242,-22.069,-23.752
19254,-21.378,-21.04
19266,-22.243,-21.006
19277,-23.062,-24.313
19289,-23.103,-23.915
19301,-22.791,-20.551
19313,-20.607,-23.079
19324,-20.019,-24.533
19336,-21.864,-21.581
19348,-22.76,-22.719
19359,-22.442,-22.666
19371,-22.366,-22.58
19383,-25.82,-22.708
19395,-23.708,-23.892
19406,-24.248,-24.556
19418,-23.165,-25.608
19430,-19.718,-23.987
19441,-19.73,-24.114
19453,-20.51,-26.753
19465,-20.593,-26.028
19477,-21.841,-24.677
19488,-25.071,-24.176
19500,-23.227,-23.366
19512,-22.221,-26.449
19523,-23.825,-25.436
19535,-22.612,-22.638
19547,-22.29,-21.844
19559,-22.867,-22.696
19570,-21.665,-24.372
19582,-24.081,-22.799
19594,-19.992,-21.081
19605,-21.847,-23.681
19617,-20.575,-23.043
19629,-20.804,-22.572
19641,-23.78,-23.083
19652,-21.998,-22.58
19664,-20.485,-21.647
19676,-19.256,-22.629
19688,-19.686,-21.025
19699,-22.189,-21.539
19711,-20.699,-22.221
19723,-19.121,-25.136
19734,-19.735,-25.872
19746,-17.969,-24.89
19758,-18.745,-25.109
19770,-20.74,-25.955
19781,-21.202,-25.379
19793,-23.542,-26.79
19805,-22.949,-25.069
19816,-22.484,-25.371
19828,-20.853,-22.962
19840,-21.028,-22.819
19852,-21.609,-23.515
19863,-20.812,-27.312
19875,-23.284,-25.821
19887,-20.957,-25.18
19898,-21.864,-25.43
19910,-21.208,-24.116
19922,-23.962,-23.246
19934,-24.38,-24.662
19945,-22.992,-25.484
19957,-21.48,-24.576
19969,-19.863,-24.432
19980,-20.716,-24.529
19992,-22.679,-23.98
20004,-24.235,-20.726
20016,-21.861,-24.277
20027,-23.931,-27.185
20039,-22.399,-27.547
20051,-21.119,-27.777
20063,-20.628,-26.182
20074,-20.892,-24.347
20086,-21.257,-22.788
20098,-20.846,-25.662
20109,-22.922,-27.14
20121,-21.006,-24.887
20133,-19.904,-24.964
20145,-22.528,-23.258
20156,-20.891,-23.999
20168,-21.074,-24.218
20180,-24.059,-25.345
20191,-22.77,-23.588
20203,-20.089,-26.837
20215,-19.148,-27.966
20227,-17.872,-28.409
20238,-18.251,-23.376
20250,-21.399,-21.789
20262,-20.934,-28.93
20273,-20.846,-26.64
20285,-20.309,-23.149
20297,-19.244,-22.314
20309,-22.935,-23.911
20320,-21.746,-23.839
20332,-21.896,-26.395
20344,-18.818,-25.425
20355,-22.303,-25.803
20367,-25.385,-24.632
20379,-25.817,-28.253
20391,-22.616,-27.975
20402,-19.461,-25.916
20414,-20.13,-25.673
20426,-23.285,-22.559
20438,-20.415,-21.294
20449,-20.097,-25.81
20461,-23.58,-25.519
20473,-21.041,-25.309
20484,-21.057,-23.135
20496,-21.664,-24.506
20508,-20.38,-25.784
20520,-22.822,-26.495
20531,-22.692,-25.879
20543,-21.839,-26.642
20555,-21.926,-30.022
20566,-23.772,-26.017
20578,-26.604,-21.257
20590,-21.391,-22.711
20602,-20.926,-25.074
20613,-22.491,-22.783
20625,-22.727,-23.069
20637,-22.038,-24.892
20648,-23.221,-25.164
20660,-23.94,-24.776
20672,-21.931,-26.411
20684,-22.764,-23.058
20695,-24.374,-23.509
20707,-24.132,-24.562
20719,-24.259,-23.762
20730,-21.694,-24.652
20742,-20.33,-23.734
20754,-22.563,-26.393
20766,-21.523,-24.396
20777,-22.91,-23.797
20789,-23.651,-26.703
20801,-23.169,-28.392
20813,-22.578,-25.391
20824,-21.711,-27.17
20836,-21.533,-25.603
20848,-25.054,-25.029
20859,-25.537,-24.368
20871,-26.756,-27.249
20883,-24.317,-28.85
20895,-24.777,-24.906
20906,-23.075,-25.436
20918,-21.249,-27.364
20930,-22.475,-28.102
20941,-23.964,-29.201
20953,-23.918,-26.571
20965,-23.294,-26.96
20977,-21.401,-27.603
20988,-25.274,-24.952
21000,-22.276,-22.154
21012,-21.33,-24.151
21023,-21.555,-25.854
21035,-22.293,-24.861
21047,-23.128,-25.137
21059,-22.407,-26.103
21070,-23.749,-25.986
21082,-23.553,-29.494
21094,-22.516,-29.866
21105,-21.006,-28.176
21117,-21.375,-27.703
21129,-21.955,-27.002
21141,-22.987,-27.889
21152,-23.437,-27.825
21164,-23.95,-26.71
21176,-24.904,-26.016
21188,-22.108,-27.391
21199,-22.244,-27.751
21211,-26.248,-27.637
21223,-27.16,-26.523
21234,-22.947,-26.79
21246,-21.571,-24.205
21258,-25.481,-25.083
21270,-24.337,-27.772
21281,-24.429,-29.714
21293,-24.712,-25.618
21305,-24.321,-25.762
21316,-24.285,-26.997
21328,-23.896,-26.932
21340,-24.158,-26.424
21352,-24.257,-25.345
21363,-24.417,-25.242
21375,-24.105,-28.385
21387,-23.461,-25.792
21398,-23.051,-24.5
21410,-22.811,-24.333
21422,-24.223,-24.234
21434,-24.537,-25.906
21445,-25.738,-27.956
21457,-27.344,-27.45
21469,-25.343,-25.689
21480,-25.437,-25.114
21492,-27.133,-25.154
21504,-24.827,-26.812
21516,-24.373,-27.307
21527,-23.31,-27.084
21539,-21.682,-29.222
21551,-24.635,-30.252
21563,-21.9,-28.381
21574,-22.305,-26.608
21586,-23.897,-27.903
21598,-22.357,-26.427
21609,-23.531,-25.134
21621,-25.287,-26.6
21633,-22.234,-27.643
21645,-21.465,-28.544
21656,-28.697,-29.769
21668,-25.854,-29.796
21680,-29.59,-27.086
21691,-27.025,-24.892
21703,-24.526,-27.73
21715,-23.009,-26.148
21727,-24.23,-23.916
21738,-25.614,-23.809
21750,-25.825,-23.988
21762,-24.618,-27.759
21773,-26.951,-27.677
21785,-25.137,-25.628
21797,-28.254,-27.739
21809,-27.081,-31.245
21820,-28.012,-28.763
21832,-25,-27.734
21844,-26.258,-27.569
21855,-27.418,-28.922
21867,-24.758,-32.155
21879,-27.388,-28.43
21891,-28.294,-24.33
21902,-24.353,-25.412
21914,-22.151,-27.703
21926,-23.763,-30.436
21938,-24.778,-26.915
21949,-25.164,-24.291
21961,-25.895,-25.196
21973,-23.195,-26.112
21984,-21.424,-26.031
21996,-22.954,-24.614
22008,-24.818,-27.19
22020,-23.882,-28.452
22031,-26.775,-28.339
22043,-26.021,-27.806
22055,-26.258,-28.202
22066,-25.378,-27.016
22078,-26.172,-28.557
22090,-22.711,-29.561
22102,-25.862,-27.02
22113,-27.567,-27.511
22125,-22.655,-27.14
22137,-24.857,-26.763
22148,-25.847,-29.501
22160,-26.003,-29.074
22172,-26.472,-26.459
22184,-25.902,-24.861
22195,-26.353,-26.431
22207,-27.505,-25.847
22219,-26.57,-26.199
22230,-24.671,-27.079
22242,-24.244,-23.307
22254,-24.776,-24.139
22266,-22.463,-26.93
22277,-25.493,-27.249
22289,-24.603,-26.865
22301,-24.508,-26.68
22313,-25.171,-26.544
22324,-24.313,-26.853
22336,-23.389,-27.649
22348,-23.7,-28.019
22359,-26.474,-29.26
22371,-26.318,-28.88
22383,-26.591,-29.358
22395,-24.236,-27.702
22406,-23.945,-26.551
22418,-24.423,-26.862
22430,-26.239,-28.294
22441,-28.861,-27.344
22453,-27.317,-28.375
22465,-24.016,-29.109
22477,-24.288,-25.742
22488,-24.914,-27.552
22500,-26.881,-26.668
22512,-29.184,-26.083
22523,-29.008,-29.614
22535,-26.825,-27.962
22547,-25.13,-27.825
22559,-19.37,-24.684
22570,-8.1943,-24.128
22582,-7.9691,-23.298
22594,-18.206,-27.308
22605,-25.044,-24.994
22617,-28.647,-27.808
22629,-25.517,-28.577
22641,-24.501,-26.766
22652,-27.499,-26.408
22664,-26.435,-28.337
22676,-28.648,-27.683
22688,-27.333,-24.636
22699,-25.186,-26.373
22711,-27.448,-26.78
22723,-27.362,-28.831
22734,-24.796,-31.118
22746,-23.722,-30.236
22758,-27.415,-30.033
22770,-28.497,-27.785
22781,-29.428,-27.525
22793,-28.862,-26.129
22805,-28.365,-25.806
22816,-30.937,-31.31
22828,-30.446,-29.234
22840,-28.438,-29.056
22852,-26.504,-27.677
22863,-25.452,-27.503
22875,-26.446,-28.6
22887,-28.241,-29.521
22898,-30.798,-28.623
22910,-29.595,-28.311
22922,-28.411,-29.411
22934,-28.616,-27.425
22945,-27.709,-28.64
22957,-29.01,-27.041
22969,-27.029,-25.884
22980,-23.586,-28.126
22992,-24.176,-29.696
23004,-27.48,-26.216
23016,-25.861,-26.937
23027,-26.337,-26.993
23039,-27.835,-25.628
23051,-26.074,-24.66
23063,-25.255,-28.705
23074,-24.201,-28.385
23086,-24.921,-29.059
23098,-25.937,-27.417
23109,-26.922,-30.033
23121,-26.215,-29.978
23133,-28.601,-26.984
23145,-27.528,-28.881
23156,-26.583,-26.924
23168,-26.239,-29.592
23180,-27.496,-27.33
23191,-27.771,-27.627
23203,-26.655,-29.925
23215,-28.074,-29.773
23227,-27.038,-26.935
23238,-24.176,-29.237
23250,-26.66,-26.946
23262,-26.07,-29.313
23273,-28.401,-31.161
23285,-30.177,-29.424
23297,-25.687,-26.779
23309,-25.978,-26.424
23320,-27.161,-30.132
23332,-26.879,-30.865
23344,-26.422,-28.668
23355,-26.513,-29.523
23367,-26.689,-28.68
23379,-27.812,-29.413
23391,-28.152,-25.708
23402,-28.529,-25.711
23414,-29.673,-27.247
23426,-27.664,-30.714
23438,-24.628,-27.732
23449,-28.986,-25.075
23461,-30.405,-28.236
23473,-26.882,-28.362
23484,-25.907,-27.503
23496,-27.517,-28.186
23508,-28.547,-26.99
23520,-27.668,-28.04
23531,-27.143,-29.038
23543,-26.365,-30.281
23555,-29.445,-30.582
23566,-29.36,-25.884
23578,-29.128,-27.935
23590,-29.564,-26.87
23602,-26.35,-26.122
23613,-25.887,-28.816
23625,-28.497,-27.786
23637,-26.774,-29.031
23648,-26.552,-29.676
23660,-27.724,-28.761
23672,-27.338,-27.922
23684,-27.656,-26.366
23695,-29.709,-30.316
23707,-30.654,-29.357
23719,-29.035,-27.318
23730,-28.257,-27.617
23742,-25.012,-30.306
23754,-25.795,-30.111
23766,-26.503,-30.232
23777,-23.989,-30.027
23789,-26.172,-31.334
23801,-27.284,-33.53
23813,-28.552,-31.334
23824,-29.502,-30.268
23836,-27.838,-29.358
23848,-27.597,-29.628
23859,-30.713,-28.633
23871,-30.463,-30.1
23883,-30.035,-28.511
23895,-28.838,-28.969
23906,-25.648,-30.077
23918,-25.05,-28.441
23930,-26.909,-27.539
23941,-28.231,-26.512
23953,-30.529,-28.374
23965,-27.317,-26.784
23977,-27.973,-27.811
23988,-30.19,-27.615
