FFT,Power Spectrum
Frequency[Hz],Level-L[dB],Level-R[dB]
11.719,-23.993,-23.379
23.438,-4.3637,-4.817
35.156,-2.7054,4.7011
46.875,2.6631,8.8464
58.594,5.6712,11.572
70.313,7.0002,14.967
82.031,6.3783,16.114
93.75,9.3398,17.923
105.47,10.34,17.994
117.19,11.03,15.938
128.91,13.829,19.904
140.63,14.699,23.494
152.34,8.4238,25.656
164.06,6.2482,21.032
175.78,6.3962,21.442
187.5,14.115,24.119
199.22,18.555,24.925
210.94,31.798,24.088
222.66,48.5,26.942
234.38,50.203,25.881
246.09,38.694,22.684
257.81,21.611,25.022
269.53,12.882,24.442
281.25,16.555,24.245
292.97,13.288,22.764
304.69,7.5506,22.482
316.41,4.4972,25.607
328.13,4.33,24.063
339.84,7.0693,23.986
351.56,8.645,23.354
363.28,7.6042,25.283
375,6.0851,24.794
386.72,6.0154,26.096
398.44,9.769,23.971
410.16,9.1073,23.077
421.88,7.7108,23.196
433.59,7.4937,26.272
445.31,8.497,26.678
457.03,8.7697,26.299
468.75,7.6145,24.248
480.47,7.8931,22.011
492.19,6.1981,24.282
503.91,5.1238,28.051
515.63,8.4385,24.974
527.34,6.8126,23.122
539.06,4.2221,26.084
550.78,0.74469,27.35
562.5,4.7446,27.734
574.22,5.2512,26.919
585.94,9.3216,26.857
597.66,8.1441,28.097
609.38,6.8889,25.909
621.09,8.0664,28.537
632.81,6.6647,27.049
644.53,6.3829,25.202
656.25,8.2206,24.545
667.97,8.2801,22.219
679.69,5.3308,25.841
691.41,5.3619,23.873
703.13,8.4044,24.048
714.84,8.6314,26.515
726.56,6.6348,29.645
738.28,7.0502,25.212
750,7.4897,23.397
761.72,8.6576,23.495
773.44,7.412,22.584
785.16,4.1325,22.87
796.88,6.7643,23.109
808.59,9.0359,22.542
820.31,8.9686,23.476
832.03,6.801,25.021
843.75,6.0352,27.28
855.47,6.1478,25.822
867.19,7.8416,23.332
878.91,8.7046,21.947
890.63,7.6882,24.406
902.34,8.6162,25.075
914.06,6.4928,24.673
925.78,7.095,26.095
937.5,3.2913,26.688
949.22,6.6765,24.977
960.94,8.4643,21.466
972.66,4.7853,21.163
984.38,5.866,25.466
996.09,7.4013,23.867
1007.8,5.9466,19.67
1019.5,7.7406,20.134
1031.3,8.7175,21.871
1043,9.3404,23.54
1054.7,6.1159,23.198
1066.4,8.1155,24.249
1078.1,11.89,24.263
1089.8,11.112,21.001
1101.6,8.7014,22.694
1113.3,7.6359,22.139
1125,8.554,23.476
1136.7,9.7028,23.629
1148.4,8.817,22.523
1160.2,6.2018,20.835
1171.9,6.2685,20.938
1183.6,6.5702,24.064
1195.3,9.3736,23.656
1207,9.0958,23.64
1218.8,5.191,24.528
1230.5,5.5438,22.692
1242.2,5.7846,22.577
1253.9,6.286,22.365
1265.6,6.5769,23.74
1277.3,5.7394,23.073
1289.1,4.5491,25.422
1300.8,5.7727,24.774
1312.5,8.8275,24.607
1324.2,6.7364,22.899
1335.9,2.7875,17.817
1347.7,0.81251,20.69
1359.4,4.592,23.26
1371.1,4.8928,22.724
1382.8,4.1761,23.944
1394.5,4.9801,24.635
1406.3,5.6106,22.996
1418,4.941,23.9
1429.7,6.6027,25.784
1441.4,5.3872,22.238
1453.1,3.7301,21.973
1464.8,7.7043,21.102
1476.6,8.5,19.852
1488.3,4.7956,19.872
1500,7.0074,23.524
1511.7,6.4068,26.238
1523.4,4.7501,24.495
1535.2,1.8895,22.99
1546.9,4.5848,22.312
1558.6,7.6521,24.186
1570.3,8.4521,22.905
1582,9.6878,21.782
1593.8,10.017,21.934
1605.5,7.2978,24.111
1617.2,3.046,22.688
1628.9,4.3533,21.907
1640.6,7.8627,20.871
1652.3,8.0889,20.486
1664.1,8.0448,22.66
1675.8,7.7803,25.412
1687.5,5.4368,24.189
1699.2,3.566,22.444
1710.9,2.4333,24.711
1722.7,1.7088,23.991
1734.4,4.2556,23.547
1746.1,3.226,22.733
1757.8,2.2401,18.159
1769.5,5.4959,20.403
1781.3,3.3771,22.626
1793,4.8551,22.398
1804.7,3.8835,22.184
1816.4,3.1628,25.536
1828.1,2.7379,26.318
1839.8,0.90899,24.482
1851.6,-0.63288,22.491
1863.3,1.986,19.563
1875,3.5374,24.096
1886.7,4.1259,24.969
1898.4,4.0044,23.375
1910.2,4.359,21.176
1921.9,3.8032,21.945
1933.6,3.9371,18.415
1945.3,2.587,20.065
1957,2.6032,21.431
1968.8,2.3988,24.434
1980.5,2.6423,24.296
1992.2,3.689,23.212
2003.9,-0.2645,22.63
2015.6,-0.55939,23.62
2027.3,1.3269,23.647
2039.1,1.3492,20.452
2050.8,2.5448,21.847
2062.5,0.96626,23.895
2074.2,2.9104,23.241
2085.9,4.2826,20.337
2097.7,3.0871,21.234
2109.4,3.6725,20.087
2121.1,5.3969,20.894
2132.8,5.7166,19.481
2144.5,4.8206,21.051
2156.3,5.1442,22.325
2168,1.9086,21.107
2179.7,0.78358,24.022
2191.4,2.9908,22.679
2203.1,1.0311,23.865
2214.8,3.037,23.358
2226.6,2.4865,21.158
2238.3,1.0556,23.062
2250,-0.56939,22.939
2261.7,1.1831,18.83
2273.4,1.6802,19.39
2285.2,2.5567,19.699
2296.9,1.6,19.22
2308.6,2.5039,22.248
2320.3,5.1568,25.139
2332,6.4619,23.797
2343.8,6.0322,22.549
2355.5,4.6882,23.022
2367.2,3.3785,24.556
2378.9,-0.8797,21.544
2390.6,1.6847,17.614
2402.3,3.7355,18.004
2414.1,2.0665,20.329
2425.8,0.8424,20.87
2437.5,2.6211,18.888
2449.2,3.4651,18.738
2460.9,3.6416,16.599
2472.7,2.6445,18.927
2484.4,3.1527,19.643
2496.1,2.929,21.685
2507.8,1.9122,19.823
2519.5,3.9412,19.171
2531.3,3.2874,19.339
2543,-0.52068,21.381
2554.7,2.6648,22.794
2566.4,2.6293,18.512
2578.1,1.7224,21.638
2589.8,-0.73134,19.746
2601.6,0.11553,23.174
2613.3,1.7456,20.652
2625,3.834,21.717
2636.7,2.9172,22.283
2648.4,1.0571,21.606
2660.2,1.2227,20.515
2671.9,4.2176,20.934
2683.6,4.144,19.355
2695.3,2.2371,22.888
2707,0.49718,21.508
2718.8,0.4196,18.681
2730.5,0.26357,17.526
2742.2,1.718,17.759
2753.9,0.022304,17.514
2765.6,0.75,19.098
2777.3,1.0802,21.625
2789.1,1.5264,23.209
2800.8,-1.2023,19.272
2812.5,0.62078,22.533
2824.2,1.9672,19.217
2835.9,-0.81503,20.132
2847.7,1.4234,18.927
2859.4,1.4747,18.592
2871.1,1.1595,18.342
2882.8,1.7823,19.786
2894.5,0.016827,20.072
2906.3,-2.1557,19.759
2918,-0.66434,16.813
2929.7,0.18736,22.734
2941.4,2.8715,21.344
2953.1,2.4171,19
2964.8,-1.015,19.079
2976.6,0.27703,19.11
2988.3,0.28004,18.858
3000,-2.1687,21.087
3011.7,-0.99264,19.037
3023.4,0.19796,16.417
3035.2,-0.43381,18.595
3046.9,0.14126,18.764
3058.6,0.9534,19.018
3070.3,-1.0244,19.585
3082,-1.3695,19.669
3093.8,1.5003,16.417
3105.5,2.5523,16.56
3117.2,1.7728,18.337
3128.9,-1.0875,17.527
3140.6,-2.2102,17.829
3152.3,-0.08177,18.072
3164.1,-1.6057,19.793
3175.8,-0.87554,20.942
3187.5,1.5391,19.374
3199.2,-0.16283,17.599
3210.9,-2.0016,16.562
3222.7,-0.69357,16.623
3234.4,0.13925,17.701
3246.1,-0.79983,19.737
3257.8,-0.78536,21.94
3269.5,-0.19674,20.348
3281.3,-0.068592,17.905
3293,0.27834,17.15
3304.7,1.0007,17.726
3316.4,0.5048,19.741
3328.1,-1.0041,22.533
3339.8,-0.2786,23.554
3351.6,-0.20564,19.199
3363.3,-2.2971,19.342
3375,-3.6676,21.58
3386.7,0.44131,19.861
3398.4,1.5276,20.405
3410.2,1.397,18.271
3421.9,1.3421,19.415
3433.6,-0.36001,18.297
3445.3,-1.3978,18.239
3457,-2.0644,17.458
3468.8,0.36022,19.477
3480.5,-0.97374,18.216
3492.2,-1.7837,15.57
3503.9,-2.3029,17.04
3515.6,-1.3656,16.565
3527.3,0.69803,17.54
3539.1,-1.2322,18.233
3550.8,-3.7843,16.272
3562.5,-2.4662,17.141
3574.2,0.38252,16.356
3585.9,0.65122,17.663
3597.7,-4.8482,18.904
3609.4,-4.1483,16.23
3621.1,-2.3403,14.912
3632.8,-2.1667,15.94
3644.5,1.3782,16.366
3656.3,1.2056,15.686
3668,-4.5225,14.868
3679.7,-1.6999,20.896
3691.4,1.124,22.551
3703.1,-1.699,21.434
3714.8,-3.7839,20.034
3726.6,-3.0978,18.525
3738.3,-3.1567,17.448
3750,-2.6056,13.788
3761.7,-3.3419,13.716
3773.4,-2.2539,19.876
3785.2,-1.1188,20.902
3796.9,-2.178,18.721
3808.6,-0.42724,16.412
3820.3,-1.3154,16.452
3832,-3.194,15.975
3843.8,-2.6519,17.482
3855.5,-1.0159,16.38
3867.2,-4.54,14.263
3878.9,-0.65762,15.341
3890.6,-0.78251,13.348
3902.3,-1.3712,13.913
3914.1,-2.2311,17.137
3925.8,-0.36612,17.076
3937.5,-1.6323,18.022
3949.2,-0.64903,17.437
3960.9,-2.3889,17.573
3972.7,-2.6685,16.673
3984.4,-2.2805,15.181
3996.1,-3.2307,12.287
4007.8,-7.1327,14.024
4019.5,-2.9045,17.559
4031.3,0.14482,16.679
4043,-4.9524,17.376
4054.7,-3.6195,17.749
4066.4,-4.2727,17.498
4078.1,-1.231,18.389
4089.8,1.2205,20.051
4101.6,0.20016,20.492
4113.3,-0.65337,17.024
4125,-1.1818,16.232
4136.7,-4.4912,18.942
4148.4,-5.0961,15.599
4160.2,-1.7076,17.326
4171.9,-4.6343,20.249
4183.6,-4.844,20.358
4195.3,-2.153,18.239
4207,-1.9427,14.782
4218.8,-2.7733,17.587
4230.5,-4.4283,20.171
4242.2,-1.3666,18.421
4253.9,-1.3323,16.298
4265.6,-2.6187,16.591
4277.3,0.033984,15.641
4289.1,-3.3076,18.173
4300.8,-4.6731,18.641
4312.5,-3.5878,20.725
4324.2,-3.7223,19.853
4335.9,-3.7107,16
4347.7,-2.7778,16.358
4359.4,-2.434,16.001
4371.1,0.31717,18.665
4382.8,-0.6558,18.769
4394.5,-2.0805,17.272
4406.3,-4.9981,17.627
4418,-3.6943,18.028
4429.7,-1.5455,16.922
4441.4,-1.2281,17.431
4453.1,-0.83229,18.737
4464.8,-2.4093,17.245
4476.6,-4.6291,17.232
4488.3,-0.89635,17.006
4500,-0.29737,15.81
4511.7,-1.5022,18.638
4523.4,-2.3293,20.529
4535.2,-4.3803,17.973
4546.9,-4.2464,16.959
4558.6,-1.1762,15.793
4570.3,-2.3431,17.165
4582,-2.7284,16.257
4593.8,-0.052479,15.014
4605.5,-0.39093,15.815
4617.2,-3.4307,19.17
4628.9,-3.5488,17.153
4640.6,-1.5735,15.361
4652.3,-4.0253,17.555
4664.1,-4.0054,14.375
4675.8,-2.6641,18.865
4687.5,-2.0067,16.007
4699.2,-2.0437,14.84
4710.9,-0.68039,16.322
4722.7,1.0623,16.709
4734.4,-1.9004,18.374
4746.1,-3.3656,18.317
4757.8,-4.3521,17.089
4769.5,-5.1892,15.527
4781.3,-3.8216,19.486
4793,-1.101,22.383
4804.7,-3.5749,16.363
4816.4,-3.2822,14.167
4828.1,-4.4454,14.155
4839.8,-3.7746,16.268
4851.6,-3.0905,18.612
4863.3,-4.6602,17.372
4875,-4.6288,15.001
4886.7,-2.4767,15.697
4898.4,-1.1927,15.672
4910.2,-2.9417,15.931
4921.9,-6.2103,14.769
4933.6,-2.3824,15.275
4945.3,0.10719,15.218
4957,-0.38296,15.458
4968.8,0.25582,15.047
4980.5,-1.4878,14.278
4992.2,-2.3778,14.535
5003.9,-2.1965,17.554
5015.6,-1.8731,17.788
5027.3,-2.2762,15.539
5039.1,-2.3557,15.154
5050.8,-2.4587,18.411
5062.5,-3.141,19.239
5074.2,-3.5296,16.745
5085.9,-4.2879,14.346
5097.7,-1.0248,15.424
5109.4,-4.626,15.952
5121.1,-4.4185,14.749
5132.8,-3.2562,15.135
5144.5,-3.6492,15.819
5156.3,-3.615,14.441
5168,-4.3593,14.114
5179.7,-3.0143,15.811
5191.4,-2.6344,17.493
5203.1,-4.259,13.643
5214.8,-2.7,15.007
5226.6,-3.3858,16.459
5238.3,-3.3734,17.089
5250,-2.6547,14.762
5261.7,-2.3845,15.042
5273.4,-5.1539,16.785
5285.2,-4.604,15.411
5296.9,-4.5715,15.993
5308.6,-3.7534,16.8
5320.3,-1.7011,15.792
5332,-2.3782,15.489
5343.8,-3.7916,13.406
5355.5,-5.7595,13.048
5367.2,-3.525,15.551
5378.9,-2.38,15.685
5390.6,-5.4376,15.201
5402.3,-4.5288,15.569
5414.1,-3.64,17.766
5425.8,-4.3878,18.139
5437.5,-7.7107,15.848
5449.2,-4.2112,16.335
5460.9,1.1298,15.378
5472.7,0.52133,15.816
5484.4,-3.3693,14.332
5496.1,-6.4253,12.421
5507.8,-3.6206,14.342
5519.5,-4.0793,13.041
5531.3,-4.6025,15.575
5543,-5.5488,14.804
5554.7,-5.3978,12.506
5566.4,-5.3531,15.934
5578.1,-5.1959,16.654
5589.8,-4.1012,12.431
5601.6,-3.8994,13.023
5613.3,-1.3276,14.566
5625,-3.7424,11
5636.7,-4.2596,13.641
5648.4,-2.3454,16.225
5660.2,-1.9537,14.903
5671.9,-3.0145,13.618
5683.6,-2.8246,15.609
5695.3,-3.5514,13.789
5707,-3.3701,14.007
5718.8,-1.7313,15.164
5730.5,-2.0028,12.821
5742.2,-4.4994,15.133
5753.9,-5.4344,16.348
5765.6,-4.6212,16.037
5777.3,-4.7252,13.233
5789.1,-4.4013,13.022
5800.8,-4.2515,12.893
5812.5,-3.9686,15.319
5824.2,-1.2405,16.497
5835.9,-1.4089,13.684
5847.7,-3.2404,15.332
5859.4,-2.4304,17.244
5871.1,-3.903,15.864
5882.8,-6.6135,14.076
5894.5,-5.8454,16.092
5906.3,-4.2132,15.735
5918,-4.2512,12.649
5929.7,-3.9058,12.266
5941.4,-6.3994,13.103
5953.1,-7.2981,15.541
5964.8,-4.1758,19.104
5976.6,-4.1388,17.664
5988.3,-5.0872,14.888
6000,-5.3571,16.351
6011.7,-6.3454,14.183
6023.4,-3.3644,12.725
6035.2,-5.9054,11.92
6046.9,-4.0455,12.495
6058.6,-2.7225,16.385
6070.3,-10.63,17.647
6082,-6.7838,14.014
6093.8,-3.7662,12.237
6105.5,-3.4324,10.53
6117.2,-8.9593,10.45
6128.9,-9.4223,14.213
6140.6,-7.6452,15.829
6152.3,-5.8125,16.549
6164.1,-8.7838,11.588
6175.8,-9.7286,14.508
6187.5,-6.0826,13.545
6199.2,-3.9884,11.142
6210.9,-5.1707,13.176
6222.7,-4.5123,11.7
6234.4,-6.2024,11.154
6246.1,-6.1463,15.297
6257.8,-5.3746,15.188
6269.5,-5.74,10.952
6281.3,-8.354,12.359
6293,-10.043,13.88
6304.7,-8.5638,15.774
6316.4,-5.4338,16.996
6328.1,-8.8138,14.784
6339.8,-7.3128,15.067
6351.6,-5.4344,12.583
6363.3,-5.5722,12.125
6375,-5.4376,14.28
6386.7,-4.763,15.548
6398.4,-3.3273,13.204
6410.2,-2.516,13.112
6421.9,-5.7942,14.545
6433.6,-8.7142,12.799
6445.3,-5.4943,11.345
6457,-5.0867,12.151
6468.8,-4.8018,13.263
6480.5,-6.2726,13.044
6492.2,-4.0787,13.993
6503.9,-4.1399,14.429
6515.6,-6.0841,11.623
6527.3,-8.3372,12.034
6539.1,-5.6553,13.705
6550.8,-3.3031,13.382
6562.5,-2.9861,11.262
6574.2,-4.5408,11.847
6585.9,-7.9217,14.365
6597.7,-7.9392,15.206
6609.4,-8.4818,11.334
6621.1,-6.092,13.1
6632.8,-5.3141,15.627
6644.5,-8.0045,14.968
6656.3,-4.9911,14.074
6668,-4.405,15.84
6679.7,-10.386,16.658
6691.4,-7.4082,17.104
6703.1,-5.4871,15.224
6714.8,-6.9261,11.365
6726.6,-7.4847,12.461
6738.3,-6.4412,14.46
6750,-4.1717,12.432
6761.7,-6.752,13.701
6773.4,-9.8647,14.339
6785.2,-6.5171,11.795
6796.9,-5.9717,11.662
6808.6,-7.4936,13.656
6820.3,-8.0611,13.892
6832,-7.0663,12.358
6843.8,-6.4399,10.35
6855.5,-5.7482,13.81
6867.2,-5.1104,13.791
6878.9,-7.129,12.026
6890.6,-8.1239,13.269
6902.3,-5.3454,11.619
6914.1,-6.5824,11.922
6925.8,-7.7606,9.5133
6937.5,-10.035,14.464
6949.2,-7.8763,15.109
6960.9,-5.7878,12.216
6972.7,-5.6288,11.053
6984.4,-5.2276,10.26
6996.1,-3.9318,12.341
7007.8,-5.1549,12.657
7019.5,-4.0183,11.094
7031.3,-2.6596,13.927
7043,-7.2319,12.239
7054.7,-7.9693,12.708
7066.4,-10.551,9.2489
7078.1,-8.1024,14.054
7089.8,-7.1763,16.16
7101.6,-8.0875,14.021
7113.3,-8.6689,12.639
7125,-6.5462,15.238
7136.7,-5.3238,15.084
7148.4,-5.6026,14.18
7160.2,-7.2158,12.905
7171.9,-4.8616,12.013
7183.6,-5.6825,15.422
7195.3,-5.1327,13.154
7207,-5.1465,16.568
7218.8,-8.745,16.093
7230.5,-8.7408,14.438
7242.2,-8.2879,14.198
7253.9,-6.7318,9.6367
7265.6,-9.0811,13.695
7277.3,-7.7355,15.177
7289.1,-4.1729,13.38
7300.8,-5.9476,10.613
7312.5,-8.5741,16.553
7324.2,-7.8681,14.052
7335.9,-7.0809,14.357
7347.7,-8.4127,10.519
7359.4,-6.8599,10.556
7371.1,-5.1762,13.438
7382.8,-5.8847,14.815
7394.5,-6.7145,14.666
7406.3,-6.5502,8.4696
7418,-6.6921,9.58
7429.7,-6.3765,8.8116
7441.4,-8.3514,10.964
7453.1,-8.3932,8.6776
7464.8,-7.3454,9.639
7476.6,-8.5425,11.496
7488.3,-8.5397,9.0622
7500,-9.7329,13.745
7511.7,-8.02,16.563
7523.4,-6.9794,17.615
7535.2,-7.2876,15.882
7546.9,-8.0469,13.341
7558.6,-8.0952,11.997
7570.3,-6.976,12.998
7582,-9.5905,14.573
7593.8,-5.5638,13.364
7605.5,-5.639,10.035
7617.2,-7.5263,11.823
7628.9,-8.2364,11.942
7640.6,-9.0061,11.871
7652.3,-5.2561,10.054
7664.1,-5.1611,8.9591
7675.8,-7.6651,11.99
7687.5,-8.0735,10.275
7699.2,-8.5176,9.6329
7710.9,-7.6063,10.809
7722.7,-7.0204,13.494
7734.4,-7.7396,11.704
7746.1,-9.9852,10.605
7757.8,-11.258,12.252
7769.5,-10.745,10.779
7781.3,-8.5263,13.804
7793,-8.4262,14.779
7804.7,-5.5944,9.5369
7816.4,-6.9857,12.098
7828.1,-9.0697,12.484
7839.8,-6.4048,10.131
7851.6,-6.6179,10.795
7863.3,-7.2473,11.297
7875,-8.9047,13.286
7886.7,-8.1796,13.208
7898.4,-7.574,12.073
7910.2,-8.8982,13.306
7921.9,-8.7952,12.449
7933.6,-8.0119,11.134
7945.3,-9.7271,8.3247
7957,-11.173,10.707
7968.8,-9.0139,13.353
7980.5,-11.593,12.124
7992.2,-9.2239,12.402
8003.9,-11.629,11.063
8015.6,-13.222,11.368
8027.3,-11.029,11.741
8039.1,-10.202,10.374
8050.8,-9.8999,10.154
8062.5,-13.287,10.951
8074.2,-8.8252,10.402
8085.9,-11.078,12.706
8097.7,-9.7022,15.783
8109.4,-10.053,13.725
8121.1,-10.781,13.675
8132.8,-10.573,11.789
8144.5,-14.053,11.145
8156.3,-8.8933,14.057
8168,-9.1103,14.218
8179.7,-11.88,12.679
8191.4,-8.1902,12.044
8203.1,-7.3931,12.066
8214.8,-8.4822,11.778
8226.6,-10.114,12.542
8238.3,-9.3981,15.299
8250,-10.241,16.04
8261.7,-9.4233,12.835
8273.4,-9.5471,12.972
8285.2,-9.375,14.065
8296.9,-9.1462,13.898
8308.6,-11.599,10.717
8320.3,-11.12,11.861
8332,-8.3753,10.09
8343.8,-6.1416,9.9669
8355.5,-7.1651,12.421
8367.2,-7.5064,12.076
8378.9,-8.6492,11.798
8390.6,-9.2844,10.723
8402.3,-10.207,10.839
8414.1,-9.8056,10.99
8425.8,-9.437,10.52
8437.5,-9.0348,9.5368
8449.2,-8.8642,10.033
8460.9,-9.2471,11.632
8472.7,-11.524,10.869
8484.4,-10.087,6.4593
8496.1,-9.3479,8.6946
8507.8,-6.5841,9.7336
8519.5,-7.8494,10.669
8531.3,-7.9115,10.93
8543,-10.366,10.845
8554.7,-15.605,11.285
8566.4,-10.34,9.6963
8578.1,-6.5804,8.0164
8589.8,-9.7609,10.219
8601.6,-10.684,10.389
8613.3,-10.185,10.636
8625,-12.235,9.8802
8636.7,-11.169,8.1242
8648.4,-12.028,6.3744
8660.2,-11.296,8.1055
8671.9,-7.2014,9.5644
8683.6,-8.6177,11.734
8695.3,-9.2635,12.495
8707,-7.0435,12.458
8718.8,-6.4693,7.8173
8730.5,-7.3679,7.5517
8742.2,-10.286,8.5981
8753.9,-10.892,11.946
8765.6,-8.8508,12.483
8777.3,-7.1751,10.525
8789.1,-7.2492,10.761
8800.8,-8.8202,11.463
8812.5,-11.369,10.288
8824.2,-10.97,9.9634
8835.9,-10.458,10.323
8847.7,-9.2058,8.4755
8859.4,-9.0462,9.2891
8871.1,-8.8851,9.0443
8882.8,-11.156,8.6824
8894.5,-10.967,11.346
8906.3,-11.111,10.916
8918,-11.562,9.3224
8929.7,-11.692,8.636
8941.4,-10.384,9.8829
8953.1,-11.061,11.525
8964.8,-8.7307,11.606
8976.6,-7.4453,10.067
8988.3,-10.112,9.5374
9000,-7.8279,10.733
9011.7,-10.888,11.279
9023.4,-13.67,8.7572
9035.2,-11.005,6.1283
9046.9,-11.092,9.8926
9058.6,-10.513,8.1156
9070.3,-9.4886,9.0663
9082,-9.3259,8.2946
9093.8,-9.05,7.6848
9105.5,-9.6324,9.6258
9117.2,-9.5724,8.389
9128.9,-9.9689,9.0939
9140.6,-12.328,10.611
9152.3,-10.224,9.4247
9164.1,-9.123,6.6411
9175.8,-11.7,10.176
9187.5,-12.558,12.671
9199.2,-12.619,11.027
9210.9,-10.87,9.5469
9222.7,-10.498,14.083
9234.4,-11.427,11.98
9246.1,-10.244,10.209
9257.8,-13.037,8.2752
9269.5,-12.547,10.062
9281.3,-13.175,7.2808
9293,-11.341,8.5537
9304.7,-11.118,10.18
9316.4,-12.034,12.93
9328.1,-14.085,10.766
9339.8,-11.996,9.658
9351.6,-12.847,11.019
9363.3,-11.136,10.654
9375,-6.7213,8.6149
9386.7,-7.6659,9.108
9398.4,-9.421,9.3024
9410.2,-12.305,9.2302
9421.9,-11.269,9.1544
9433.6,-10.995,12.296
9445.3,-13.039,11.62
9457,-12.779,9.6141
9468.8,-12.014,11.141
9480.5,-10.063,9.4008
9492.2,-7.0905,7.4698
9503.9,-12.22,7.7028
9515.6,-10.474,8.7295
9527.3,-8.9923,9.0463
9539.1,-8.5073,9.5021
9550.8,-8.007,10.868
9562.5,-10.75,11.127
9574.2,-11.646,8.0834
9585.9,-12.769,7.8612
9597.7,-11.822,4.705
9609.4,-11.128,7.6552
9621.1,-12.294,8.4579
9632.8,-12.957,7.5602
9644.5,-10.326,11.072
9656.3,-9.0161,9.9215
9668,-7.5726,10.406
9679.7,-10.637,9.4496
9691.4,-12.088,7.8676
9703.1,-10.509,8.7025
9714.8,-10.123,9.8569
9726.6,-11.584,9.0343
9738.3,-13.346,11.16
9750,-13.911,9.8449
9761.7,-10.383,12.08
9773.4,-9.5434,12.393
9785.2,-10.017,11.272
9796.9,-7.5588,10.995
9808.6,-9.4838,9.9813
9820.3,-11.332,7.6974
9832,-10.724,9.8971
9843.8,-12.397,10.848
9855.5,-9.6924,10.646
9867.2,-11.888,9.8543
9878.9,-10.403,11.637
9890.6,-9.6823,11.013
9902.3,-8.9422,11.468
9914.1,-10.96,10.942
9925.8,-12.104,11.239
9937.5,-14.897,10.947
9949.2,-14.265,10.669
9960.9,-11.311,11.296
9972.7,-13.337,10.444
9984.4,-10.492,7.7772
9996.1,-11.887,7.5255
10008,-11.802,8.8147
10020,-9.366,8.2593
10031,-9.7845,9.1378
10043,-15.893,11.367
10055,-13.052,9.989
10066,-10.325,11.514
10078,-9.9148,8.1267
10090,-12.668,4.852
10102,-13.921,5.6834
10113,-10.695,7.6675
10125,-10.064,8.1732
10137,-13.325,9.3468
10148,-11.713,7.2684
10160,-7.531,8.6548
10172,-8.0493,9.6844
10184,-10.178,7.9447
10195,-12.017,7.6035
10207,-11.5,9.3162
10219,-13.083,10.635
10230,-13.449,10.881
10242,-11.094,7.0211
10254,-10.495,4.6952
10266,-12.697,5.4567
10277,-14.978,8.3976
10289,-15.043,8.9654
10301,-14.459,7.0627
10313,-9.826,7.98
10324,-10.845,10.507
10336,-13.093,10.606
10348,-15.191,4.8454
10359,-10.991,7.261
10371,-12.265,7.3141
10383,-10.988,3.7421
10395,-10.431,6.915
10406,-9.9445,6.7776
10418,-11.761,6.5327
10430,-12.361,7.5791
10441,-11.914,7.0882
10453,-9.9157,9.7539
10465,-13.508,9.815
10477,-14.602,6.483
10488,-13.455,6.0404
10500,-12.097,6.9757
10512,-12.668,8.5417
10523,-14.128,8.9354
10535,-11.917,8.1443
10547,-13.074,6.9818
10559,-10.935,8.0038
10570,-9.9972,9.94
10582,-12.127,10.015
10594,-12.138,9.6399
10605,-11.754,7.1863
10617,-11.718,8.5761
10629,-14.771,7.613
10641,-11.608,12.168
10652,-10.012,13.37
10664,-11.669,11.252
10676,-12.601,9.4041
10688,-14.124,9.187
10699,-14.386,6.8978
10711,-14.386,9.4759
10723,-9.7539,8.0064
10734,-8.4436,7.7867
10746,-11.331,8.133
10758,-13.19,8.3374
10770,-10.332,7.095
10781,-10.244,6.5491
10793,-11.533,6.1195
10805,-11.469,8.1967
10816,-12.458,6.7613
10828,-13.343,8.1283
10840,-12.611,8.4372
10852,-9.9484,5.6227
10863,-9.341,5.5842
10875,-7.9733,5.3214
10887,-10.663,6.954
10898,-13.435,8.7666
10910,-16.58,4.6541
10922,-11.907,7.3939
10934,-11.245,8.5997
10945,-11.078,5.8265
10957,-10.269,6.0523
10969,-11.585,6.2152
10980,-12.683,6.0342
10992,-12.31,6.4463
11004,-9.1414,7.498
11016,-9.4628,8.3653
11027,-11.198,8.8045
11039,-10.171,8.7115
11051,-10.95,8.5666
11063,-13.191,8.942
11074,-11.295,10.275
11086,-10.561,8.2263
11098,-11.668,8.2579
11109,-11.932,9.5677
11121,-11.627,7.2578
11133,-13.211,9.0497
11145,-12.454,10.496
11156,-10.172,10.851
11168,-14.28,11.553
11180,-12.924,10.569
11191,-10.095,8.2228
11203,-12.457,9.7208
11215,-12.458,9.9638
11227,-13.903,9.174
11238,-16.743,9.3895
11250,-15.01,10.269
11262,-13.616,8.3164
11273,-11.523,10.025
11285,-10.696,10.626
11297,-12.72,7.3774
11309,-14.371,6.5816
11320,-13.267,6.6715
11332,-11.413,5.4488
11344,-14.102,5.9611
11355,-12.087,8.3654
11367,-13.514,9.3357
11379,-12.739,6.1557
11391,-12.43,7.9369
11402,-12.951,11.168
11414,-13.979,11.708
11426,-14.668,6.1002
11438,-12.22,5.5391
11449,-13.805,5.3817
11461,-13.64,5.4548
11473,-12.078,7.6874
11484,-12.721,9.2026
11496,-13.88,8.8217
11508,-14.487,7.5442
11520,-13.823,5.7081
11531,-12.702,5.922
11543,-11.067,9.4079
11555,-14.069,9.4555
11566,-15.344,7.3755
11578,-15.547,9.0013
11590,-12.758,10.272
11602,-11.418,7.6646
11613,-10.824,8.3463
11625,-15.166,6.9608
11637,-14.752,4.1619
11648,-11.719,8.4549
11660,-11.251,10.268
11672,-10.667,8.9208
11684,-11.451,4.9533
11695,-13,4.4685
11707,-14.725,5.8353
11719,-10.916,6.9113
11730,-11.203,6.6744
11742,-11.473,7.3623
11754,-12.389,8.6316
11766,-11.157,8.6692
11777,-8.868,7.8974
11789,-11.586,6.5634
11801,-14.04,6.8008
11813,-13.378,5.105
11824,-14.223,7.4231
11836,-12.894,7.1525
11848,-12.608,7.6014
11859,-15.028,9.3996
11871,-13.741,9.3325
11883,-12.683,6.8907
11895,-10.958,4.8185
11906,-12.018,4.4359
11918,-12.022,6.7811
11930,-14.175,8.6862
11941,-15.106,7.5749
11953,-12.668,6.5973
11965,-11.5,7.0799
11977,-11.779,6.8557
11988,-15.71,7.7177
12000,-11.924,7.1005
12012,-11.024,6.975
12023,-10.393,5.5665
12035,-9.6243,3.8667
12047,-16.483,3.9729
12059,-11.058,6.8347
12070,-12.141,5.7464
12082,-14.037,6.3215
12094,-16.045,6.5573
12105,-14.249,5.3889
12117,-15.646,8.8862
12129,-15.535,6.8587
12141,-13.865,3.7026
12152,-13.594,6.0149
12164,-14.886,5.7137
12176,-15.838,5.8876
12188,-14.561,8.6158
12199,-12.394,11.882
12211,-12.325,9.0394
12223,-11.282,7.0188
12234,-12.039,7.1461
12246,-14.217,5.3259
12258,-14.34,3.3573
12270,-13.606,5.2424
12281,-12.946,7.6516
12293,-13.219,9.1805
12305,-11.474,8.1331
12316,-13.718,4.3698
12328,-11.243,5.4491
12340,-11.786,7.1919
12352,-11.828,8.5084
12363,-10.761,9.2418
12375,-13.423,8.7106
12387,-17.428,7.2955
12398,-18.869,7.5095
12410,-15.245,6.168
12422,-10.477,5.3155
12434,-10.765,3.9632
12445,-9.6333,5.2981
12457,-10.747,7.6161
12469,-12.127,7.9195
12480,-17.006,6.1159
12492,-12.774,4.8167
12504,-11.321,5.619
12516,-13.17,8.0099
12527,-11.634,9.062
12539,-12.141,4.2701
12551,-14.037,3.6736
12563,-12.532,4.7015
12574,-13.831,5.7276
12586,-13.238,4.3047
12598,-11.695,4.3423
12609,-13.192,5.0565
12621,-13.198,6.9958
12633,-11.85,6.1493
12645,-9.8629,5.1965
12656,-8.5483,7.8218
12668,-9.6193,9.0096
12680,-11.198,6.1745
12691,-12.16,4.7417
12703,-13.831,5.2598
12715,-14.087,8.785
12727,-13.295,6.8486
12738,-14.005,5.0298
12750,-10.471,5.7538
12762,-11.127,7.1234
12773,-13.469,4.2666
12785,-15.082,7.8687
12797,-16.331,8.1616
12809,-17.143,4.228
12820,-13.786,3.9763
12832,-13.224,2.0636
12844,-11.507,4.0192
12855,-11.863,6.2308
12867,-12.758,7.5376
12879,-14.721,7.7245
12891,-12.709,6.1341
12902,-14.795,5.9103
12914,-15.509,5.3412
12926,-14.15,7.6207
12938,-12.357,6.2611
12949,-13.398,6.7649
12961,-14.232,6.3892
12973,-14.925,3.8083
12984,-14.144,2.1783
12996,-11.429,4.5561
13008,-12.471,7.4343
13020,-13.374,5.2397
13031,-16.436,7.9487
13043,-14.852,4.0836
13055,-13.506,2.1978
13066,-11.442,5.8472
13078,-11.357,7.0598
13090,-15.383,7.3333
13102,-14.497,5.7278
13113,-12.103,6.566
13125,-9.6891,7.7576
13137,-12.715,6.6314
13148,-13.865,3.6227
13160,-11.417,4.668
13172,-9.4786,5.2141
13184,-12.114,4.0024
13195,-16.226,3.673
13207,-12.498,5.9912
13219,-11.541,7.9144
13230,-9.8089,4.4847
13242,-10.103,1.9479
13254,-14.939,5.1496
13266,-17.39,5.9147
13277,-13.885,6.1195
13289,-12.658,5.5697
13301,-13.826,2.7979
13313,-14.042,4.6797
13324,-12.212,7.6194
13336,-12.062,7.1827
13348,-13.241,6.1466
13359,-13.849,4.4823
13371,-14.084,7.0787
13383,-13.04,6.3814
13395,-13.861,6.0053
13406,-13.537,9.2317
13418,-11.77,7.0159
13430,-11.496,4.1912
13441,-13.007,2.8681
13453,-12.823,0.9998
13465,-12.945,3.8934
13477,-14.561,6.2013
13488,-18.229,5.8149
13500,-15.776,7.8256
13512,-14.065,5.716
13523,-15.376,5.887
13535,-14.881,7.3062
13547,-13.171,4.5115
13559,-12.003,2.059
13570,-13.945,3.0698
13582,-15.12,3.5643
13594,-12.793,4.0625
13605,-14.313,7.5663
13617,-14.174,7.8921
13629,-14.364,7.1654
13641,-15.398,8.8868
13652,-12.772,9.5186
13664,-9.7535,7.2547
13676,-11.984,7.1613
13688,-13.663,5.1541
13699,-14.091,6.6277
13711,-12.895,8.0085
13723,-13.071,5.9425
13734,-13.549,6.4875
13746,-13.511,5.1541
13758,-17.058,2.9842
13770,-13.552,6.1912
13781,-10.082,7.4277
13793,-13.04,6.4544
13805,-15.535,6.8479
13816,-15.864,4.0159
13828,-13.227,4.6101
13840,-15.031,4.2095
13852,-14.057,1.9216
13863,-13.08,4.0577
13875,-11.694,7.4177
13887,-14.832,6.4188
13898,-15.247,5.0084
13910,-17.049,5.5934
13922,-14.582,5.9196
13934,-15.395,4.7896
13945,-16.278,1.5283
13957,-15.461,3.1666
13969,-16.525,3.8182
13980,-18.096,8.7436
13992,-18.729,7.7119
14004,-15.657,3.1581
14016,-14.954,4.7564
14027,-15.049,3.5558
14039,-14.717,0.37352
14051,-13.282,3.7745
14063,-13.857,6.5222
14074,-13.902,7.9362
14086,-14.893,7.4721
14098,-17.112,6.8748
14109,-18.307,4.8107
14121,-17.03,0.78048
14133,-15.872,-1.9187
14145,-15.803,0.71775
14156,-17.836,-0.90461
14168,-17.063,3.8952
14180,-16.456,6.2502
14191,-14.023,6.1545
14203,-12.715,3.7996
14215,-15.22,1.6519
14227,-17.666,5.0772
14238,-19.275,7.3886
14250,-20.408,6.462
14262,-16.379,3.5883
14273,-14.179,1.5233
14285,-14.722,-0.77224
14297,-13.245,2.7952
14309,-13.018,3.6794
14320,-17.783,4.7996
14332,-15.292,5.878
14344,-16.185,4.0331
14355,-16.536,5.4465
14367,-16.658,5.4327
14379,-14.537,4.8065
14391,-13.481,4.0193
14402,-15.455,4.885
14414,-15.783,3.7061
14426,-14.698,3.0195
14438,-18.903,0.029094
14449,-17.584,3.2281
14461,-15.056,5.4641
14473,-13.093,2.1987
14484,-13.899,1.6346
14496,-13.844,4.5428
14508,-15.243,2.6321
14520,-17.124,2.5038
14531,-16.569,2.8486
14543,-16.97,3.753
14555,-17.603,5.6004
14566,-16.628,6.7929
14578,-16.327,6.8709
14590,-17.001,5.1769
14602,-15.671,3.306
14613,-16.619,5.2511
14625,-19.383,6.4107
14637,-15.959,6.24
14648,-15.352,3.5872
14660,-17.208,5.342
14672,-15.871,9.3034
14684,-14.005,8.6778
14695,-14.708,5.7725
14707,-15.538,5.1531
14719,-14.397,2.8882
14730,-14.645,3.9972
14742,-15.53,5.2216
14754,-15.613,3.8211
14766,-15.697,3.5894
14777,-14.863,2.7876
14789,-15.89,3.5688
14801,-15.907,1.7041
14813,-15.639,-1.6859
14824,-16.546,2.9192
14836,-18.299,1.5371
14848,-18.36,1.8271
14859,-16.709,4.0699
14871,-18.319,3.1034
14883,-18.925,6.7115
14895,-19.316,5.1629
14906,-17.595,-0.047049
14918,-16.966,4.6644
14930,-19.243,3.8597
14941,-15.095,1.5769
14953,-13.16,0.34227
14965,-16.236,4.5249
14977,-17.184,6.195
14988,-17.343,2.1124
15000,-20.727,1.4469
15012,-20.091,3.9427
15023,-18.048,5.6076
15035,-17.267,5.1216
15047,-16.755,1.7461
15059,-14.779,4.4853
15070,-16.818,2.8784
15082,-16.91,5.754
15094,-17.515,6.9586
15105,-17.926,4.6088
15117,-17.28,2.459
15129,-16.128,2.3145
15141,-16.31,1.1267
15152,-16.264,3.1953
15164,-15.055,4.8463
15176,-14.772,7.5845
15188,-17.292,6.0188
15199,-18.511,3.0933
15211,-18.184,3.5152
15223,-17.646,3.5669
15234,-17.185,1.1093
15246,-17.025,-0.71405
15258,-17.684,3.8035
15270,-19.116,5.3124
15281,-20.918,0.43597
15293,-18.007,5.7003
15305,-14.7,6.4704
15316,-16.295,4.4962
15328,-18.179,4.7263
15340,-18.783,5.9684
15352,-21.838,6.0548
15363,-21.67,4.2696
15375,-19.458,4.9967
15387,-20.599,8.3091
15398,-18.864,4.0141
15410,-20.822,3.7138
15422,-20.14,4.7498
15434,-20.574,6.6258
15445,-17.604,4.2465
15457,-19.135,1.8971
15469,-19.23,3.5452
15480,-19.192,4.8096
15492,-19.442,3.422
15504,-18.415,2.4561
15516,-17.985,0.41186
15527,-20.501,0.54188
15539,-19.47,1.1762
15551,-19.246,3.7743
15563,-19.704,3.9616
15574,-18.547,1.3325
15586,-17.373,2.96
15598,-16.758,3.7212
15609,-16.966,2.805
15621,-18.793,2.5735
15633,-18.36,2.9464
15645,-18.37,1.6936
15656,-20.491,-0.044923
15668,-16.254,0.87293
15680,-14.592,1.8656
15691,-17.196,2.6121
15703,-18.264,2.8724
15715,-18.268,1.1384
15727,-17.472,1.5665
15738,-15.056,1.825
15750,-14.428,1.8474
15762,-13.348,1.8241
15773,-13.795,5.0423
15785,-17.284,2.1624
15797,-18.949,1.0945
15809,-22.991,3.788
15820,-20.382,5.3976
15832,-20.072,3.4308
15844,-21.595,1.8288
15855,-21.754,1.7909
15867,-20.7,2.2829
15879,-16.229,1.2914
15891,-16.88,0.90871
15902,-18.685,1.472
15914,-19.185,2.5864
15926,-19.588,5.0977
15938,-20.102,4.8014
15949,-18.936,2.8403
15961,-19.195,4.8272
15973,-20.211,4.3681
15984,-17.131,1.1171
15996,-20.213,3.1688
16008,-21.065,2.5139
16020,-18.538,1.9832
16031,-19.887,1.1845
16043,-20.229,1.9711
16055,-19.636,4.6853
16066,-18.458,5.1682
16078,-20.332,1.5311
16090,-22.138,2.423
16102,-22.778,3.2649
16113,-18.941,0.72751
16125,-17.521,3.7268
16137,-19.372,0.88557
16148,-18.104,0.052434
16160,-20.005,1.173
16172,-21.841,1.7489
16184,-18.989,2.6886
16195,-19.485,3.8563
16207,-19.029,3.4235
16219,-18.263,1.6336
16230,-20.236,3.9187
16242,-20.21,6.4355
16254,-19.803,4.6594
16266,-20.754,1.0891
16277,-18.088,0.79462
16289,-18.265,-0.56062
16301,-17.896,3.3098
16313,-16.424,2.8895
16324,-19.009,1.6711
16336,-20.918,0.37145
16348,-20.971,1.1717
16359,-19.686,1.3638
16371,-18.794,-1.1665
16383,-19.28,2.6305
16395,-18.803,3.6884
16406,-22.336,0.91283
16418,-21.459,4.8259
16430,-17.758,3.2899
16441,-17.955,0.069524
16453,-19.433,0.5687
16465,-21.269,2.0817
16477,-18.094,3.8998
16488,-17.779,3.5354
16500,-20.584,1.1975
16512,-21.963,1.9356
16523,-20.436,1.0349
16535,-20.159,2.4493
16547,-22.643,3.7098
16559,-21.752,3.4987
16570,-21.992,3.7525
16582,-22.069,4.185
16594,-20.613,3.475
16605,-21.23,2.9385
16617,-21.458,2.2618
16629,-20.164,0.84758
16641,-19.663,0.22042
16652,-20.855,0.2962
16664,-22.026,-1.1716
16676,-18.682,-1.6246
16688,-17.603,0.33042
16699,-16.239,1.6513
16711,-17.263,-1.396
16723,-20.403,1.9653
16734,-24.068,0.99306
16746,-20.064,0.67491
16758,-22.334,1.9473
16770,-21.155,0.90986
16781,-23.257,1.518
16793,-22.445,0.6566
16805,-20.2,1.4961
16816,-21.71,2.6872
16828,-22.641,3.2657
16840,-22.602,2.957
16852,-17.659,0.60417
16863,-18.706,-0.036085
16875,-19.916,0.68189
16887,-23.624,1.4424
16898,-22.986,3.7506
16910,-20.073,2.1506
16922,-17.852,1.7725
16934,-18.804,0.84643
16945,-23.055,-0.39947
16957,-22.041,0.4224
16969,-20.213,-0.32008
16980,-18.637,1.5382
16992,-18.772,2.1549
17004,-22.188,0.49004
17016,-25.252,1.2296
17027,-23.347,4.1957
17039,-22.722,2.7649
17051,-18.454,1.7296
17063,-18.017,0.21719
17074,-19.572,-0.84107
17086,-19.059,1.2386
17098,-23.563,0.91432
17109,-22.446,1.7001
17121,-20.943,-0.0094448
17133,-19.937,1.9992
17145,-18.88,2.5072
17156,-21.073,2.5785
17168,-18.81,5.0733
17180,-19.688,3.9287
17191,-19.362,0.44905
17203,-20.144,0.65582
17215,-22.642,0.30359
17227,-23.76,1.2277
17238,-26.309,-0.95965
17250,-24.706,0.57967
17262,-24.268,4.6565
17273,-19.765,5.7784
17285,-18.226,2.7725
17297,-21.581,0.37322
17309,-21.807,2.311
17320,-21.01,0.56108
17332,-21.276,0.68782
17344,-22.882,0.45772
17355,-22.777,-0.93064
17367,-20.692,-1.1945
17379,-25.402,-0.40536
17391,-22.497,0.065475
17402,-20.72,2.313
17414,-20.723,0.99352
17426,-19.323,0.70926
17438,-19.269,0.41464
17449,-21.355,-0.23537
17461,-22.095,1.9684
17473,-24.27,-0.042472
17484,-23.057,-1.0472
17496,-21.386,-1.7429
17508,-21.433,-0.75457
17520,-18.333,1.9563
17531,-19.396,3.6759
17543,-22.131,0.54291
17555,-23.649,1.0362
17566,-21.236,1.9997
17578,-18.534,-0.95032
17590,-16.951,0.38884
17602,-19.838,0.64081
17613,-20.822,0.72032
17625,-18.196,1.5927
17637,-21.247,-0.84446
17648,-24.789,-2.0138
17660,-25.376,-0.4891
17672,-25.136,0.9515
17684,-24.87,1.3611
17695,-21.671,0.11783
17707,-20.765,0.49361
17719,-22.944,1.0386
17730,-24.567,-0.5744
17742,-21.394,2.6335
17754,-20.792,5.1229
17766,-23.056,1.1766
17777,-25.851,1.8182
17789,-22.603,1.315
17801,-22.77,-0.99597
17813,-21.18,-3.009
17824,-23.437,-3.4684
17836,-23.487,2.422
17848,-21.656,4.9962
17859,-21.015,0.52665
17871,-23.866,0.71066
17883,-23.49,2.097
17895,-24.398,1.0778
17906,-25.119,-0.24769
17918,-23.503,0.86888
17930,-24.945,2.9199
17941,-23.778,1.6577
17953,-22.906,1.5717
17965,-22.845,3.1076
17977,-22.894,0.83349
17988,-22.483,-0.41053
18000,-22.233,-0.57275
18012,-22.519,2.5683
18023,-21.574,2.3428
18035,-22.164,0.53738
18047,-23.436,0.21457
18059,-22.787,-0.33547
18070,-24.902,-1.8154
18082,-24.616,-2.0468
18094,-23.317,0.072501
18105,-22.676,1.0035
18117,-23.988,0.54927
18129,-24.762,-1.2768
18141,-26.871,-2.2715
18152,-22.398,-1.1441
18164,-19.547,-4.5096
18176,-20.34,2.8116
18188,-22.31,2.6953
18199,-22.572,-3.4565
18211,-21.139,0.29731
18223,-18.024,-1.3514
18234,-18.941,2.12
18246,-21.739,3.0636
18258,-22.153,-0.77651
18270,-22.722,-3.1421
18281,-22.881,-5.5662
18293,-21.428,2.1963
18305,-21.306,3.1368
18316,-24.541,1.176
18328,-22.583,2.7218
18340,-22.374,3.4379
18352,-19.528,1.2854
18363,-19.672,1.0195
18375,-20.55,1.3808
18387,-23.583,-0.069166
18398,-23.151,-1.0802
18410,-21.755,-0.39785
18422,-23.062,-0.23847
18434,-21.65,-2.4638
18445,-20.382,-1.3371
18457,-20.279,1.0313
18469,-22.043,1.3738
18480,-25.936,2.9
18492,-24.675,4.5632
18504,-23.06,3.0503
18516,-24.283,0.88398
18527,-21.074,0.9293
18539,-22.285,1.506
18551,-22.772,-0.41513
18563,-23.157,-1.286
18574,-21.897,1.109
18586,-21.966,5.0652
18598,-24.149,3.8977
18609,-21.122,4.2978
18621,-19.704,2.1981
18633,-21.356,0.43143
18645,-22.268,3.264
18656,-23.977,2.0282
18668,-26.644,0.56462
18680,-23.237,1.1202
18691,-22.452,0.52063
18703,-24.146,0.74642
18715,-24,-0.038008
18727,-26.297,-0.341
18738,-23.802,-1.8997
18750,-23.643,-1.6824
18762,-24.697,-2.3709
18773,-23.171,-2.323
18785,-22.173,0.38816
18797,-22.283,-2.3568
18809,-22.6,-0.19294
18820,-24.067,-1.2167
18832,-22.904,-3.118
18844,-23.303,-1.7802
18855,-22.314,-3.0063
18867,-21.148,-1.2386
18879,-24.055,-1.9939
18891,-23.115,-3.1631
18902,-22.898,-5.1147
18914,-26.128,-3.5314
18926,-22.639,1.3346
18938,-20.877,2.2845
18949,-23.196,0.56441
18961,-25.663,2.0315
18973,-23.306,1.0157
18984,-24.546,0.85627
18996,-25.792,1.0266
19008,-26.9,-1.6379
19020,-23.074,-0.54887
19031,-24.866,1.8673
19043,-27.647,2.4236
19055,-24.174,0.93854
19066,-23.031,-2.1395
19078,-22.773,-0.046224
19090,-23.312,-0.35259
19102,-25.097,-0.45625
19113,-27.736,-0.95874
19125,-27.525,-0.60654
19137,-26.717,0.050592
19148,-25.236,1.5763
19160,-25.537,1.4287
19172,-25.99,-1.7581
19184,-25.834,0.0958
19195,-27.5,0.33162
19207,-25.492,0.49442
19219,-23.22,0.56446
19230,-24.161,-2.7571
19242,-21.198,1.5828
19254,-19.018,1.2852
19266,-20.226,2.2902
19277,-22.234,0.99503
19289,-24.605,-1.2061
19301,-22.388,-2.8756
19313,-26.623,-1.0762
19324,-25.668,1.4571
19336,-23.97,0.12474
19348,-23.604,-2.1366
19359,-21.704,-3.1447
19371,-22.241,-1.9349
19383,-22.431,1.5564
19395,-28.081,1.4394
19406,-21.14,-1.2137
19418,-22.114,-2.1827
19430,-24.236,-3.338
19441,-24.472,-3.7707
19453,-21.293,-3.4355
19465,-22.725,-1.4458
19477,-23.669,1.2401
19488,-23.208,1.2526
19500,-23.528,-2.0943
19512,-24.31,-2.814
19523,-23.73,-2.1377
19535,-22.456,-1.338
19547,-23.84,-3.9332
19559,-26.532,-0.87138
19570,-21.998,0.49106
19582,-23.727,-3.2606
19594,-25.88,-2.9861
19605,-23.815,-0.021232
19617,-22.094,0.38161
19629,-23.179,-0.68193
19641,-24.996,-3.8276
19652,-24.383,-2.9202
19664,-24.3,-1.344
19676,-23.749,-2.4316
19688,-22.938,-3.4831
19699,-23.489,-2.8813
19711,-26.254,-0.72457
19723,-24.797,2.3081
19734,-26.612,3.6874
19746,-24.962,0.1019
19758,-27.518,-1.3154
19770,-26.462,2.4943
19781,-26.012,2.4643
19793,-24.948,0.92283
19805,-23.176,0.33266
19816,-24.789,-1.7188
19828,-23.441,0.16063
19840,-24.797,0.66215
19852,-26.243,0.17408
19863,-26,-1.1007
19875,-24.908,-3.081
19887,-25.097,-1.0039
19898,-26.064,0.52789
19910,-25.228,-2.781
19922,-22.819,-0.60347
19934,-22.475,-0.18495
19945,-24.419,-0.14104
19957,-26.667,-0.66384
19969,-25.814,-1.8658
19980,-26.818,-1.3848
19992,-24.373,-1.2817
20004,-25.198,-1.7838
20016,-24.449,-3.4484
20027,-26.947,-1.4557
20039,-27.516,-5.7096
20051,-26.84,-6.1071
20063,-28.975,-1.8411
20074,-26.116,0.17818
20086,-26.36,-1.7728
20098,-24.611,-3.7174
20109,-27.395,-2.5072
20121,-22.946,0.71107
20133,-23.334,1.0514
20145,-24.381,-0.81148
20156,-23.136,-2.3114
20168,-24.01,-3.7069
20180,-25.518,-2.4988
20191,-25.674,-3.851
20203,-24.753,-1.6425
20215,-26.828,-0.88809
20227,-23.849,0.45168
20238,-23.126,1.3658
20250,-23.991,-0.97396
20262,-24.751,-1.1343
20273,-23.798,-0.065222
20285,-25.23,-1.1514
20297,-27.025,-3.0162
20309,-28.125,-2.2105
20320,-27.514,-0.13326
20332,-26.719,-1.9374
20344,-26.523,-1.9942
20355,-26.43,-2.5593
20367,-26.209,-2.9632
20379,-25.467,-1.569
20391,-24.859,-0.35784
20402,-24.199,-1.1059
20414,-25.707,-2.6911
20426,-25.695,-2.7936
20438,-25.34,-3.7848
20449,-23.171,-0.26442
20461,-20.418,-1.2872
20473,-23.364,-4.4864
20484,-27.917,-5.3725
20496,-25.496,-3.4939
20508,-22.407,-1.202
20520,-21.746,0.95187
20531,-20.977,0.45061
20543,-23.937,0.33699
20555,-26.824,1.973
20566,-25.33,0.029676
20578,-24.243,-0.98972
20590,-25.173,-1.2579
20602,-24.231,-2.0277
20613,-22.262,-1.5898
20625,-23.907,-0.37546
20637,-25.301,-1.9053
20648,-25.293,-3.1247
20660,-27.71,-0.77035
20672,-26.948,-0.91573
20684,-26.438,0.22095
20695,-25.42,2.1703
20707,-23.193,-0.062105
20719,-24.853,-2.2479
20730,-26.255,-2.5038
20742,-23.571,-1.6098
20754,-21.16,-2.2454
20766,-30.581,-2.0767
20777,-23.811,-0.7088
20789,-24.558,-2.3925
20801,-24.769,-3.1414
20813,-24.059,-3.0616
20824,-22.668,-2.0124
20836,-27.88,-2.2291
20848,-28.265,-4.2147
20859,-26.479,-3.6997
20871,-26.818,-2.1
20883,-28.321,-1.5689
20895,-29.152,-2.7245
20906,-30.352,-1.0614
20918,-28.64,-3.5498
20930,-26.673,-2.0466
20941,-26.554,-2.7356
20953,-24.134,-1.6028
20965,-22.507,-2.6437
20977,-20.785,-0.67623
20988,-22.369,-1.3728
21000,-22.335,-2.4731
21012,-22.11,-1.9644
21023,-24.073,-0.9785
21035,-23.459,0.55002
21047,-24.136,-1.5616
21059,-28.296,-1.49
21070,-27.951,-1.7175
21082,-27.827,-1.546
21094,-27.663,-3.2033
21105,-28.652,-4.6895
21117,-26.815,-2.7966
21129,-26.182,0.43282
21141,-25.425,-0.66792
21152,-23.609,-3.1468
21164,-22.696,-3.9966
21176,-21.866,-4.3844
21188,-22.632,-1.3396
21199,-23.537,2.0397
21211,-25.621,0.8924
21223,-24.727,0.19939
21234,-24.526,-1.586
21246,-26.06,-4.8079
21258,-25.115,-4.9642
21270,-23.367,-4.4705
21281,-25.879,-1.5474
21293,-26.683,-1.9665
21305,-24.7,-2.3798
21316,-25.185,-1.6637
21328,-25.234,-2.3068
21340,-23.811,-2.825
21352,-23.009,-0.87142
21363,-21.459,-3.8874
21375,-21.743,-7.0657
21387,-19.07,-4.2263
21398,-19.332,-0.15291
21410,-22.725,-4.463
21422,-16.335,-4.433
21434,-16.944,-1.376
21445,-25.318,-1.4907
21457,-23.223,-3.9564
21469,-23.926,-2.7538
21480,-25.811,-4.8005
21492,-26.548,-2.5952
21504,-25.652,-1.4726
21516,-27.173,-1.7452
21527,-27.345,-2.0137
21539,-26.832,-3.8161
21551,-26.511,-6.2981
21563,-25.608,-3.7799
21574,-27.846,-3.8013
21586,-26.094,-0.82303
21598,-25.784,-0.70902
21609,-28.623,-3.3058
21621,-30.34,-5.4064
21633,-27.253,-6.9288
21645,-27.948,-3.6732
21656,-24.445,-0.67867
21668,-24.468,-1.9828
21680,-24.537,-0.55522
21691,-28.38,-0.22952
21703,-24.744,-1.5167
21715,-30.405,-4.873
21727,-31.12,-3.7314
21738,-24.467,-4.9691
21750,-23.963,-4.3587
21762,-24.763,-5.4914
21773,-24.657,-3.7964
21785,-26.609,-4.2508
21797,-27.527,-7.0549
21809,-27.164,-7.1194
21820,-27.095,-2.6709
21832,-27.959,0.66504
21844,-28.728,-0.3618
21855,-26.273,-2.6028
21867,-27.52,-2.4346
21879,-31.588,-2.4905
21891,-30.409,-5.5296
21902,-31.431,-5.2823
21914,-26.716,-2.4045
21926,-26.005,-1.1771
21938,-28.202,-1.1535
21949,-25.46,-0.11699
21961,-25.984,-4.1678
21973,-26.213,-3.2983
21984,-25.504,-4.1664
21996,-26.837,-2.0148
22008,-27.402,0.59717
22020,-26.357,0.22762
22031,-25.273,-3.0159
22043,-26.506,-1.3064
22055,-26.632,1.3422
22066,-26.507,-3.5604
22078,-25.965,-2.1734
22090,-26.371,-4.575
22102,-31.957,-0.88478
22113,-27.578,-1.04
22125,-27.867,-0.99343
22137,-27.024,-3.5082
22148,-25.611,-0.78042
22160,-27.399,-3.334
22172,-27.211,-5.5646
22184,-26.953,-2.3652
22195,-28.568,-2.0105
22207,-28.062,-2.4337
22219,-28.143,-5.1435
22230,-27.23,-2.7218
22242,-27.754,-2.8579
22254,-27.745,-2.4813
22266,-27.385,-1.1745
22277,-26.067,-3.3004
22289,-23.952,-3.2022
22301,-24.809,-2.9428
22313,-26.204,-6.289
22324,-26.829,-5.2236
22336,-26.532,-5.7644
22348,-25.536,-10.059
22359,-26.934,-4.6973
22371,-26.1,-3.6882
22383,-25.099,-3.3566
22395,-27.224,-3.1937
22406,-27.703,-4.9356
22418,-26.62,-2.7706
22430,-28.176,-0.76526
22441,-27.242,-6.0619
22453,-26.948,-7.851
22465,-27.293,-6.479
22477,-28.573,-6.4995
22488,-25.337,-4.0598
22500,-24.975,-1.2242
22512,-28.41,-2.7449
22523,-31.125,-5.1626
22535,-28.806,-3.2701
22547,-26.32,-2.385
22559,-24.826,-5.6047
22570,-24.68,-6.4003
22582,-26.083,-3.9528
22594,-28.343,-4.2534
22605,-28.461,-4.5378
22617,-26.529,-3.7047
22629,-26.552,-3.8286
22641,-25.804,-5.1176
22652,-25.917,-2.8837
22664,-26.319,-5.8276
22676,-28.217,-5.1478
22688,-29.112,-2.6196
22699,-28.412,-3.7393
22711,-25.738,-5.1051
22723,-25.38,-6.6801
22734,-27.309,-6.3175
22746,-28.255,-9.1787
22758,-23.022,-5.5649
22770,-22.986,-5.0364
22781,-27.209,-5.9955
22793,-31.089,-8.6116
22805,-30.577,-8.2078
22816,-26.632,-3.8703
22828,-26.239,-2.9205
22840,-29.145,-4.4975
22852,-26.633,-4.3229
22863,-25.823,-2.8445
22875,-24.72,-4.68
22887,-26.176,-5.6712
22898,-27.792,-4.9702
22910,-26.642,-4.8379
22922,-28.779,-4.4942
22934,-28.26,-7.5453
22945,-28.084,-6.6257
22957,-29.896,-4.3941
22969,-28.677,-4.6959
22980,-28.146,-3.9426
22992,-29.535,-1.3546
23004,-26.547,-3.2604
23016,-29.774,-2.9312
23027,-27.69,-3.7002
23039,-30.191,-5.863
23051,-31.691,-5.7743
23063,-30.811,-3.8453
23074,-31.019,-5.6232
23086,-31.142,-6.7716
23098,-30.886,-7.1567
23109,-27.298,-5.1182
23121,-25.711,-2.7602
23133,-26.982,-1.1151
23145,-27.888,-2.1479
23156,-27.596,-5.3157
23168,-30.012,-4.5475
23180,-27.799,-2.7029
23191,-26.345,-1.2033
23203,-25.294,-1.1673
23215,-25.246,-3.835
23227,-26.945,-4.7331
23238,-27.108,-3.7656
23250,-24.001,-4.8902
23262,-26.21,-4.8676
23273,-27.161,-4.2506
23285,-27.448,-4.8886
23297,-29.943,-6.2145
23309,-29.499,-2.5939
23320,-29.912,-3.5689
23332,-28.344,-4.1987
23344,-28.172,-5.8016
23355,-26.275,-4.4033
23367,-25.02,-4.0515
23379,-26.418,-5.6812
23391,-30.684,-3.9813
23402,-27.332,-6.1043
23414,-29.31,-5.7791
23426,-25.658,-4.7855
23438,-27.062,-6.3131
23449,-28.07,-6.3303
23461,-28.595,-5.3517
23473,-29.83,-5.6897
23484,-28.058,-4.7277
23496,-27.154,-2.196
23508,-26.669,-0.8364
23520,-28.637,-1.8598
23531,-27.501,-4.481
23543,-28.141,-5.8262
23555,-27.59,-6.6149
23566,-25.565,-6.7354
23578,-24.881,-6.7819
23590,-28.712,-4.8613
23602,-28.347,-6.765
23613,-25.95,-3.9944
23625,-27.458,-2.6151
23637,-30.871,-4.9146
23648,-30.306,-4.9485
23660,-26.467,-4.0532
23672,-26.553,-0.71917
23684,-29.633,-2.1483
23695,-25.828,-5.0484
23707,-25.398,-5.3658
23719,-27.311,-3.4326
23730,-26.438,-1.0615
23742,-26.861,-0.9995
23754,-26.874,-3.1081
23766,-29.966,-1.0319
23777,-29.104,-3.2092
23789,-28.432,-7.4349
23801,-28.602,-3.6386
23813,-30.586,-5.2998
23824,-29.765,-5.4491
23836,-28.722,-3.9948
23848,-28.86,-3.2684
23859,-29.229,-3.1713
23871,-26.675,-4.5373
23883,-24.979,-5.0878
23895,-28.404,-8.4232
23906,-30.948,-6.1313
23918,-28.8,-4.6193
23930,-26.285,-5.8434
23941,-24.389,-9.4963
23953,-24.682,-7.5271
23965,-27.015,-5.1624
23977,-28.022,-5.2367
23988,-25.652,-1.6532
