FFT,Power Spectrum
Frequency[Hz],Level-L[dB],Level-R[dB]
11.719,-4.6447,-62.755
23.438,15.521,-55.265
35.156,14.901,-40.471
46.875,18.6,-27.67
58.594,21.244,-25.912
70.313,21.488,-31.56
82.031,22.31,-29.099
93.75,23.941,-25.57
105.47,20.098,-23.9
117.19,17.035,-20.582
128.91,18.289,-16.599
140.63,20.768,-12.132
152.34,20.439,-11.058
164.06,15.155,-15.304
175.78,18.084,-14.369
187.5,18.552,-17.2
199.22,19.75,-19.708
210.94,18.102,-20.823
222.66,20.012,-20.819
234.38,21.371,-18.016
246.09,19.115,-15.25
257.81,17.115,-16.226
269.53,15.622,-19.571
281.25,16.493,-18.656
292.97,17.65,-17.16
304.69,18.471,-13.165
316.41,18.748,-15.615
328.13,16.596,-12.625
339.84,15.948,-12.829
351.56,18.433,-16.329
363.28,17.714,-16.106
375,18.549,-14.469
386.72,15.402,-15.246
398.44,14.421,-13.869
410.16,15.653,-13.207
421.88,16.376,-10.566
433.59,14.48,-10.808
445.31,14.65,-11.992
457.03,15.485,-13.26
468.75,14.677,-12.584
480.47,15.381,-13.245
492.19,15.521,-12.572
503.91,13.576,-10.52
515.63,15.153,-10.813
527.34,19.079,-10.656
539.06,15.697,-16.004
550.78,14.002,-12.916
562.5,16.091,-12.164
574.22,16.211,-12.587
585.94,12.902,-14.73
597.66,17.635,-10.673
609.38,18.32,-8.3319
621.09,24.701,-7.9384
632.81,23.795,-9.9417
644.53,16.132,-10.63
656.25,10.461,-8.7739
667.97,10.989,-8.1287
679.69,13.101,-12.761
691.41,17.97,-13.045
703.13,19.209,-9.6713
714.84,17.165,-10.31
726.56,15.748,-8.8321
738.28,13.901,-9.0185
750,14.738,-7.1786
761.72,16.663,-7.7159
773.44,15.484,-8.476
785.16,13.039,-8.9098
796.88,14.75,-8.4464
808.59,16.033,-7.535
820.31,14.181,-9.1402
832.03,10.246,-7.832
843.75,12.237,-7.2676
855.47,13.298,-8.1231
867.19,12.22,-10.543
878.91,14.356,-11.708
890.63,14.232,-7.6878
902.34,11.499,-6.552
914.06,11.145,-8.8601
925.78,12.486,-7.8481
937.5,14.7,-7.6288
949.22,15.188,-7.2658
960.94,15.357,-7.9361
972.66,14.657,-7.105
984.38,16.179,-6.6659
996.09,16.611,-8.726
1007.8,14.063,-8.3168
1019.5,16.665,-9.8223
1031.3,16.613,-8.4531
1043,16.032,-8.4905
1054.7,14.931,-11.911
1066.4,14.909,-11.292
1078.1,12.189,-7.1373
1089.8,13.226,-5.6066
1101.6,14.914,-6.119
1113.3,14.381,-8.7707
1125,13.265,-9.2838
1136.7,14.924,-8.0154
1148.4,17.9,-8.1647
1160.2,16.744,-9.1551
1171.9,15.239,-11.05
1183.6,14.27,-7.9383
1195.3,11.487,-6.4241
1207,13.844,-10.413
1218.8,12.12,-8.9391
1230.5,14.681,-6.8504
1242.2,13.151,-6.0729
1253.9,11.032,-6.1827
1265.6,11.643,-7.595
1277.3,11.694,-7.1703
1289.1,14.149,-10.493
1300.8,13.711,-9.0191
1312.5,16.791,-9.4727
1324.2,17.421,-9.9604
1335.9,18.47,-9.396
1347.7,14.523,-7.9394
1359.4,12.62,-7.7954
1371.1,13.15,-9.315
1382.8,14.393,-8.704
1394.5,14.418,-5.6845
1406.3,14.911,-6.1164
1418,17.965,-6.9902
1429.7,17.395,-11.295
1441.4,16.207,-10.78
1453.1,17.215,-7.4138
1464.8,17.006,-9.0937
1476.6,17.073,-9.2306
1488.3,14.452,-12.353
1500,13.613,-12.105
1511.7,16.207,-9.4231
1523.4,17.099,-7.541
1535.2,16.926,-8.3076
1546.9,13.25,-6.6975
1558.6,14.951,-7.1348
1570.3,17.391,-6.1208
1582,16.489,-7.1118
1593.8,16.042,-9.0157
1605.5,15.335,-10.242
1617.2,13.271,-9.8108
1628.9,14.409,-11.328
1640.6,13.805,-7.2184
1652.3,14.459,-6.1345
1664.1,15.499,-5.8785
1675.8,14.416,-5.8226
1687.5,14.734,-6.9945
1699.2,13.021,-8.6722
1710.9,16.071,-6.9671
1722.7,15.664,-4.7081
1734.4,15.243,-3.9358
1746.1,14.19,-6.9158
1757.8,12.245,-9.6761
1769.5,15.401,-5.8491
1781.3,14.366,-6.8189
1793,15.157,-10.058
1804.7,17.226,-7.5185
1816.4,18.914,-9.142
1828.1,21.724,-9.2102
1839.8,21.185,-9.4786
1851.6,19.804,-10.915
1863.3,16.503,-12.897
1875,15.686,-7.2309
1886.7,15.754,-5.4387
1898.4,16.398,-6.5744
1910.2,12.189,-8.5324
1921.9,15.23,-6.4172
1933.6,20.107,-4.9621
1945.3,19.172,-7.7507
1957,18.377,-7.0927
1968.8,27.212,-5.4379
1980.5,42.202,-6.969
1992.2,60.226,-4.9517
2003.9,62.17,-4.481
2015.6,51.296,-5.2548
2027.3,31.35,-7.2068
2039.1,21.372,-4.4989
2050.8,17.024,-2.2291
2062.5,10.605,-3.1437
2074.2,12.579,-4.4358
2085.9,11.185,-5.054
2097.7,13.166,-6.3828
2109.4,12.058,-7.0197
2121.1,12.998,-9.8554
2132.8,13.049,-7.1709
2144.5,13.34,-6.8088
2156.3,13.243,-7.2005
2168,12.52,-7.4359
2179.7,9.1809,-8.6921
2191.4,10.274,-7.3847
2203.1,10.467,-6.324
2214.8,12.355,-5.3039
2226.6,14.804,-4.561
2238.3,13.397,-9.2457
2250,11.989,-8.5514
2261.7,12.959,-5.8987
2273.4,11.225,-6.2562
2285.2,9.8854,-6.9351
2296.9,10.965,-8.1036
2308.6,8.3993,-7.5138
2320.3,12.905,-5.9811
2332,14.772,-8.1
2343.8,13.924,-9.2737
2355.5,13.831,-7.5704
2367.2,12.533,-7.4529
2378.9,12.777,-7.2335
2390.6,14.663,-9.5047
2402.3,15.962,-8.7146
2414.1,13.637,-11.646
2425.8,11.29,-9.3335
2437.5,10.025,-9.0167
2449.2,14.858,-6.818
2460.9,10.254,-8.9823
2472.7,10.681,-6.3056
2484.4,8.3693,-6.3237
2496.1,12.524,-6.9195
2507.8,15.042,-9.673
2519.5,11.72,-7.865
2531.3,7.945,-7.3476
2543,12.325,-8.3543
2554.7,12.983,-5.4215
2566.4,14.429,-5.5055
2578.1,11.912,-10.247
2589.8,10.176,-8.378
2601.6,11.652,-10.145
2613.3,8.1898,-10.932
2625,8.5843,-9.3055
2636.7,9.7693,-8.5428
2648.4,9.4218,-9.5796
2660.2,13.096,-5.8074
2671.9,14.338,-3.8279
2683.6,9.7365,-5.9329
2695.3,8.4888,-8.6028
2707,7.3878,-9.1631
2718.8,11.372,-10.55
2730.5,12.622,-8.7563
2742.2,13.715,-5.6923
2753.9,12.872,-5.3042
2765.6,12.8,-4.5966
2777.3,9.5177,-7.3736
2789.1,10.996,-10.619
2800.8,12.928,-8.5883
2812.5,13.235,-8.1245
2824.2,12.384,-9.5612
2835.9,13.307,-5.7756
2847.7,11.192,-7.6795
2859.4,8.5714,-7.9463
2871.1,11.21,-7.0545
2882.8,13.546,-9.0891
2894.5,14.468,-9.5279
2906.3,12.152,-7.5102
2918,12.414,-8.3705
2929.7,11.398,-8.9592
2941.4,10.231,-10.524
2953.1,11.993,-6.2723
2964.8,11.712,-5.0983
2976.6,11.833,-8.0698
2988.3,12.826,-8.5619
3000,11.881,-7.5665
3011.7,11.703,-7.3178
3023.4,11.419,-9.4301
3035.2,10.444,-9.0539
3046.9,13.112,-10.187
3058.6,14.549,-8.9918
3070.3,13.785,-7.4228
3082,12.096,-10.127
3093.8,8.7022,-8.865
3105.5,10.835,-8.3657
3117.2,10.881,-9.2314
3128.9,9.4751,-8.8951
3140.6,13.61,-7.2316
3152.3,15.28,-5.8276
3164.1,14.297,-6.194
3175.8,9.7479,-7.1162
3187.5,8.0376,-9.6693
3199.2,12.308,-10.187
3210.9,9.8094,-9.6496
3222.7,8.7345,-7.5376
3234.4,11.037,-5.9052
3246.1,11.243,-6.5038
3257.8,10.888,-4.6234
3269.5,14.168,-7.5135
3281.3,11.801,-11.077
3293,7.8441,-7.9339
3304.7,8.9507,-6.4721
3316.4,7.5294,-5.9036
3328.1,7.0887,-5.2148
3339.8,10.841,-6.0202
3351.6,10.786,-8.2441
3363.3,10.372,-5.8036
3375,9.3034,-11.219
3386.7,13.18,-9.7955
3398.4,14.328,-7.7916
3410.2,12.589,-8.0366
3421.9,10.116,-7.6335
3433.6,10.462,-6.2193
3445.3,9.5195,-6.6858
3457,7.9567,-4.163
3468.8,8.412,-5.1443
3480.5,7.5964,-6.3799
3492.2,8.4216,-6.1762
3503.9,9.8471,-7.5139
3515.6,7.9232,-9.8713
3527.3,4.5777,-10.931
3539.1,7.6759,-7.7834
3550.8,13.491,-6.5445
3562.5,12.368,-10.091
3574.2,6.9984,-9.6036
3585.9,7.3688,-5.7466
3597.7,11.302,-5.2623
3609.4,11.534,-7.3835
3621.1,12.927,-10.021
3632.8,10.802,-12.599
3644.5,9.4207,-12.522
3656.3,10.652,-12.114
3668,9.44,-12.593
3679.7,8.3234,-10.536
3691.4,13.039,-7.6881
3703.1,10.854,-8.6103
3714.8,8.443,-11.122
3726.6,6.3613,-8.9316
3738.3,8.9633,-6.2324
3750,10.828,-3.488
3761.7,11.172,-4.22
3773.4,8.6905,-7.4806
3785.2,8.0485,-7.525
3796.9,10.844,-5.9688
3808.6,9.6924,-6.0917
3820.3,6.8409,-10.651
3832,6.8932,-7.5238
3843.8,5.9693,-7.4379
3855.5,9.4221,-10.422
3867.2,11.456,-9.9883
3878.9,12.663,-8.7035
3890.6,11.135,-7.4307
3902.3,10.242,-6.095
3914.1,11.365,-6.7096
3925.8,9.966,-7.8371
3937.5,9.0928,-9.0511
3949.2,10.99,-10.01
3960.9,10.268,-6.5137
3972.7,8.7691,-7.9063
3984.4,7.153,-7.6712
3996.1,7.3371,-8.7759
4007.8,7.6442,-8.9493
4019.5,7.7595,-2.646
4031.3,7.9534,-4.5883
4043,10.283,-7.106
4054.7,11.883,-7.6752
4066.4,9.1253,-6.8539
4078.1,7.0969,-9.8143
4089.8,6.9849,-9.7546
4101.6,8.3414,-7.0494
4113.3,9.9233,-6.7224
4125,10.365,-8.0701
4136.7,8.7934,-7.7361
4148.4,7.3597,-6.3366
4160.2,5.8165,-8.0516
4171.9,6.7661,-8.1224
4183.6,4.6907,-7.1742
4195.3,6.4686,-5.3158
4207,7.2822,-10.425
4218.8,7.3781,-7.9317
4230.5,7.0874,-4.3953
4242.2,7.33,-6.6471
4253.9,6.3755,-10.295
4265.6,8.9814,-8.8706
4277.3,9.0145,-9.206
4289.1,9.9716,-7.7906
4300.8,9.2722,-7.5827
4312.5,9.7281,-6.038
4324.2,7.57,-3.7053
4335.9,7.2599,-6.9797
4347.7,5.5654,-7.4724
4359.4,4.8111,-5.9896
4371.1,6.0187,-6.3405
4382.8,7.6908,-6.2024
4394.5,9.33,-4.8626
4406.3,11.115,-4.209
4418,9.7818,-6.8998
4429.7,9.8693,-9.731
4441.4,9.3892,-7.9091
4453.1,7.0973,-6.4183
4464.8,7.8574,-5.5319
4476.6,9.9272,-5.142
4488.3,8.4176,-11.389
4500,4.5119,-9.8234
4511.7,5.9346,-10.125
4523.4,7.9612,-7.4071
4535.2,10.131,-8.0779
4546.9,10.025,-8.4034
4558.6,10.474,-9.4741
4570.3,9.5815,-8.3304
4582,6.9307,-9.6922
4593.8,7.0127,-10.087
4605.5,6.4737,-8.1439
4617.2,8.2461,-6.3533
4628.9,5.2024,-9.0054
4640.6,6.7426,-12.687
4652.3,10.68,-10.896
4664.1,7.6387,-12.394
4675.8,4.758,-8.341
4687.5,7.0828,-6.6086
4699.2,8.5333,-7.0012
4710.9,7.5252,-8.3006
4722.7,5.2868,-7.1274
4734.4,5.6642,-6.9126
4746.1,4.8707,-6.4231
4757.8,5.946,-6.1216
4769.5,6.7004,-8.236
4781.3,7.5618,-8.1597
4793,8.6199,-8.0378
4804.7,10.832,-8.3059
4816.4,8.8936,-8.3484
4828.1,8.4843,-7.0463
4839.8,6.4824,-7.3143
4851.6,6.5494,-9.4664
4863.3,7.2962,-8.7011
4875,6.4303,-8.5352
4886.7,4.5518,-9.6597
4898.4,6.8936,-9.6176
4910.2,8.8774,-6.2949
4921.9,7.9517,-5.8606
4933.6,8.2236,-9.9414
4945.3,7.1529,-9.4531
4957,3.2925,-11.056
4968.8,7.9443,-7.6163
4980.5,9.4406,-4.8734
4992.2,7.8818,-5.3637
5003.9,9.6517,-6.6659
5015.6,8.2018,-6.0071
5027.3,7.5468,-7.4048
5039.1,8.1865,-6.4306
5050.8,7.3937,-6.2445
5062.5,6.887,-8.0125
5074.2,9.1376,-9.0368
5085.9,7.4065,-7.4424
5097.7,6.3639,-8.3463
5109.4,4.8949,-7.5212
5121.1,5.482,-10.861
5132.8,7.154,-9.0413
5144.5,5.9394,-10.341
5156.3,5.2882,-8.4668
5168,6.9939,-6.2216
5179.7,7.2884,-5.1737
5191.4,5.3985,-5.8876
5203.1,7.4356,-8.4196
5214.8,8.3522,-8.6837
5226.6,5.683,-9.2345
5238.3,8.1111,-7.4722
5250,6.1527,-6.3337
5261.7,7.1436,-5.3592
5273.4,8.4269,-3.4578
5285.2,5.4654,-5.6417
5296.9,6.7922,-9.9913
5308.6,6.8769,-9.5353
5320.3,6.9963,-7.7089
5332,6.0053,-6.8119
5343.8,6.6137,-8.3014
5355.5,8.648,-4.5795
5367.2,8.6238,-4.687
5378.9,4.7094,-7.6025
5390.6,4.0279,-8.2987
5402.3,6.5381,-10.648
5414.1,4.5808,-8.6865
5425.8,3.635,-7.7473
5437.5,4.18,-9.8192
5449.2,6.2192,-9.9649
5460.9,8.5889,-11.899
5472.7,8.6825,-10.126
5484.4,5.4626,-7.5134
5496.1,1.4125,-9.8882
5507.8,2.9749,-6.7472
5519.5,5.9478,-6.3132
5531.3,5.6053,-10.48
5543,6.4036,-10.7
5554.7,4.7899,-9.8327
5566.4,3.5482,-9.4598
5578.1,5.4543,-8.7539
5589.8,4.4932,-11.316
5601.6,4.2446,-11.915
5613.3,6.0286,-6.3127
5625,7.6333,-5.8197
5636.7,5.318,-8.0976
5648.4,3.0315,-9.5201
5660.2,5.7828,-7.7056
5671.9,7.323,-7.7005
5683.6,6.1621,-9.9942
5695.3,7.6174,-4.6717
5707,6.4372,-8.4581
5718.8,5.0408,-9.2686
5730.5,4.7363,-9.7991
5742.2,4.4968,-8.663
5753.9,6.3731,-7.2048
5765.6,6.4473,-10.753
5777.3,5.252,-8.625
5789.1,2.8682,-6.2108
5800.8,4.6887,-8.6349
5812.5,6.0305,-10.655
5824.2,5.0809,-10.61
5835.9,6.4669,-5.4876
5847.7,6.4358,-6.9538
5859.4,5.4667,-9.0718
5871.1,4.9808,-9.0786
5882.8,5.5248,-7.8584
5894.5,6.6441,-9.7502
5906.3,7.3823,-8.1407
5918,6.4853,-9.0351
5929.7,6.2412,-4.0616
5941.4,6.3506,-4.3751
5953.1,4.5742,-11.045
5964.8,5.0016,-8.3201
5976.6,7.5499,-8.9791
5988.3,7.2436,-8.0937
6000,6.3416,-9.7394
6011.7,6.8686,-7.7687
6023.4,8.3746,-6.5722
6035.2,9.0709,-11.172
6046.9,7.7141,-7.921
6058.6,6.9524,-7.5171
6070.3,6.0736,-10.193
6082,3.0842,-11.626
6093.8,3.9282,-12.484
6105.5,3.9053,-11.323
6117.2,7.793,-11.338
6128.9,8.212,-11.744
6140.6,0.80605,-11.15
6152.3,3.0452,-9.6038
6164.1,4.4653,-6.1207
6175.8,5.0657,-4.5539
6187.5,6.1221,-6.163
6199.2,5.6573,-5.47
6210.9,4.093,-7.9604
6222.7,5.0731,-10.159
6234.4,4.1414,-8.4304
6246.1,4.5169,-10.264
6257.8,3.5032,-8.4836
6269.5,4.3914,-6.3235
6281.3,6.8969,-7.3764
6293,8.7534,-8.172
6304.7,6.1263,-9.7803
6316.4,0.67317,-9.6644
6328.1,7.2207,-9.7892
6339.8,8.1699,-8.3303
6351.6,7.9166,-10.221
6363.3,6.2308,-9.1063
6375,6.0376,-6.4386
6386.7,4.9831,-6.4605
6398.4,2.5042,-8.2412
6410.2,7.0993,-9.7342
6421.9,6.4913,-8.0543
6433.6,4.5767,-8.2164
6445.3,4.7092,-5.6376
6457,6.6413,-8.2353
6468.8,5.3821,-10.805
6480.5,4.9708,-8.2377
6492.2,5.1074,-8.7033
6503.9,4.0433,-13.421
6515.6,3.1785,-11.167
6527.3,4.7566,-9.7062
6539.1,3.6931,-9.3404
6550.8,4.4944,-9.5254
6562.5,2.4501,-7.4256
6574.2,2.6509,-8.2815
6585.9,5.146,-10.2
6597.7,6.1964,-8.7383
6609.4,6.1558,-9.0044
6621.1,2.9729,-11.551
6632.8,5.1162,-11.147
6644.5,6.7628,-9.8913
6656.3,6.1224,-11.493
6668,3.6896,-9.5122
6679.7,1.9084,-6.1899
6691.4,2.8349,-6.4693
6703.1,3.1392,-10.316
6714.8,3.7929,-7.9895
6726.6,4.2815,-7.6138
6738.3,6.4408,-9.0827
6750,2.0391,-8.2905
6761.7,4.3181,-8.6705
6773.4,5.0785,-10.901
6785.2,6.9285,-12.58
6796.9,5.5094,-10.721
6808.6,8.3837,-6.3261
6820.3,8.4984,-7.0726
6832,4.0369,-10.233
6843.8,5.7089,-9.4601
6855.5,2.8321,-9.4134
6867.2,3.6599,-12.291
6878.9,3.2654,-8.9078
6890.6,4.0501,-10.283
6902.3,5.1383,-10.122
6914.1,2.9539,-10.291
6925.8,5.0915,-6.8262
6937.5,4.5651,-6.581
6949.2,3.071,-9.5434
6960.9,2.1667,-9.1964
6972.7,1.3936,-7.5396
6984.4,4.0588,-8.0412
6996.1,5.584,-8.6407
7007.8,3.2243,-7.9071
7019.5,1.8426,-9.3174
7031.3,-0.69889,-7.6071
7043,1.1572,-6.6281
7054.7,2.7127,-8.9039
7066.4,3.7292,-11.976
7078.1,-0.46903,-8.7346
7089.8,2.6451,-9.3897
7101.6,4.6489,-9.9281
7113.3,6.0892,-9.1701
7125,7.1233,-9.1708
7136.7,7.6774,-8.27
7148.4,6.9064,-6.4494
7160.2,6.7687,-5.543
7171.9,3.1891,-6.6093
7183.6,1.5559,-7.6699
7195.3,3.0831,-9.6744
7207,4.3336,-7.8623
7218.8,5.9523,-6.3631
7230.5,5.3547,-11.195
7242.2,4.3879,-9.6447
7253.9,4.4218,-8.2724
7265.6,2.9191,-9.1136
7277.3,0.93132,-11.185
7289.1,-0.59076,-9.3411
7300.8,-0.21374,-11.245
7312.5,2.7098,-12.566
7324.2,1.1444,-9.8695
7335.9,3.879,-8.3507
7347.7,5.3259,-8.6274
7359.4,6.3621,-10.839
7371.1,3.9952,-13.522
7382.8,2.2151,-11.62
7394.5,3.0158,-8.6818
7406.3,2.8207,-9.3948
7418,3.3229,-14.79
7429.7,4.4843,-11.597
7441.4,3.1567,-10.179
7453.1,1.9974,-10.488
7464.8,3.5557,-8.7325
7476.6,2.828,-8.2844
7488.3,6.1667,-7.3448
7500,5.0939,-7.3638
7511.7,3.4215,-7.1374
7523.4,0.20822,-11.351
7535.2,-0.34045,-10.026
7546.9,1.9153,-10.295
7558.6,2.6415,-8.5996
7570.3,3.5031,-8.7387
7582,2.7433,-8.9571
7593.8,-1.853,-9.1253
7605.5,-0.68252,-11.177
7617.2,6.0596,-10.096
7628.9,5.1277,-8.4667
7640.6,0.75565,-10.326
7652.3,1.2489,-10.891
7664.1,0.41241,-11.275
7675.8,1.893,-12.282
7687.5,3.4419,-10.795
7699.2,2.1411,-13.359
7710.9,4.1018,-10.506
7722.7,2.0197,-7.9144
7734.4,1.6772,-7.3602
7746.1,1.0803,-8.9874
7757.8,-0.090546,-7.0143
7769.5,0.7492,-8.8895
7781.3,2.0351,-9.7053
7793,-0.29236,-10.497
7804.7,-0.17147,-11.145
7816.4,1.3933,-10.37
7828.1,3.122,-12.617
7839.8,4.3321,-9.9034
7851.6,6.0416,-9.2007
7863.3,2.757,-12.65
7875,2.0724,-9.5851
7886.7,2.4372,-9.9759
7898.4,3.3681,-13.799
7910.2,2.6142,-9.2283
7921.9,0.34936,-9.9727
7933.6,2.383,-9.559
7945.3,2.0696,-7.5861
7957,3.5382,-7.225
7968.8,2.0636,-7.9587
7980.5,3.104,-9.0994
7992.2,2.8726,-11.216
8003.9,2.1358,-12.8
8015.6,-1.3059,-9.9576
8027.3,2.6138,-9.2157
8039.1,1.9048,-12.145
8050.8,-1.8272,-8.6238
8062.5,-1.1089,-7.371
8074.2,-0.2349,-10.257
8085.9,-0.15541,-11.682
8097.7,2.6058,-11.963
8109.4,1.1781,-11.599
8121.1,2.6691,-11.443
8132.8,2.2505,-11.708
8144.5,0.76971,-12.426
8156.3,2.7918,-11.929
8168,2.4788,-12.869
8179.7,4.0393,-12.53
8191.4,3.5497,-9.805
8203.1,3.3327,-10.318
8214.8,2.7814,-11.092
8226.6,1.8416,-8.0615
8238.3,1.6485,-11.593
8250,1.7433,-13.008
8261.7,2.2574,-13.256
8273.4,1.4431,-10.741
8285.2,0.26226,-12.134
8296.9,0.61406,-12.034
8308.6,1.3928,-8.0314
8320.3,0.4662,-7.4282
8332,2.2354,-10.179
8343.8,1.6591,-11.094
8355.5,-0.047864,-11.116
8367.2,1.1108,-10.767
8378.9,1.8929,-10.001
8390.6,0.56147,-9.0968
8402.3,-1.4516,-9.7635
8414.1,-4.2379,-9.9512
8425.8,-1.9545,-10.564
8437.5,0.96218,-10.495
8449.2,3.8183,-8.6799
8460.9,3.167,-8.6815
8472.7,-2.0444,-8.3997
8484.4,-0.3633,-9.9049
8496.1,-0.98769,-9.0309
8507.8,3.8193,-9.3592
8519.5,4.7496,-8.8018
8531.3,2.8979,-8.2043
8543,0.38231,-9.9302
8554.7,2.0547,-9.1683
8566.4,3.173,-9.3679
8578.1,2.7613,-10.774
8589.8,3.1831,-11.282
8601.6,3.2018,-9.0199
8613.3,1.6194,-7.332
8625,1.366,-9.4135
8636.7,-0.93697,-11.454
8648.4,-0.86495,-14.65
8660.2,2.4993,-13.057
8671.9,1.3417,-10.899
8683.6,1.7809,-8.943
8695.3,0.10866,-7.9265
8707,0.26209,-9.4768
8718.8,3.7544,-11.958
8730.5,4.0014,-12.724
8742.2,0.91098,-11.003
8753.9,-1.0201,-9.8908
8765.6,1.5049,-8.1938
8777.3,2.2036,-8.5635
8789.1,-1.4302,-10.515
8800.8,-2.5899,-9.731
8812.5,-2.0731,-9.9152
8824.2,-4.4697,-10.729
8835.9,-3.9091,-11.261
8847.7,-2.8745,-12.748
8859.4,-0.10159,-9.7194
8871.1,4.6669,-8.7489
8882.8,4.6258,-11.129
8894.5,1.3077,-10.356
8906.3,-0.36683,-10.142
8918,-4.0454,-10.262
8929.7,-0.8528,-12.781
8941.4,1.0596,-12.723
8953.1,0.94564,-11.717
8964.8,1.958,-8.5799
8976.6,-0.12657,-8.3944
8988.3,0.12749,-13.704
9000,-2.0256,-8.3901
9011.7,-0.78269,-7.6666
9023.4,-0.18648,-9.3197
9035.2,1.9085,-14.1
9046.9,-5.9657,-10.923
9058.6,-0.82661,-12.28
9070.3,-0.76097,-8.4114
9082,-0.157,-10.264
9093.8,0.17008,-11.934
9105.5,-0.50353,-7.2187
9117.2,0.060098,-7.6457
9128.9,3.0647,-11.15
9140.6,3.1181,-11.16
9152.3,1.1247,-11.49
9164.1,-3.3147,-12
9175.8,-0.38886,-12.153
9187.5,0.045309,-13.337
9199.2,-0.021903,-12.282
9210.9,1.1406,-11.758
9222.7,0.029821,-10.8
9234.4,1.435,-8.663
9246.1,4.1328,-9.6925
9257.8,-0.30915,-9.2749
9269.5,-0.88925,-9.6456
9281.3,-0.39844,-9.5228
9293,1.25,-11.194
9304.7,2.8338,-10.235
9316.4,0.38246,-10.223
9328.1,1.3821,-11.43
9339.8,1.9911,-12.839
9351.6,1.0253,-12.019
9363.3,0.92604,-11.983
9375,3.7231,-11.912
9386.7,1.5793,-10.963
9398.4,-0.087401,-11.953
9410.2,-0.76224,-9.9943
9421.9,-0.081938,-8.5587
9433.6,2.1825,-9.6109
9445.3,2.3368,-11.46
9457,1.3134,-11.12
9468.8,1.8579,-11.459
9480.5,1.1244,-11.342
9492.2,-0.010249,-10.866
9503.9,0.74361,-11.288
9515.6,-2.5893,-12.222
9527.3,1.8152,-14.21
9539.1,2.2056,-12.788
9550.8,0.29349,-11.109
9562.5,-0.26555,-11.265
9574.2,-0.50474,-8.8162
9585.9,2.1526,-6.9798
9597.7,0.91046,-11.372
9609.4,-1.2729,-10.46
9621.1,0.86705,-10.137
9632.8,1.1198,-10.466
9644.5,0.24036,-9.7397
9656.3,-1.362,-13.758
9668,-0.068315,-14.025
9679.7,0.78877,-10.571
9691.4,0.71725,-11.516
9703.1,1.5125,-11.296
9714.8,0.84516,-17.248
9726.6,1.3524,-10.47
9738.3,3.2925,-11.551
9750,2.045,-13.111
9761.7,-1.5105,-12.592
9773.4,-3.2565,-9.9157
9785.2,-1.2568,-14.121
9796.9,1.7624,-13.293
9808.6,2.1795,-10.018
9820.3,3.0567,-11.983
9832,-0.38141,-16.56
9843.8,0.28811,-11.985
9855.5,-0.20731,-11.078
9867.2,-0.45237,-10.65
9878.9,-0.81105,-11.111
9890.6,-2.1153,-13.92
9902.3,-2.2508,-11.606
9914.1,-0.58357,-10.3
9925.8,0.23084,-12.153
9937.5,0.67372,-9.2171
9949.2,-2.58,-10.473
9960.9,-2.0349,-12.769
9972.7,-1.9672,-12.182
9984.4,1.3725,-8.4856
9996.1,-3.2648,-5.1589
10008,-1.7208,-9.6762
10020,-0.24088,-14.1
10031,-0.80145,-13.124
10043,-1.3092,-16.05
10055,-0.62433,-11.374
10066,0.20325,-10.794
10078,-0.16029,-14.308
10090,3.3905,-13.024
10102,2.6969,-11.516
10113,3.7156,-10.62
10125,2.612,-13.783
10137,-4.2791,-13.307
10148,-0.37393,-14.214
10160,0.81733,-13.544
10172,0.56068,-11.42
10184,1.55,-10.736
10195,-0.24521,-12.995
10207,-2.055,-10.116
10219,-0.56225,-12.837
10230,-0.23849,-11.513
10242,-0.022474,-8.4495
10254,2.3027,-8.4764
10266,2.0549,-10.318
10277,-2.9293,-10.069
10289,-2.2783,-13.513
10301,-1.9022,-14.092
10313,-1.8466,-14.054
10324,-1.187,-12.986
10336,-0.88088,-13.291
10348,1.5106,-13.107
10359,0.91624,-10.458
10371,-2.1045,-8.4312
10383,-0.834,-11.128
10395,-2.945,-14.602
10406,-3.3232,-13.858
10418,-2.0162,-15.395
10430,-0.042427,-12.197
10441,0.26959,-11.737
10453,0.086869,-11.533
10465,-2.0136,-13.182
10477,2.1993,-10.415
10488,0.21773,-7.7214
10500,-1.6337,-8.9271
10512,-1.0395,-13.7
10523,-1.1513,-11.15
10535,-1.5542,-9.1476
10547,-3.9803,-10.552
10559,-1.7172,-11.042
10570,-0.4909,-10.416
10582,-3.9311,-15.39
10594,-3.6888,-15.385
10605,-4.7193,-11.707
10617,-4.6903,-12.02
10629,0.23239,-13.893
10641,1.3704,-14.073
10652,1.0691,-15.236
10664,2.1132,-12.612
10676,0.57602,-8.6982
10688,-5.1392,-9.3537
10699,-3.5055,-10.497
10711,-1.2068,-11.382
10723,-1.9778,-6.9327
10734,-2.938,-6.6923
10746,-0.88758,-13.744
10758,-4.5663,-12.675
10770,-2.432,-12.551
10781,-0.10087,-12.112
10793,-1.4591,-9.2692
10805,-2.3413,-8.8663
10816,-2.4677,-12.375
10828,-5.1735,-12.803
10840,-4.8441,-9.3514
10852,-3.8661,-10.492
10863,-0.58947,-12.697
10875,0.82664,-11.179
10887,-2.6924,-9.8247
10898,-1.4386,-11.877
10910,1.3886,-11.982
10922,-0.77281,-12.102
10934,-2.0801,-9.4379
10945,-0.11476,-11.743
10957,-0.16424,-14.769
10969,-2.6775,-11.108
10980,-3.1623,-10.761
10992,-3.4724,-12.854
11004,1.7363,-13.012
11016,2.9306,-10.896
11027,-2.3864,-12.006
11039,-2.5362,-11.543
11051,-3.8332,-11.295
11063,-2.6689,-12.5
11074,-3.4285,-10.556
11086,-2.0366,-9.8642
11098,-3.3958,-12.032
11109,-3.881,-10.393
11121,-0.91889,-11.366
11133,-1.0414,-13.371
11145,-3.0177,-13.661
11156,0.65529,-11.855
11168,-1.4692,-11.609
11180,-1.4398,-12.481
11191,0.34196,-9.4953
11203,-3.1506,-8.774
11215,-2.3786,-12.18
11227,-2.2051,-14.91
11238,-2.5901,-10.352
11250,-1.7451,-9.1401
11262,-1.8936,-9.0951
11273,-3.4998,-8.7969
11285,-2.3313,-9.5117
11297,0.54263,-10.852
11309,-1.8907,-15.674
11320,-0.414,-11.571
11332,-1.4809,-9.1642
11344,-0.77751,-12.094
11355,1.5719,-13.117
11367,-0.27593,-13.066
11379,-3.1719,-11.86
11391,-1.1653,-12.457
11402,-0.88895,-15.578
11414,-1.2477,-13.332
11426,-1.948,-10.644
11438,-2.3596,-11.442
11449,-3.2338,-12.037
11461,-7.6543,-14.064
11473,-6.5329,-14.398
11484,-3.2802,-13.735
11496,-4.5427,-12.268
11508,-6.9816,-15.27
11520,-5.2352,-11.462
11531,-3.1077,-11.199
11543,-1.0804,-11.423
11555,-1.1465,-13.504
11566,-3.5156,-14.872
11578,-4.2505,-12.103
11590,-2.5224,-11.625
11602,-1.9891,-12.938
11613,-0.85232,-12.133
11625,-0.80153,-11.214
11637,-2.8083,-9.7567
11648,-2.1108,-9.8853
11660,0.67965,-13.325
11672,-1.6656,-16.824
11684,-4.2548,-11.344
11695,-4.5182,-8.5201
11707,-4.7735,-9.6601
11719,-4.0084,-11.37
11730,-3.0849,-17.267
11742,-0.43588,-14.526
11754,0.38906,-11.167
11766,-1.6538,-11.713
11777,-0.61602,-14.871
11789,1.8111,-13.413
11801,-1.7644,-14.619
11813,-5.7062,-11.766
11824,-5.6445,-11.612
11836,-6.4755,-8.6525
11848,-2.6615,-6.896
11859,1.8877,-7.9474
11871,3.24,-12.67
11883,-1.1831,-15.764
11895,-1.4666,-16.236
11906,-2.097,-13.75
11918,-3.0379,-12.737
11930,-1.6966,-13.581
11941,-2.9994,-13.403
11953,-4.7619,-9.8253
11965,-1.8032,-10.109
11977,-0.70272,-13.769
11988,-3.6196,-12.864
12000,-2.0936,-12.87
12012,-1.765,-12.542
12023,-1.2809,-12.063
12035,-4.4597,-10.331
12047,-3.3433,-13.641
12059,-0.89412,-15.884
12070,-1.3611,-13.816
12082,-4.7142,-12.358
12094,-1.7148,-12.294
12105,-3.8121,-12.696
12117,-2.7902,-13.292
12129,0.024103,-11.636
12141,-1.2181,-13.009
12152,-4.3095,-15.615
12164,-6.0988,-14.513
12176,-4.4637,-12.877
12188,-2.6598,-13.21
12199,-2.7987,-15.06
12211,-1.2313,-12.626
12223,-1.5042,-10.454
12234,-1.3065,-11.404
12246,-4.8789,-9.7535
12258,-2.597,-9.8049
12270,-2.1721,-11.367
12281,-0.77206,-12.378
12293,-0.36518,-11.95
12305,-2.4725,-11.149
12316,-1.5708,-12.327
12328,-3.0669,-12.488
12340,-2.7586,-10.582
12352,-0.32826,-11.364
12363,0.2634,-16.221
12375,-2.795,-13.965
12387,-5.9807,-11.281
12398,-4.2634,-11.492
12410,-2.5528,-15.256
12422,-2.5565,-12.722
12434,-3.933,-14.137
12445,-5.732,-13.518
12457,-3.859,-12.629
12469,-5.4678,-14.867
12480,-2.1319,-13.321
12492,-1.0434,-13.573
12504,-1.8578,-16.259
12516,1.0549,-13.109
12527,-1.8147,-12.34
12539,-3.1687,-10.838
12551,-2.9069,-11.471
12563,-2.6965,-14.162
12574,-3.6422,-16.851
12586,-0.87137,-14.334
12598,-0.64496,-11.078
12609,-3.6524,-10.088
12621,-2.7065,-12.962
12633,-2.8272,-15.854
12645,-4.3904,-15.858
12656,-7.6803,-13.964
12668,-3.7955,-13.442
12680,-2.892,-10.953
12691,-2.7535,-10.008
12703,-2.2402,-12.295
12715,-1.2025,-12.448
12727,0.45088,-13.58
12738,-1.4136,-13.722
12750,-0.81286,-12.2
12762,-2.5649,-13.692
12773,-6.055,-12.249
12785,-5.9401,-12.559
12797,-4.6064,-12.918
12809,0.52217,-12.184
12820,-0.82591,-12.59
12832,-3.6838,-12.801
12844,-3.2064,-13.63
12855,-0.76767,-13.547
12867,-1.5379,-15.074
12879,-2.7148,-14.574
12891,-0.41147,-16.306
12902,-1.8407,-12.257
12914,-5.5999,-10.656
12926,-3.2898,-11.769
12938,-2.8144,-11.148
12949,-1.9226,-12.767
12961,-1.7628,-14.188
12973,-4.2798,-13.346
12984,-3.5187,-15.92
12996,-4.8063,-12.632
13008,-8.2286,-11.756
13020,-6.0315,-11.415
13031,-6.0874,-12.955
13043,-3.6617,-12.9
13055,-2.821,-13.037
13066,-3.3879,-14.39
13078,-2.5679,-13.165
13090,-3.9744,-13.059
13102,-4.7875,-12.929
13113,-5.8621,-14.221
13125,-4.7516,-12.11
13137,-6.6561,-11.423
13148,-5.6664,-14.921
13160,-0.13983,-16.919
13172,0.70458,-14.351
13184,-3.0911,-12.852
13195,-3.2101,-11.561
13207,-2.348,-10.762
13219,-6.3321,-9.1042
13230,-3.8635,-12.204
13242,-4.156,-12.438
13254,-4.8631,-12.187
13266,-1.4787,-15.01
13277,-0.5101,-14.306
13289,-4.7623,-12.289
13301,-5.0916,-14.398
13313,-6.0766,-13.101
13324,-4.2728,-12.911
13336,-2.9632,-13.728
13348,-2.0055,-11.024
13359,-3.4566,-11.476
13371,-1.3864,-12.618
13383,-2.3351,-13.96
13395,-3.1343,-11.239
13406,-1.2304,-10.607
13418,-2.7456,-11.04
13430,-5.0466,-13.8
13441,-2.3917,-11.969
13453,-0.54265,-12.748
13465,-3.0375,-15.115
13477,-2.0117,-14.047
13488,-0.4276,-14.311
13500,-6.2857,-15.988
13512,-2.1068,-13.982
13523,-4.4307,-14.949
13535,-1.2408,-14.69
13547,-3.1816,-13.041
13559,-3.0354,-11.432
13570,-2.4777,-13.616
13582,-6.4449,-15.72
13594,-4.0247,-15.512
13605,-1.8864,-15.817
13617,-1.3014,-13.463
13629,-4.4404,-14.623
13641,-1.6022,-13.326
13652,-3.6744,-14.746
13664,-7.2055,-13.685
13676,-7.3466,-13.2
13688,-6.0995,-13.513
13699,-5.6823,-13.11
13711,-3.9624,-13.677
13723,-4.3468,-12.636
13734,-6.1084,-14.452
13746,-5.1323,-15.478
13758,-2.8289,-15.561
13770,-5.9191,-13.406
13781,-2.3661,-14.623
13793,-4.1854,-11.44
13805,-4.6377,-11.329
13816,-4.1411,-16.517
13828,-4.3918,-21.181
13840,-4.5512,-16.748
13852,-4.1091,-10.345
13863,-7.1169,-11.643
13875,-1.5881,-16.043
13887,-0.64589,-10.43
13898,-5.1853,-10.951
13910,-1.8966,-14.96
13922,-5.1633,-16.759
13934,-7.1088,-14.444
13945,-3.6167,-12.532
13957,-4.1737,-13.351
13969,-1.3978,-12.6
13980,-1.4838,-14.308
13992,-2.1658,-14.412
14004,-0.6886,-11.472
14016,-2.4579,-13.707
14027,-6.3695,-12.816
14039,-5.7709,-14.26
14051,-5.287,-13.664
14063,-4.4357,-12.791
14074,-6.3666,-14.357
14086,-7.0962,-14.68
14098,-3.8605,-12.623
14109,-2.7886,-14.053
14121,-5.8547,-13.711
14133,-4.9236,-12.325
14145,-4.1204,-12.012
14156,-3.6943,-12.556
14168,-4.0654,-11.085
14180,-8.3339,-10.636
14191,-5.92,-12.628
14203,-5.0839,-13.051
14215,-4.817,-14.301
14227,-6.7681,-14.839
14238,-6.3732,-11.866
14250,-3.3736,-11.527
14262,-2.5364,-12.265
14273,-5.8612,-13.676
14285,-6.5907,-14.793
14297,-5.4075,-14.848
14309,-4.4367,-12.733
14320,-2.4925,-11.789
14332,-5.606,-11.348
14344,-5.788,-12.738
14355,-6.2531,-15.733
14367,-7.1513,-18.192
14379,-7.012,-16.189
14391,-5.6908,-16.161
14402,-7.8949,-16.974
14414,-9.395,-16.212
14426,-10.635,-13.941
14438,-6.3159,-14.396
14449,-3.6094,-17.925
14461,-2.3904,-15.662
14473,-4.9789,-15.08
14484,-7.8453,-13.519
14496,-7.9997,-12.732
14508,-7.4216,-14.385
14520,-6.9889,-14.128
14531,-7.1083,-13.115
14543,-5.1379,-12.458
14555,-2.4872,-15.318
14566,-4.5705,-15.652
14578,-7.7013,-14.516
14590,-6.92,-12.961
14602,-5.9878,-14.171
14613,-5.6995,-15.46
14625,-3.7748,-16.952
14637,-4.2427,-18.335
14648,-7.0254,-15.962
14660,-6.7524,-12.005
14672,-6.6672,-11.01
14684,-7.1498,-12.358
14695,-7.7908,-12.684
14707,-7.168,-11.171
14719,-7.315,-12.031
14730,-5.3084,-10.899
14742,-4.595,-11.021
14754,-4.5874,-15.639
14766,-9.6141,-16.485
14777,-6.8424,-14.204
14789,-6.5259,-15.434
14801,-7.2325,-15.953
14813,-8.197,-16.262
14824,-5.9096,-17.058
14836,-8.2574,-16.396
14848,-5.2339,-17.125
14859,-6.9354,-15.478
14871,-8.4464,-16.541
14883,-8.1524,-18.827
14895,-7.8833,-15.37
14906,-7.3343,-14.331
14918,-6.2126,-15.064
14930,-5.3064,-15.85
14941,-7.065,-16.431
14953,-9.2346,-17.81
14965,-7.6095,-19.045
14977,-7.3644,-14.605
14988,-6.7473,-12.638
15000,-6.611,-14.185
15012,-6.735,-14.98
15023,-5.5526,-14.235
15035,-7.6411,-15.969
15047,-6.1721,-17.794
15059,-5.8817,-13.843
15070,-6.2447,-13.885
15082,-6.5162,-13.828
15094,-6.947,-12.323
15105,-6.2146,-15.764
15117,-4.9924,-14.491
15129,-5.1764,-13.763
15141,-5.6506,-14.718
15152,-6.2255,-14.934
15164,-8.3802,-16.357
15176,-9.16,-20.254
15188,-7.3285,-16.204
15199,-6.0919,-17.3
15211,-8.109,-14.168
15223,-10.139,-15.092
15234,-9.4494,-15.192
15246,-6.6189,-13.24
15258,-6.7666,-15.702
15270,-7.649,-12.86
15281,-6.7193,-11.933
15293,-5.9066,-11.442
15305,-4.4787,-12.053
15316,-4.8359,-16.724
15328,-8.1713,-18.45
15340,-8.7565,-20.901
15352,-8.5102,-16.127
15363,-5.3578,-16.962
15375,-10.732,-20.221
15387,-7.4011,-17.956
15398,-7.0391,-17.114
15410,-3.4958,-15.267
15422,-5.8364,-14.757
15434,-7.1776,-12.977
15445,-3.5101,-13.002
15457,-5.5419,-13.391
15469,-8.4005,-15.811
15480,-9.671,-17.283
15492,-9.0231,-19.584
15504,-8.7123,-15.669
15516,-8.9516,-15.462
15527,-8.2223,-16.027
15539,-5.2712,-14.815
15551,-10.176,-14.101
15563,-5.8334,-14.402
15574,-8.5084,-16.757
15586,-9.2046,-16.927
15598,-7.3559,-15.972
15609,-7.9968,-15.309
15621,-6.656,-15.145
15633,-6.0686,-15.423
15645,-9.719,-16.452
15656,-4.1385,-16.965
15668,-4.3931,-19.764
15680,-7.6022,-18.218
15691,-9.5524,-15.418
15703,-12.482,-14.671
15715,-7.2566,-14.836
15727,-6.6022,-18.061
15738,-10.098,-18.054
15750,-6.8881,-17.434
15762,-6.7663,-21.304
15773,-6.2293,-16.873
15785,-6.3493,-13.366
15797,-12.457,-13.438
15809,-5.3498,-16.178
15820,-7.4943,-18.237
15832,-7.5655,-17.428
15844,-8.1956,-16.761
15855,-8.4763,-17.802
15867,-7.9733,-14.627
15879,-8.9851,-14.376
15891,-8.0997,-15.468
15902,-9.2301,-16.916
15914,-9.6581,-13.235
15926,-13.176,-13.402
15938,-9.0113,-16.561
15949,-7.1542,-16.839
15961,-5.453,-16.272
15973,-4.9638,-14.14
15984,-8.7972,-15.399
15996,-13.961,-15.758
16008,-7.6543,-12.945
16020,-7.6444,-15.104
16031,-8.7105,-17.265
16043,-6.5848,-18.168
16055,-8.8341,-17.037
16066,-8.6391,-15.67
16078,-7.0196,-12.684
16090,-8.4677,-11.668
16102,-7.7735,-15.316
16113,-7.4953,-18.977
16125,-9.628,-15.355
16137,-12.319,-12.504
16148,-10.077,-15.217
16160,-7.1077,-15.145
16172,-8.0593,-15.707
16184,-10.757,-15.535
16195,-10.884,-17.367
16207,-7.9823,-17.263
16219,-8.0507,-16.339
16230,-7.9062,-17.199
16242,-7.5827,-16.633
16254,-8.0432,-14.639
16266,-7.7243,-16.085
16277,-6.4269,-19.116
16289,-9.3793,-16.003
16301,-13.002,-12.115
16313,-10.731,-13.189
16324,-6.5544,-17.545
16336,-8.2488,-14.111
16348,-9.1303,-11.438
16359,-9.6925,-13.023
16371,-9.7677,-13.175
16383,-6.6792,-14.806
16395,-7.7315,-15.542
16406,-10.667,-14.117
16418,-9.6285,-15.173
16430,-8.8203,-16.902
16441,-8.3932,-18.752
16453,-9.1187,-17.108
16465,-11.873,-15.467
16477,-12.304,-19.529
16488,-11.195,-18.853
16500,-7.9153,-15.651
16512,-5.9826,-14.432
16523,-5.8465,-16.557
16535,-9.2843,-18.056
16547,-9.7629,-17.502
16559,-9.0753,-19.235
16570,-11.028,-17.488
16582,-7.9041,-16.602
16594,-7.3645,-17.157
16605,-7.2735,-14.896
16617,-6.073,-16.022
16629,-7.7192,-16.347
16641,-7.7233,-14.52
16652,-7.7257,-14.482
16664,-9.3723,-17.275
16676,-10.198,-16.966
16688,-11.133,-17.03
16699,-12.623,-17.881
16711,-9.6716,-15.117
16723,-8.2408,-15.145
16734,-9.9205,-15.467
16746,-11.195,-17.724
16758,-9.1656,-19.594
16770,-7.6304,-17.982
16781,-8.1025,-16.895
16793,-9.9247,-17.676
16805,-8.0098,-17.433
16816,-10.998,-13.693
16828,-13.01,-13.35
16840,-8.0147,-19.133
16852,-8.5895,-18.764
16863,-9.0805,-17.739
16875,-7.7289,-15.951
16887,-7.389,-16.845
16898,-11.313,-17.526
16910,-9.8271,-17.075
16922,-7.6936,-15.273
16934,-9.3706,-14.107
16945,-11.774,-14.564
16957,-7.7822,-17.46
16969,-10.034,-17.647
16980,-11.583,-15.561
16992,-10.021,-16.39
17004,-11.747,-12.706
17016,-8.0441,-11.64
17027,-8.2806,-14.613
17039,-9.7009,-13.471
17051,-9.6147,-11.823
17063,-12.593,-14.635
17074,-11.868,-16.694
17086,-12.28,-16.321
17098,-10.239,-18.034
17109,-8.5918,-16.438
17121,-12.308,-14.8
17133,-8.8304,-18.105
17145,-11.203,-19.383
17156,-11.028,-17.998
17168,-9.1833,-20.364
17180,-10.588,-18.641
17191,-11.911,-17.359
17203,-10.548,-18.196
17215,-10.784,-15.39
17227,-10.646,-14.451
17238,-11.335,-13.385
17250,-12.511,-15.925
17262,-5.9011,-18.587
17273,-6.4854,-17.361
17285,-10.205,-16.107
17297,-9.8329,-16.346
17309,-10.054,-15.723
17320,-12.048,-14.128
17332,-9.8978,-18.47
17344,-9.2933,-18.25
17355,-10.88,-17.81
17367,-14.275,-16.621
17379,-11.278,-14.964
17391,-11.162,-15.638
17402,-14.305,-16.956
17414,-13.501,-17.244
17426,-11.365,-15.906
17438,-13.366,-16.327
17449,-14.646,-18.057
17461,-13.068,-17.221
17473,-10.614,-15.474
17484,-12.548,-15.081
17496,-8.9203,-12.735
17508,-11.599,-11.232
17520,-12.393,-13.111
17531,-10.537,-15.788
17543,-9.2493,-16.416
17555,-11.322,-15.279
17566,-8.9007,-15.037
17578,-11.685,-15.801
17590,-14.737,-16.25
17602,-14.186,-17.214
17613,-11.764,-18.2
17625,-14.18,-17.248
17637,-11.474,-16.855
17648,-9.6728,-17.99
17660,-11.105,-20.601
17672,-7.875,-18.094
17684,-7.631,-17.542
17695,-11.604,-17.7
17707,-11.489,-19.612
17719,-9.9494,-17.308
17730,-10.179,-16.938
17742,-8.6665,-21.347
17754,-8.9553,-15.996
17766,-12.286,-14.473
17777,-9.8378,-14.812
17789,-12.336,-17.371
17801,-12.413,-17.035
17813,-14.29,-17.226
17824,-10.376,-17.138
17836,-10.623,-15.504
17848,-8.6664,-13.169
17859,-8.2603,-14.068
17871,-11.424,-19.504
17883,-12.308,-17.492
17895,-10.884,-15.135
17906,-9.6099,-16.457
17918,-10.766,-21.427
17930,-11.371,-19.702
17941,-10.896,-17.438
17953,-8.6303,-16.546
17965,-10.125,-16.254
17977,-10.345,-15.945
17988,-12.172,-16.198
18000,-14.13,-15.542
18012,-12.325,-18.678
18023,-11.744,-22.38
18035,-12.264,-19.1
18047,-12.408,-17.012
18059,-12.099,-16.07
18070,-9.6056,-17.04
18082,-6.4563,-15.191
18094,-7.6891,-18.477
18105,-11.552,-16.73
18117,-15.019,-19.761
18129,-15.267,-19.659
18141,-13.291,-16.726
18152,-11.903,-14.069
18164,-10.889,-12.534
18176,-11.99,-12.7
18188,-12.986,-14.424
18199,-12.83,-17.092
18211,-15.644,-14.501
18223,-18.608,-14.955
18234,-15.362,-18.252
18246,-11.741,-16.047
18258,-11.258,-16.383
18270,-16.99,-17.639
18281,-12.948,-17.64
18293,-12.691,-16.424
18305,-12.345,-16.798
18316,-12.847,-16.592
18328,-12.644,-19.199
18340,-12.792,-18.384
18352,-10.28,-17.446
18363,-9.6104,-17.851
18375,-8.5216,-15.881
18387,-8.3833,-15.222
18398,-9.6428,-15.709
18410,-8.098,-17.251
18422,-6.2439,-18.531
18434,-7.8924,-19.456
18445,-9.3699,-17.552
18457,-10.448,-13.463
18469,-14.287,-13.799
18480,-12.507,-16.529
18492,-11.435,-17.476
18504,-12.444,-16.981
18516,-9.7034,-17.287
18527,-10.052,-15.305
18539,-11.415,-16.076
18551,-12.244,-21.567
18563,-13.747,-18.601
18574,-14.021,-16.898
18586,-13.033,-15.972
18598,-13.082,-16.397
18609,-12.308,-18.328
18621,-12.038,-16.655
18633,-12.512,-16.433
18645,-9.8582,-20.156
18656,-10.724,-15.437
18668,-11.605,-14.656
18680,-13.608,-16.37
18691,-9.9251,-16.035
18703,-10.675,-17.767
18715,-9.8381,-17.809
18727,-12.128,-16.97
18738,-12.191,-17.626
18750,-12.035,-21.267
18762,-10.489,-18.341
18773,-9.4137,-17.368
18785,-11.26,-19.984
18797,-14.736,-19.967
18809,-13.086,-17.701
18820,-11.558,-18.501
18832,-10.238,-19.239
18844,-8.9418,-16.88
18855,-10.048,-17.69
18867,-10.805,-19.415
18879,-11.999,-17.846
18891,-14.963,-18.111
18902,-11.918,-19.248
18914,-11.28,-16.976
18926,-14.681,-15.934
18938,-12.892,-18.25
18949,-12.812,-20.478
18961,-13.507,-17.042
18973,-13.355,-21.088
18984,-12.033,-17.994
18996,-11.611,-16.204
19008,-11.789,-14.537
19020,-12.063,-15.544
19031,-11.204,-18.542
19043,-14.297,-18.792
19055,-13.389,-17.562
19066,-13.058,-17.655
19078,-12.501,-19.234
19090,-12.22,-18.26
19102,-16.094,-17.526
19113,-17.699,-19.714
19125,-12.474,-19.783
19137,-12.892,-16.187
19148,-15.151,-14.383
19160,-18.013,-17.856
19172,-18.641,-20.411
19184,-16.534,-18.861
19195,-12.695,-17.621
19207,-10.226,-16.262
19219,-11.972,-17.374
19230,-13.336,-18.48
19242,-11.971,-16.684
19254,-10.774,-16.304
19266,-11.86,-17.353
19277,-15.395,-18.792
19289,-12.691,-19.522
19301,-12.969,-17.659
19313,-15.781,-16.604
19324,-14.604,-16.397
19336,-13.604,-17.814
19348,-12.166,-18.885
19359,-10.187,-19.115
19371,-10.31,-17.811
19383,-11.755,-20.397
19395,-11.683,-20.646
19406,-12.777,-17.48
19418,-16.015,-15.743
19430,-15.419,-18.884
19441,-13.261,-20.308
19453,-14.335,-21.126
19465,-12.12,-18.106
19477,-13.649,-16.515
19488,-15.604,-17.276
19500,-13.654,-19.556
19512,-13.896,-16.26
19523,-14.706,-15.243
19535,-13.032,-20.345
19547,-11.569,-21.283
19559,-12.396,-16.542
19570,-15.06,-18.232
19582,-15.239,-18.832
19594,-11.383,-19.076
19605,-14.202,-19.517
19617,-18.862,-20.586
19629,-16.195,-17.645
19641,-16.799,-17.018
19652,-16.238,-19.885
19664,-15.881,-18.041
19676,-14.244,-18.046
19688,-13.036,-16.979
19699,-11.992,-17.215
19711,-12.616,-18.665
19723,-14.787,-17.323
19734,-12.465,-14.837
19746,-13.433,-15.414
19758,-13.288,-16.984
19770,-14.389,-17.409
19781,-15.75,-20.159
19793,-15.44,-19.632
19805,-14.586,-18.308
19816,-13.3,-18.696
19828,-14.789,-20.427
19840,-13.551,-20.625
19852,-16.008,-18.652
19863,-17.242,-17.832
19875,-14.575,-22.399
19887,-12.796,-19.633
19898,-13.693,-20.376
19910,-16.341,-23.197
19922,-13.817,-20.205
19934,-12.672,-20.234
19945,-14.067,-20.487
19957,-15.873,-19.478
19969,-12.689,-19.164
19980,-13.86,-16.405
19992,-15.833,-13.849
20004,-12,-14.959
20016,-12.418,-18.778
20027,-12.639,-17.294
20039,-13.686,-19.064
20051,-15.97,-16.639
20063,-15.367,-15.71
20074,-14.344,-17.99
20086,-16.178,-19.216
20098,-16.781,-19.459
20109,-17.931,-17.798
20121,-11.433,-17.645
20133,-9.6894,-20.769
20145,-12.689,-23.577
20156,-13.981,-21.813
20168,-15.533,-19.219
20180,-12.691,-18.363
20191,-14.033,-17.207
20203,-14.369,-15.631
20215,-14.351,-18.818
20227,-13.349,-17.384
20238,-16.511,-19.352
20250,-17.563,-17.943
20262,-15.697,-19.141
20273,-14.92,-19.92
20285,-19.268,-21.72
20297,-17.995,-21.802
20309,-16.259,-19.847
20320,-14.635,-19.029
20332,-15.333,-19.341
20344,-13.171,-20.592
20355,-12.556,-17.374
20367,-12.761,-17.006
20379,-12.451,-18.641
20391,-13.852,-18.529
20402,-16.14,-19.726
20414,-15.184,-23.056
20426,-15.904,-21.642
20438,-17.147,-20.994
20449,-11.548,-19.609
20461,-7.561,-21.315
20473,-12.337,-20.1
20484,-14.772,-19.234
20496,-13.14,-19.312
20508,-9.2945,-15.697
20520,-10.877,-16.319
20531,-16.211,-17.787
20543,-17.264,-17.79
20555,-12.725,-20.724
20566,-12.449,-18.379
20578,-16.542,-18.927
20590,-16.996,-17.559
20602,-15.595,-15.116
20613,-18.323,-16.885
20625,-17.748,-19.063
20637,-15.966,-18.253
20648,-13.69,-15.083
20660,-12.687,-16.928
20672,-12.795,-20.488
20684,-12.315,-19.864
20695,-12.968,-19.544
20707,-15.346,-17.659
20719,-15.021,-18.991
20730,-16.195,-18.963
20742,-20.564,-20.311
20754,-17.195,-20.905
20766,-16.151,-20.34
20777,-20.433,-20.036
20789,-17.906,-18.483
20801,-15.197,-19.725
20813,-14.347,-18.808
20824,-17.467,-18.314
20836,-18.142,-18.609
20848,-17.629,-20.414
20859,-15.883,-23.651
20871,-15.946,-17.334
20883,-16.426,-16.572
20895,-15.417,-18.819
20906,-16.578,-16.46
20918,-16.202,-16.409
20930,-15.336,-19.574
20941,-15.214,-20.723
20953,-14.842,-19.703
20965,-13.898,-22.424
20977,-15.069,-25.946
20988,-17.134,-19.176
21000,-18.837,-16.808
21012,-16.455,-20
21023,-16.036,-23.399
21035,-14.733,-19.541
21047,-15.303,-18.58
21059,-16.267,-16.749
21070,-17.291,-15.581
21082,-14.577,-16.426
21094,-14.597,-17.143
21105,-17.225,-18.927
21117,-15.777,-19.426
21129,-19.113,-19.411
21141,-16.962,-16.328
21152,-14.726,-17.414
21164,-14.803,-20.992
21176,-14.784,-22.301
21188,-16.946,-22.339
21199,-15.764,-20.179
21211,-12.772,-19.99
21223,-13.466,-21.969
21234,-14.394,-22.41
21246,-12.967,-19.668
21258,-17.762,-20.253
21270,-15.763,-21.054
21281,-14.29,-22.245
21293,-12.8,-20.976
21305,-13.78,-19.834
21316,-13.492,-23.6
21328,-15.098,-19.794
21340,-16.48,-21.062
21352,-15.817,-22.632
21363,-16.803,-17.697
21375,-14.734,-16.985
21387,-14.636,-19.343
21398,-14.114,-20.712
21410,-14.277,-17.858
21422,-15.318,-18.381
21434,-18.32,-21.982
21445,-19.617,-22.671
21457,-18.434,-24.132
21469,-16.426,-20.337
21480,-13.025,-17.76
21492,-12.114,-18.159
21504,-15.909,-18.11
21516,-18.792,-19.305
21527,-15.902,-19.185
21539,-13.193,-15.402
21551,-14.587,-16.237
21563,-15.908,-22.002
21574,-15.155,-20.601
21586,-14.514,-20.958
21598,-15.403,-22.075
21609,-14.46,-21.352
21621,-14.916,-19.945
21633,-19.202,-17.903
21645,-16.45,-20.486
21656,-18.199,-20.094
21668,-15.879,-17.969
21680,-16.327,-18.538
21691,-16.713,-20.251
21703,-18.231,-20.443
21715,-15.356,-21.604
21727,-15.479,-21.164
21738,-16.419,-19.693
21750,-15.626,-17.77
21762,-16.148,-17.543
21773,-15.837,-19.517
21785,-16.789,-17.537
21797,-15.722,-15.739
21809,-16.482,-17.295
21820,-17.84,-18.155
21832,-15.679,-17.646
21844,-13.448,-20.576
21855,-17.272,-20.419
21867,-16.25,-21.551
21879,-16.042,-19.944
21891,-14.955,-17.875
21902,-13.52,-19.331
21914,-15.142,-21.875
21926,-15.949,-21.251
21938,-16.439,-21.816
21949,-16.053,-21.481
21961,-17.405,-17.395
21973,-17.855,-17.734
21984,-18.919,-20.031
21996,-17.871,-16.724
22008,-20.066,-18.152
22020,-19.177,-20.4
22031,-17.253,-20.43
22043,-17.355,-21.151
22055,-19.387,-21.037
22066,-19.729,-20.118
22078,-18.701,-20.196
22090,-18.538,-20.327
22102,-18.145,-19.941
22113,-15.899,-18.335
22125,-14.857,-19.264
22137,-14.569,-20.614
22148,-15.037,-21.143
22160,-15.89,-18.966
22172,-16.161,-17.937
22184,-18.183,-20.746
22195,-16.789,-18.437
22207,-15.797,-17.3
22219,-16.294,-20.95
22230,-14.548,-19.612
22242,-15.811,-17.922
22254,-19.157,-19.1
22266,-19.173,-20.469
22277,-16.377,-21.518
22289,-16.704,-19.549
22301,-16.689,-20.552
22313,-17.8,-20.638
22324,-16.671,-21.242
22336,-15.726,-19.207
22348,-14.169,-18.692
22359,-13.912,-17.966
22371,-15.221,-18.265
22383,-18.766,-16.003
22395,-15.972,-20.231
22406,-17.838,-18.199
22418,-15.797,-16.56
22430,-12.99,-18.907
22441,-16.236,-20.501
22453,-15.939,-21.912
22465,-14.047,-21.274
22477,-15.589,-21.527
22488,-16.243,-21.54
22500,-19.089,-18.534
22512,-19.499,-17.193
22523,-16.969,-18.025
22535,-16.798,-20.809
22547,-16.724,-20.463
22559,-17.109,-19.67
22570,-18.505,-19.228
22582,-19.268,-19.402
22594,-17.203,-18.487
22605,-18.994,-19.562
22617,-18.447,-20.681
22629,-17.729,-21.177
22641,-18.88,-21.015
22652,-16.663,-20.721
22664,-19.68,-19.064
22676,-20.988,-20.149
22688,-19.393,-19.517
22699,-17.751,-20.238
22711,-17.682,-19.806
22723,-19.1,-20.278
22734,-19.278,-20.972
22746,-15.193,-19.776
22758,-13.478,-16.671
22770,-13.997,-17.076
22781,-17.905,-19.377
22793,-20.89,-21.06
22805,-18.474,-17.724
22816,-18.776,-16.819
22828,-16.51,-18.821
22840,-17.462,-20.317
22852,-19.527,-18.978
22863,-18.751,-17.806
22875,-17.123,-17.962
22887,-18.167,-21.546
22898,-19.305,-20.376
22910,-17.122,-18.974
22922,-18.296,-20.764
22934,-15.802,-20.778
22945,-15.187,-18.808
22957,-15.903,-20.464
22969,-15.61,-22.717
22980,-19.46,-22.455
22992,-21.34,-17.371
23004,-18.571,-17.106
23016,-18.617,-19.972
23027,-19.445,-22.443
23039,-17.124,-21.592
23051,-18.063,-18.762
23063,-18.516,-17.67
23074,-19.447,-18.244
23086,-18.559,-20.992
23098,-14.502,-25.922
23109,-14.653,-22.702
23121,-15.778,-22.469
23133,-17.631,-23.172
23145,-19.934,-22.153
23156,-19.581,-19.801
23168,-19.97,-19.498
23180,-15.437,-18.857
23191,-15.701,-21.969
23203,-16.431,-26.456
23215,-17.99,-24.916
23227,-19.873,-24.811
23238,-17.776,-20.452
23250,-20.389,-19.509
23262,-19.028,-18.041
23273,-18.781,-18.265
23285,-18.214,-17.849
23297,-17.415,-18.831
23309,-17.277,-21.125
23320,-18.151,-21.32
23332,-18.68,-19.165
23344,-20.354,-16.04
23355,-17.252,-16.617
23367,-19.268,-18.969
23379,-17.368,-20.321
23391,-16.572,-20.861
23402,-18.753,-19.285
23414,-18.919,-20.278
23426,-17.908,-22.205
23438,-19.455,-19.653
23449,-21.128,-18.595
23461,-19.386,-21.296
23473,-17.533,-21.798
23484,-18.35,-20.448
23496,-18.911,-21.726
23508,-15.456,-21.451
23520,-17.077,-23.004
23531,-18.24,-25.952
23543,-17.475,-22.007
23555,-16.621,-17.732
23566,-17.158,-19.754
23578,-19.349,-18.975
23590,-22.244,-20.671
23602,-20.991,-18.92
23613,-16.27,-19.571
23625,-13.282,-20.343
23637,-15.625,-20.153
23648,-17.879,-19.272
23660,-17.095,-18.999
23672,-15.12,-20.277
23684,-14.46,-19.741
23695,-17.618,-20.866
23707,-17.733,-19.821
23719,-19.077,-22.945
23730,-20.906,-18.958
23742,-18.39,-19.858
23754,-15.996,-18.904
23766,-15.588,-19.731
23777,-17.302,-20.122
23789,-15.726,-22.033
23801,-18.049,-20.116
23813,-20.877,-20.387
23824,-19.328,-18.152
23836,-21.338,-18.64
23848,-17.937,-21.794
23859,-16.471,-21.401
23871,-17.974,-20.56
23883,-16.439,-18.465
23895,-15.638,-17.389
23906,-16.768,-18.136
23918,-21.247,-23.394
23930,-20.257,-21.765
23941,-17.708,-22.359
23953,-17.204,-22.725
23965,-16.712,-22.219
23977,-15.92,-20.011
23988,-16.728,-16.427
