FFT,Power Spectrum
Frequency[Hz],Level-L[dB],Level-R[dB]
11.719,-22.136,-23.88
23.438,-2.4055,-4.5086
35.156,-4.8516,-2.9889
46.875,0.17548,2.6548
58.594,0.33847,2.3621
70.313,3.4403,2.3539
82.031,7.8652,6.2556
93.75,11.781,8.6062
105.47,10.38,4.3624
117.19,10.964,8.268
128.91,10.044,7.145
140.63,11.747,9.1983
152.34,9.0488,8.1857
164.06,0.95297,4.2256
175.78,6.1171,3.7295
187.5,11.087,7.5642
199.22,9.9846,5.6805
210.94,7.3858,4.6788
222.66,5.0882,7.1908
234.38,6.7294,9.5901
246.09,9.5109,9.9914
257.81,9.0053,8.3802
269.53,5.0808,6.3506
281.25,8.3727,9.2144
292.97,8.8235,7.0053
304.69,6.6755,3.5709
316.41,0.17749,3.1946
328.13,5.6695,5.9995
339.84,6.1651,4.3006
351.56,7.5251,5.5174
363.28,8.0525,7.5376
375,6.1023,5.1684
386.72,5.5968,5.5023
398.44,6.3781,5.3165
410.16,8.7628,6.1062
421.88,0.95374,4.7671
433.59,6.6798,6.3624
445.31,6.7531,5.2013
457.03,6.9733,7.2596
468.75,8.0349,6.9475
480.47,8.4427,6.39
492.19,5.9571,4.1361
503.91,5.1619,5.3574
515.63,3.7711,7.6201
527.34,4.185,6.8636
539.06,1.8567,3.6787
550.78,4.1609,4.5938
562.5,5.3365,5.4345
574.22,7.4234,5.7621
585.94,8.752,8.5652
597.66,7.2394,8.4277
609.38,4.5339,4.6755
621.09,3.7,6.635
632.81,3.4721,8.7694
644.53,5.1002,8.814
656.25,6.9988,8.3529
667.97,6.8963,6.7113
679.69,9.9587,7.6443
691.41,7.4015,2.3191
703.13,4.8816,4.2007
714.84,2.0444,4.534
726.56,5.3642,8.007
738.28,5.5733,5.1622
750,7.9046,1.012
761.72,9.1847,5.4263
773.44,7.869,10.374
785.16,9.7026,11.243
796.88,13.007,9.7565
808.59,13.57,9.3212
820.31,10.875,6.6375
832.03,9.2589,6.4661
843.75,9.8987,5.7411
855.47,10.41,7.708
867.19,7.2295,4.0192
878.91,6.6922,5.5817
890.63,5.0759,7.2017
902.34,5.3893,7.4763
914.06,8.6811,5.5289
925.78,7.1062,5.2331
937.5,6.7025,5.2661
949.22,6.8205,6.3371
960.94,4.3186,5.0352
972.66,4.4971,5.6351
984.38,2.7583,6.2101
996.09,6.8144,5.4419
1007.8,5.6364,5.9796
1019.5,3.9559,5.1947
1031.3,4.129,4.1008
1043,3.1401,5.2402
1054.7,5.3514,4.4891
1066.4,5.8956,6.509
1078.1,6.4867,7.5239
1089.8,7.7787,6.5931
1101.6,9.049,5.401
1113.3,6.6661,4.681
1125,4.6307,0.11784
1136.7,3.9885,1.0257
1148.4,4.2851,4.325
1160.2,4.1629,4.9831
1171.9,6.1098,7.7896
1183.6,6.2615,3.4077
1195.3,6.014,5.0439
1207,9.2281,7.1422
1218.8,10.529,7.1048
1230.5,8.1732,3.9488
1242.2,5.5075,3.6902
1253.9,1.2906,1.3136
1265.6,-2.4688,2.3222
1277.3,-1.2176,0.56988
1289.1,5.188,-1.0721
1300.8,2.1662,2.1103
1312.5,4.9368,3.2022
1324.2,4.718,2.2177
1335.9,3.7927,-2.7469
1347.7,2.7741,0.96086
1359.4,1.8946,4.5133
1371.1,2.5651,6.722
1382.8,1.0189,6.6661
1394.5,4.4542,4.1573
1406.3,3.2442,5.973
1418,3.5363,6.2149
1429.7,1.7673,3.1653
1441.4,0.87832,3.29
1453.1,4.9755,6.5141
1464.8,6.7025,6.8958
1476.6,6.0106,3.6117
1488.3,5.5462,3.0406
1500,6.1199,5.7087
1511.7,3.6801,4.5087
1523.4,2.9198,1.538
1535.2,1.5721,0.83852
1546.9,2.4263,3.7518
1558.6,4.6513,3.9744
1570.3,5.6547,2.0361
1582,3.2217,1.658
1593.8,2.5915,1.3848
1605.5,4.4562,2.5433
1617.2,4.602,1.265
1628.9,2.5883,5.0779
1640.6,-0.53027,5.9076
1652.3,0.76853,2.5384
1664.1,2.3507,3.5238
1675.8,2.4155,4.6949
1687.5,4.4767,6.1239
1699.2,3.9168,6.6306
1710.9,3.9566,6.0259
1722.7,4.9137,3.3921
1734.4,4.1777,2.1668
1746.1,7.8482,3.9343
1757.8,7.5227,4.6029
1769.5,4.1115,5.3165
1781.3,2.7751,6.1437
1793,0.79793,3.6795
1804.7,5.0325,-0.033646
1816.4,5.63,1.2248
1828.1,2.5091,1.3519
1839.8,2.4308,2.2708
1851.6,3.5769,-1.1731
1863.3,2.7969,1.7014
1875,3.2366,1.8489
1886.7,4.9954,2.9494
1898.4,7.9346,2.2262
1910.2,5.6903,3.454
1921.9,0.86711,3.7321
1933.6,1.2885,4.4358
1945.3,1.4033,4.5793
1957,5.1404,6.0139
1968.8,4.7743,5.3305
1980.5,0.022176,3.7908
1992.2,-0.61,2.3264
2003.9,-0.59116,4.002
2015.6,2.6763,3.0809
2027.3,2.2167,3.3994
2039.1,0.65626,1.7922
2050.8,4.0095,-0.72718
2062.5,4.0929,0.9004
2074.2,0.54976,1.0311
2085.9,-0.5506,3.6279
2097.7,0.4225,3.036
2109.4,0.86186,4.8609
2121.1,5.0832,5.0207
2132.8,3.8623,6.4006
2144.5,1.0441,6.7719
2156.3,0.82327,5.7734
2168,6.4173,2.8654
2179.7,5.6242,3.4089
2191.4,2.3681,0.93098
2203.1,3.5556,0.5089
2214.8,1.4306,1.0749
2226.6,3.7426,1.5632
2238.3,5.6237,4.2562
2250,1.3233,2.7877
2261.7,2.7865,2.8628
2273.4,-1.1389,1.4815
2285.2,-0.64264,4.8722
2296.9,1.5555,6.2817
2308.6,3.3515,5.4226
2320.3,2.6423,3.164
2332,2.1806,1.9313
2343.8,2.4303,0.81965
2355.5,2.4007,1.3391
2367.2,0.68955,-0.023529
2378.9,-0.75778,0.069021
2390.6,1.3857,3.3358
2402.3,4.1805,3.9411
2414.1,1.7906,0.57144
2425.8,-0.057692,-0.80482
2437.5,1.4874,2.4639
2449.2,1.7225,4.4347
2460.9,0.48932,5.081
2472.7,1.0321,4.3143
2484.4,1.8559,2.0929
2496.1,0.09419,0.12077
2507.8,-2.3553,-0.56905
2519.5,-1.7279,-0.02533
2531.3,1.3535,3.7285
2543,2.3592,3.4289
2554.7,-0.097017,1.2398
2566.4,-0.49237,-1.1137
2578.1,0.63082,0.94681
2589.8,0.87664,2.0753
2601.6,-2.079,1.9193
2613.3,1.9123,3.1108
2625,4.8424,3.0753
2636.7,3.8912,0.9006
2648.4,1.5434,4.2661
2660.2,2.8039,5.431
2671.9,0.56482,-1.8667
2683.6,-1.9397,-1.0664
2695.3,-0.11787,0.73728
2707,2.271,0.8752
2718.8,2.7304,-1.748
2730.5,2.4471,0.47816
2742.2,0.53421,0.99983
2753.9,1.266,1.6195
2765.6,0.63987,1.5523
2777.3,-1.3035,1.7423
2789.1,1.3596,-1.8211
2800.8,0.30383,1.0835
2812.5,2.6781,0.08968
2824.2,5.3146,-3.1611
2835.9,1.8026,-1.4354
2847.7,-0.85722,2.6708
2859.4,4.0426,4.6055
2871.1,0.54126,2.4618
2882.8,1.5335,-0.46351
2894.5,1.8154,-0.19463
2906.3,2.2406,-0.034507
2918,2.0815,-0.36575
2929.7,-0.93907,2.1994
2941.4,1.6083,1.7639
2953.1,-1.4601,0.30716
2964.8,0.071599,-0.76102
2976.6,1.2729,-1.4329
2988.3,0.46718,-1.5149
3000,-0.69242,-0.080949
3011.7,0.21636,1.1209
3023.4,1.0896,-1.0997
3035.2,2.7355,-1.1326
3046.9,0.088732,-0.34942
3058.6,-0.067264,2.1148
3070.3,-3.8823,2.2789
3082,-2.0778,-0.17133
3093.8,-0.63086,-0.28154
3105.5,-1.3584,0.38786
3117.2,-1.2791,-0.81298
3128.9,-2.0008,-0.34886
3140.6,-1.0226,0.1827
3152.3,0.03613,0.13422
3164.1,0.29374,-2.0274
3175.8,-0.76725,-0.57483
3187.5,1.5067,1.695
3199.2,0.51792,1.289
3210.9,-3.0008,-0.41882
3222.7,-2.3105,-2.0447
3234.4,-1.153,-1.0224
3246.1,-1.1496,0.7037
3257.8,-0.93797,-0.12934
3269.5,-1.5593,-3.3167
3281.3,-2.2222,0.90609
3293,-0.74225,1.2272
3304.7,-3.7354,0.016932
3316.4,-0.88846,-4.9112
3328.1,-1.0135,-0.43998
3339.8,-3.1388,-0.49933
3351.6,-1.5083,-3.633
3363.3,-2.2199,-1.2268
3375,-1.6721,-1.0302
3386.7,-0.76082,-0.7486
3398.4,-2.6085,-1.4209
3410.2,0.11798,-2.4969
3421.9,0.3808,-0.59172
3433.6,-2.9669,-0.3519
3445.3,-2.3503,-4.9506
3457,-2.6107,-0.62469
3468.8,-1.5734,-1.0089
3480.5,-0.17007,0.030209
3492.2,0.36854,1.1821
3503.9,-3.7794,1.5317
3515.6,-5.738,0.043181
3527.3,-4.3098,-1.8058
3539.1,-0.72931,-4.3405
3550.8,0.99139,-1.5051
3562.5,0.93414,-0.22618
3574.2,-1.8133,-1.9046
3585.9,-0.38961,0.13216
3597.7,-0.84192,0.49705
3609.4,-2.625,-3.207
3621.1,-1.5753,-2.277
3632.8,-2.5873,-0.84986
3644.5,-2.2024,-1.3458
3656.3,-2.0561,-2.5856
3668,-3.2598,-3.512
3679.7,-1.05,-1.2965
3691.4,-3.6633,-0.17172
3703.1,-1.7896,-0.46349
3714.8,1.0348,-1.5681
3726.6,0.97439,-2.1745
3738.3,-1.0633,-1.2297
3750,-2.636,-1.6509
3761.7,-2.7355,-4.3115
3773.4,0.36108,-3.9906
3785.2,0.19423,-4.3137
3796.9,-3.229,-4.5893
3808.6,-3.6428,-1.7909
3820.3,-1.2753,1.0544
3832,-1.6956,-1.2052
3843.8,-5.2938,-4.9615
3855.5,-2.3844,-0.73379
3867.2,-1.9761,-0.89864
3878.9,-1.0017,-3.3284
3890.6,-1.4861,-3.3163
3902.3,0.17903,-0.61426
3914.1,0.57674,-3.1166
3925.8,-1.3669,-1.6913
3937.5,-1.0701,-0.37703
3949.2,-2.9941,-2.0517
3960.9,-1.6524,-3.3039
3972.7,-0.76359,-2.7171
3984.4,-2.3362,-1.2374
3996.1,-4.0913,-1.6968
4007.8,-4.3237,-2.2555
4019.5,-0.41593,-0.76608
4031.3,-0.44345,0.49461
4043,-1.0622,-1.2121
4054.7,-1.7914,-1.0456
4066.4,-3.2001,-0.58628
4078.1,-2.9801,-1.3957
4089.8,-0.49054,-2.9353
4101.6,-3.6833,-4.7044
4113.3,-3.5388,-4.8858
4125,-4.7208,-3.1953
4136.7,-6.8942,-3.1769
4148.4,-4.076,-2.8969
4160.2,-2.2326,-2.9964
4171.9,-2.5459,-2.7388
4183.6,-1.463,-3.3983
4195.3,-1.3289,-2.8745
4207,-1.8346,-1.6054
4218.8,-2.6892,-1.0253
4230.5,-3.3487,-3.0114
4242.2,-3.2059,-4.621
4253.9,-3.3409,-4.7695
4265.6,-2.2597,-1.2509
4277.3,-2.3196,-1.4348
4289.1,-3.7867,-4.2282
4300.8,-1.5232,-3.5331
4312.5,-0.42357,-3.2416
4324.2,0.17764,-3.271
4335.9,-1.5918,-2.7756
4347.7,-1.1435,-1.0214
4359.4,-2.6616,0.75974
4371.1,-2.6341,-0.42188
4382.8,0.37126,-2.9267
4394.5,-0.68159,-1.523
4406.3,-2.621,-1.7986
4418,-3.7899,-1.4776
4429.7,-3.2078,0.051009
4441.4,-6.1477,-1.7016
4453.1,-4.4304,-4.3703
4464.8,-3.9256,-3.3263
4476.6,-3.2282,-1.4958
4488.3,-0.4293,-2.0108
4500,-1.4011,-4.749
4511.7,-3.631,-2.464
4523.4,-4.0334,-3.3189
4535.2,-4.933,-4.9974
4546.9,-6.4913,-2.7439
4558.6,-4.5109,-4.3323
4570.3,-1.0699,-4.6873
4582,-3.8411,-4.2852
4593.8,-4.3202,-4.9219
4605.5,-4.069,-5.5548
4617.2,-2.4791,-5.8879
4628.9,0.15829,-3.9645
4640.6,-0.86304,-0.62552
4652.3,-1.2616,-0.063857
4664.1,-4.9761,-1.8553
4675.8,-3.1834,-1.4686
4687.5,-2.1,-3.1091
4699.2,-5.6484,-3.6472
4710.9,-2.7585,-2.7154
4722.7,-1.2445,-1.5731
4734.4,-2.6669,-2.4167
4746.1,-0.94324,-4.3013
4757.8,-2.6033,-4.524
4769.5,-6.6826,-3.2652
4781.3,-2.2342,-2.7764
4793,-3.323,-5.9075
4804.7,-5.6041,-3.6181
4816.4,-3.2076,-5.4277
4828.1,-4.3342,-3.0868
4839.8,-5.0002,-1.3508
4851.6,-2.802,-1.9925
4863.3,-2.9135,-3.0707
4875,-4.6541,-3.0995
4886.7,-2.8115,-3.8566
4898.4,-3.6039,-4.0557
4910.2,-4.2329,-2.9567
4921.9,-3.9641,-2.0103
4933.6,-6.1828,-1.2912
4945.3,-6.3655,0.18472
4957,-5.2643,-0.16444
4968.8,-2.8878,-3.3084
4980.5,-0.54356,-6.0747
4992.2,-2.0633,-4.8865
5003.9,-3.826,-6.4618
5015.6,-3.2425,-7.2287
5027.3,-3.604,-7.8547
5039.1,-4.5873,-7.0849
5050.8,-5.0308,-8.1267
5062.5,-1.9949,-5.266
5074.2,-3.255,-3.1471
5085.9,-2.7118,-6.8161
5097.7,-1.7949,-3.9702
5109.4,-1.7213,-4.1437
5121.1,-2.4594,-4.8198
5132.8,-2.6674,-6.3573
5144.5,-2.8168,-5.3465
5156.3,-3.4764,-4.647
5168,-1.5215,-6.8872
5179.7,-1.7442,-7.3476
5191.4,-3.2204,-4.8317
5203.1,-3.6101,-4.2331
5214.8,-5.3137,-6.885
5226.6,-6.2028,-6.6897
5238.3,-7.9215,-6.1202
5250,-1.5717,-2.1381
5261.7,-3.4323,-2.2889
5273.4,-6.5141,-4.203
5285.2,-7.23,-5.4659
5296.9,-4.3859,-6.9027
5308.6,-1.1165,-5.8458
5320.3,-2.9969,-4.8733
5332,-1.9696,-3.4657
5343.8,-1.9222,-5.299
5355.5,-2.4703,-6.8279
5367.2,-3.943,-6.3437
5378.9,-7.8835,-4.8814
5390.6,-8.186,-3.8887
5402.3,-3.3542,-4.8674
5414.1,-1.4772,-4.6357
5425.8,-4.3032,-4.5229
5437.5,-6.397,-2.909
5449.2,-4.3513,-2.0232
5460.9,-2.8681,-5.892
5472.7,-1.9244,-5.3887
5484.4,-2.9015,-8.3917
5496.1,-4.3953,-8.486
5507.8,-4.4495,-5.3423
5519.5,-8.2189,-4.0963
5531.3,-7.3866,-5.4638
5543,-8.424,-6.0254
5554.7,-7.022,-4.8032
5566.4,-5.6276,-6.7399
5578.1,-4.9493,-5.8086
5589.8,-5.5493,-6.6155
5601.6,-6.1316,-7.543
5613.3,-3.9243,-5.7359
5625,-1.7327,-3.7267
5636.7,-5.5547,-4.45
5648.4,-4.3108,-4.4558
5660.2,-6.9489,-6.9901
5671.9,-9.2969,-5.9647
5683.6,-4.986,-4.8244
5695.3,-2.8477,-6.4946
5707,-3.3405,-5.1146
5718.8,-4.732,-5.2478
5730.5,-2.7334,-6.696
5742.2,-3.368,-5.5721
5753.9,-8.7246,-5.5036
5765.6,-5.5915,-5.8793
5777.3,-3.5613,-7.0647
5789.1,-5.0938,-4.2927
5800.8,-5.0679,-4.2471
5812.5,-4.5441,-6.217
5824.2,-3.6554,-4.7772
5835.9,-7.4421,-6.598
5847.7,-6.0509,-7.9751
5859.4,-4.8775,-7.2852
5871.1,-5.8044,-5.9126
5882.8,-3.7343,-2.4598
5894.5,-2.7576,-1.9608
5906.3,-5.302,-3.876
5918,-8.1897,-6.5197
5929.7,-5.1891,-6.1074
5941.4,-3.5608,-5.6737
5953.1,-4.3158,-5.232
5964.8,-4.1869,-6.8523
5976.6,-3.1936,-5.9985
5988.3,-3.4951,-5.0947
6000,-5.3948,-7.5932
6011.7,-8.3441,-8.3016
6023.4,-6.1049,-7.1693
6035.2,-4.9265,-7.0015
6046.9,-5.3571,-8.824
6058.6,-3.6547,-9.3982
6070.3,-2.6255,-4.5576
6082,-6.2062,-3.5127
6093.8,-3.284,-2.8996
6105.5,-3.5551,-4.9181
6117.2,-3.7815,-5.053
6128.9,-3.1548,-5.8564
6140.6,-4.9554,-4.3965
6152.3,-6.0112,-6.7645
6164.1,-7.1534,-8.9897
6175.8,-4.6585,-5.4432
6187.5,-3.9831,-4.4044
6199.2,-5.5321,-5.7543
6210.9,-5.4438,-5.456
6222.7,-4.7367,-6.2153
6234.4,-5.2672,-6.9183
6246.1,-5.3164,-5.5017
6257.8,-7.1539,-6.597
6269.5,-9.4357,-7.5478
6281.3,-7.7145,-4.0617
6293,-7.341,-6.3653
6304.7,-3.4929,-8.2511
6316.4,-4.8976,-6.1619
6328.1,-6.342,-5.8308
6339.8,-8.553,-6.1029
6351.6,-8.8119,-4.6091
6363.3,-7.3494,-6.2347
6375,-5.5324,-6.0055
6386.7,-6.9611,-5.7937
6398.4,-8.7301,-4.3087
6410.2,-6.3744,-7.2001
6421.9,-6.1563,-8.165
6433.6,-6.5644,-4.5498
6445.3,-5.1163,-4.2906
6457,-7.0205,-7.7328
6468.8,-5.6953,-4.6788
6480.5,-4.929,-4.828
6492.2,-6.8506,-5.8878
6503.9,-10.712,-4.1676
6515.6,-10.211,-3.0254
6527.3,-8.0495,-3.6483
6539.1,-8.2897,-8.5896
6550.8,-12.885,-10.702
6562.5,-7.9056,-7.2669
6574.2,-4.8914,-5.4022
6585.9,-5.3395,-6.5506
6597.7,-4.1799,-8.2146
6609.4,-6.3526,-9.642
6621.1,-7.3318,-7.1658
6632.8,-8.3219,-5.1492
6644.5,-8.9558,-9.1434
6656.3,-8.204,-6.0138
6668,-4.235,-7.1278
6679.7,-3.7071,-6.3204
6691.4,-6.8138,-10.022
6703.1,-6.44,-10.045
6714.8,-7.3572,-8.4108
6726.6,-7.8895,-7.1216
6738.3,-5.1321,-7.561
6750,-5.3591,-6.5652
6761.7,-5.7811,-8.3649
6773.4,-8.055,-10.007
6785.2,-6.1264,-6.1792
6796.9,-6.2452,-3.8425
6808.6,-5.7919,-7.6382
6820.3,-7.2319,-6.4448
6832,-9.6195,-8.7966
6843.8,-7.5601,-7.4268
6855.5,-5.8618,-6.8052
6867.2,-10.055,-6.6748
6878.9,-6.6063,-10.658
6890.6,-7.5292,-12.901
6902.3,-9.2428,-10.296
6914.1,-8.8889,-8.0824
6925.8,-8.2389,-6.0961
6937.5,-8.898,-5.3235
6949.2,-6.5115,-5.0893
6960.9,-5.3813,-6.4098
6972.7,-6.6462,-3.5756
6984.4,-7.4909,-6.1483
6996.1,-8.703,-10.454
7007.8,-8.3429,-11.194
7019.5,-6.4797,-7.5797
7031.3,-7.5781,-5.7811
7043,-7.715,-5.3633
7054.7,-7.3753,-6.9659
7066.4,-7.3798,-8.3954
7078.1,-8.798,-8.2539
7089.8,-9.4933,-5.4837
7101.6,-6.77,-8.1017
7113.3,-9.0943,-6.2755
7125,-7.1703,-6.0618
7136.7,-7.819,-3.5624
7148.4,-8.0169,-4.188
7160.2,-9.6615,-5.6566
7171.9,-9.838,-5.7434
7183.6,-6.2677,-8.2118
7195.3,-6.5218,-7.4478
7207,-8.8581,-5.0506
7218.8,-6.2214,-9.869
7230.5,-5.0121,-8.4404
7242.2,-3.8489,-9.6224
7253.9,-7.2532,-10.843
7265.6,-7.9327,-7.5658
7277.3,-5.3829,-6.2888
7289.1,-4.8889,-8.4506
7300.8,-6.3869,-10.366
7312.5,-9.8304,-9.7707
7324.2,-9.7557,-7.6194
7335.9,-5.9177,-8.2777
7347.7,-6.6528,-7.1149
7359.4,-8.351,-6.6304
7371.1,-9.3453,-5.839
7382.8,-9.5855,-8.2128
7394.5,-8.4816,-7.4387
7406.3,-7.24,-8.8901
7418,-9.1174,-10.74
7429.7,-8.2067,-7.3818
7441.4,-5.9729,-6.9787
7453.1,-4.6932,-7.089
7464.8,-6.7719,-5.3055
7476.6,-11.132,-6.7207
7488.3,-8.4607,-8.2547
7500,-1.855,-7.7621
7511.7,20.887,4.3177
7523.4,26.134,9.6101
7535.2,19.859,3.878
7546.9,0.55448,-8.4238
7558.6,-6.3161,-6.8615
7570.3,-7.2772,-7.4644
7582,-8.7025,-10.648
7593.8,-7.4468,-12.429
7605.5,-6.5578,-13.891
7617.2,-10.615,-10.425
7628.9,-9.8515,-8.1502
7640.6,-9.1188,-9.9948
7652.3,-6.7546,-9.2625
7664.1,-8.5172,-9.2653
7675.8,-8.9552,-10.259
7687.5,-11.029,-8.4485
7699.2,-9.2581,-7.6052
7710.9,-8.6043,-9.3547
7722.7,-10.004,-8.502
7734.4,-10.182,-6.2481
7746.1,-9.0332,-8.4301
7757.8,-7.6032,-9.0648
7769.5,-7.2626,-4.479
7781.3,-6.9681,-5.0194
7793,-6.0777,-9.2236
7804.7,-8.216,-10.155
7816.4,-7.8646,-9.6571
7828.1,-6.585,-9.5973
7839.8,-6.8968,-8.3454
7851.6,-7.3956,-8.8911
7863.3,-6.5833,-10.03
7875,-5.1948,-6.9177
7886.7,-7.0276,-5.426
7898.4,-9.7405,-9.7173
7910.2,-9.3579,-9.8062
7921.9,-6.7813,-8.1045
7933.6,-6.1068,-10.273
7945.3,-7.9697,-9.0575
7957,-9.098,-8.5439
7968.8,-11.057,-8.1044
7980.5,-14.318,-8.2964
7992.2,-11.35,-9.2072
8003.9,-10.994,-9.9914
8015.6,-9.651,-7.6867
8027.3,-8.5566,-10.738
8039.1,-10.105,-11.343
8050.8,-10.947,-9.7372
8062.5,-10.768,-10.727
8074.2,-11.635,-10.355
8085.9,-11.813,-9.2964
8097.7,-12.636,-8.6092
8109.4,-9.338,-10.445
8121.1,-7.674,-10.456
8132.8,-5.8653,-8.9754
8144.5,-6.2612,-7.3422
8156.3,-7.5892,-10.22
8168,-8.4081,-11.524
8179.7,-7.3447,-9.4721
8191.4,-7.2715,-7.3305
8203.1,-10.925,-6.3084
8214.8,-12.335,-9.5667
8226.6,-8.18,-9.0129
8238.3,-9.8366,-7.1215
8250,-9.6041,-9.2716
8261.7,-8.3642,-12.602
8273.4,-7.6178,-10.914
8285.2,-9.1938,-9.7125
8296.9,-11.04,-11.718
8308.6,-12.149,-11.668
8320.3,-13.169,-10.552
8332,-12.575,-12.097
8343.8,-12.359,-11.984
8355.5,-8.7379,-8.8723
8367.2,-6.9177,-12.327
8378.9,-7.9363,-10.23
8390.6,-7.5581,-10.141
8402.3,-6.4198,-8.637
8414.1,-6.0126,-8.5199
8425.8,-6.6104,-9.6727
8437.5,-8.6788,-10.018
8449.2,-8.405,-9.858
8460.9,-6.1352,-9.6452
8472.7,-10.517,-14.548
8484.4,-8.0853,-9.5876
8496.1,-8.6481,-9.2724
8507.8,-9.4877,-8.4374
8519.5,-9.63,-8.4189
8531.3,-9.6827,-10.379
8543,-9.0896,-10.918
8554.7,-8.8841,-9.6879
8566.4,-7.3928,-8.8925
8578.1,-6.2386,-10.624
8589.8,-6.4071,-8.9452
8601.6,-7.1938,-9.7263
8613.3,-8.5511,-8.2107
8625,-10.228,-7.757
8636.7,-9.2678,-6.3865
8648.4,-12.332,-5.2737
8660.2,-11.703,-10.637
8671.9,-11.576,-14.096
8683.6,-10.613,-13.474
8695.3,-11.17,-10.381
8707,-9.7628,-7.022
8718.8,-8.6013,-9.604
8730.5,-13.088,-11.785
8742.2,-11.857,-11.22
8753.9,-11.825,-12.331
8765.6,-12.27,-10.133
8777.3,-10.498,-9.5889
8789.1,-11.387,-9.7428
8800.8,-8.9654,-9.0582
8812.5,-9.5047,-8.2389
8824.2,-9.9097,-7.5141
8835.9,-7.6085,-7.15
8847.7,-7.6792,-9.8729
8859.4,-9.8898,-13.25
8871.1,-13.012,-12.325
8882.8,-9.0689,-12.915
8894.5,-7.0359,-10.622
8906.3,-10.023,-9.9222
8918,-10.74,-10.109
8929.7,-9.4423,-10.979
8941.4,-11.887,-10.688
8953.1,-10.401,-9.5592
8964.8,-8.963,-8.7036
8976.6,-8.4721,-10.207
8988.3,-9.6641,-9.0373
9000,-9.5477,-8.5816
9011.7,-8.5973,-10.111
9023.4,-11.561,-10.97
9035.2,-14.28,-12.583
9046.9,-11.733,-12.417
9058.6,-12.362,-13.652
9070.3,-11.426,-16.389
9082,-12.158,-11.023
9093.8,-11.67,-9.7605
9105.5,-11.567,-9.8014
9117.2,-12.195,-8.9458
9128.9,-9.3422,-11.405
9140.6,-10.199,-13.723
9152.3,-11.421,-13.883
9164.1,-8.6344,-10.507
9175.8,-12.267,-12.539
9187.5,-9.1042,-14.601
9199.2,-9.3466,-13.554
9210.9,-8.7845,-10.277
9222.7,-9.0239,-6.3814
9234.4,-9.3916,-7.2626
9246.1,-12.497,-9.995
9257.8,-12.124,-13.547
9269.5,-8.9875,-12.124
9281.3,-11.219,-11.196
9293,-10.305,-12.643
9304.7,-8.2116,-13.908
9316.4,-8.4561,-14.119
9328.1,-9.5862,-13.005
9339.8,-11.439,-10.769
9351.6,-12.586,-13.944
9363.3,-12.999,-13.608
9375,-10.199,-11.842
9386.7,-9.6522,-10.78
9398.4,-11.724,-12.743
9410.2,-12.25,-12.154
9421.9,-11.375,-11.765
9433.6,-13.298,-11.008
9445.3,-12.42,-11.588
9457,-10.308,-11.637
9468.8,-11.718,-11.829
9480.5,-10.785,-11.828
9492.2,-10.042,-10.268
9503.9,-12.829,-9.6674
9515.6,-11.463,-10.674
9527.3,-12.928,-13.76
9539.1,-14.214,-11.972
9550.8,-9.9532,-8.687
9562.5,-9.6623,-9.8459
9574.2,-10.558,-12.147
9585.9,-9.734,-11.817
9597.7,-11.517,-10.436
9609.4,-12.178,-9.6856
9621.1,-12.684,-11.941
9632.8,-11.933,-14.048
9644.5,-10.612,-10.632
9656.3,-11.76,-14.008
9668,-10.693,-14.171
9679.7,-8.8771,-11.487
9691.4,-12.376,-10.133
9703.1,-12.298,-11.782
9714.8,-12.334,-10.742
9726.6,-11.095,-11.599
9738.3,-9.2495,-14.572
9750,-9.3955,-15.05
9761.7,-10.421,-12.536
9773.4,-9.7863,-8.7408
9785.2,-10.901,-9.2313
9796.9,-9.7934,-11.248
9808.6,-10.226,-14.746
9820.3,-11.053,-14.417
9832,-12.074,-14.141
9843.8,-11.49,-11.781
9855.5,-12.627,-11.812
9867.2,-13.324,-12.702
9878.9,-11.307,-11.502
9890.6,-11.957,-14.027
9902.3,-15.027,-13.736
9914.1,-13.46,-12.287
9925.8,-13.839,-12.801
9937.5,-13.288,-12.865
9949.2,-11.939,-11.819
9960.9,-11.949,-14.385
9972.7,-12.559,-11.931
9984.4,-12.353,-11.442
9996.1,-11.596,-10.043
10008,-11.153,-9.294
10020,-12.725,-12.451
10031,-15.002,-14.782
10043,-14.701,-11.759
10055,-9.2673,-10.379
10066,-11.277,-12.723
10078,-16.204,-14.541
10090,-11.819,-12.389
10102,-12.354,-12.708
10113,-12.277,-13.741
10125,-11.174,-12.728
10137,-9.6962,-11.84
10148,-7.1781,-13.192
10160,-9.4485,-15.297
10172,-10.254,-11.695
10184,-11.111,-10.969
10195,-12.505,-12.905
10207,-13.701,-12.776
10219,-13.738,-10.781
10230,-14.33,-13.666
10242,-11.492,-13.436
10254,-12.877,-12.431
10266,-11.751,-14.252
10277,-13.116,-11.478
10289,-12.005,-11.686
10301,-12.56,-14.011
10313,-10.651,-16.047
10324,-10.309,-13.529
10336,-11.342,-13.536
10348,-11.632,-14.427
10359,-11.726,-15.158
10371,-12.52,-14.387
10383,-12.639,-12.993
10395,-14.388,-11.992
10406,-17.338,-11.306
10418,-12.368,-13.139
10430,-11.975,-13.632
10441,-11.529,-15.03
10453,-11.164,-15.946
10465,-11.355,-14.111
10477,-11.411,-12.352
10488,-12.335,-11.062
10500,-12.331,-10.968
10512,-10.165,-12.777
10523,-9.6995,-12.139
10535,-12.525,-13.362
10547,-12.5,-13.744
10559,-9.3304,-10.724
10570,-11.662,-10.741
10582,-14.362,-11.248
10594,-14.194,-15.002
10605,-14.121,-13.533
10617,-11.857,-14.317
10629,-9.7465,-15.793
10641,-10.039,-10.94
10652,-9.0904,-12.522
10664,-8.2372,-17.437
10676,-9.6312,-17.026
10688,-10.398,-13.916
10699,-11.181,-11.75
10711,-12.29,-12.107
10723,-12.215,-13.837
10734,-8.091,-14.454
10746,-8.806,-14.83
10758,-11.635,-14.507
10770,-13.581,-12.69
10781,-12.409,-11.414
10793,-12.141,-11.735
10805,-11.619,-14.758
10816,-8.3896,-14.968
10828,-10.193,-13.838
10840,-10.03,-13.45
10852,-9.0371,-13.895
10863,-8.6205,-12.613
10875,-14.285,-12.744
10887,-15.57,-13.056
10898,-12.703,-15.415
10910,-12.462,-15.938
10922,-14.831,-13.767
10934,-14.976,-11.362
10945,-13.018,-11.908
10957,-11.592,-11.864
10969,-10.147,-12.983
10980,-11.33,-16.199
10992,-8.5722,-15.165
11004,-13.381,-14.603
11016,-13.269,-14.025
11027,-10.057,-13.664
11039,-11.944,-13.046
11051,-13.852,-11.125
11063,-14.979,-11.635
11074,-11.162,-14.534
11086,-10.845,-15.811
11098,-12.986,-13.035
11109,-12.072,-12.014
11121,-10.96,-13.78
11133,-10.186,-15.851
11145,-14.396,-17.13
11156,-12.751,-15.513
11168,-12.491,-15.544
11180,-13.93,-15.328
11191,-11.328,-12.22
11203,-10.5,-12.363
11215,-14.318,-14.949
11227,-10.89,-14.606
11238,-13.621,-11.775
11250,-13.702,-10.59
11262,-12.59,-12.952
11273,-11.95,-11.869
11285,-11.437,-14.323
11297,-11.455,-17.909
11309,-12.805,-13.66
11320,-11.087,-12.424
11332,-12.982,-15.376
11344,-12.449,-13.646
11355,-12.176,-13.162
11367,-14.134,-13.188
11379,-12.933,-12.132
11391,-12.571,-14.624
11402,-13.844,-16.126
11414,-10.535,-12.01
11426,-12.204,-12.918
11438,-10.906,-17.565
11449,-10.661,-17.453
11461,-13.211,-13.805
11473,-12.542,-13.35
11484,-12.924,-14.911
11496,-15.515,-16.525
11508,-15.348,-18.181
11520,-14.2,-13.588
11531,-14.283,-10.672
11543,-13.497,-11.906
11555,-14.365,-14.173
11566,-13.992,-13.317
11578,-13.019,-12.858
11590,-13.916,-13.929
11602,-11.041,-18.973
11613,-11.685,-18.164
11625,-13.393,-15.429
11637,-11.43,-16.42
11648,-10.911,-17.085
11660,-12.722,-17.45
11672,-12.097,-14.962
11684,-12.066,-15.631
11695,-11.519,-15.975
11707,-11.516,-13.952
11719,-12.544,-16.888
11730,-12.449,-16.023
11742,-10.387,-15.499
11754,-12.201,-16.878
11766,-12.282,-16.876
11777,-13.932,-18.547
11789,-14.107,-19.083
11801,-13.735,-15.446
11813,-12.003,-13.663
11824,-11.868,-11.949
11836,-14.486,-14.884
11848,-14.349,-16.126
11859,-11.826,-15.754
11871,-9.7687,-17.463
11883,-10.405,-15.224
11895,-12.545,-16.162
11906,-12.842,-16.184
11918,-12.174,-13.241
11930,-11.898,-16.941
11941,-13.36,-13.372
11953,-12.834,-11.381
11965,-12.299,-12.541
11977,-10.966,-11.383
11988,-10.521,-12.131
12000,-10.727,-12.895
12012,-16.064,-13.708
12023,-12.058,-15.583
12035,-9.6795,-12.86
12047,-12.369,-14.717
12059,-13.803,-15.709
12070,-12.437,-15.085
12082,-14.115,-15.045
12094,-13.336,-15.927
12105,-12.747,-17.286
12117,-13.971,-17.328
12129,-11.258,-15.304
12141,-10.02,-15.702
12152,-11.949,-16.679
12164,-12.344,-14.868
12176,-11.079,-12.184
12188,-9.0643,-14.445
12199,-8.1783,-14.502
12211,-10.028,-14.553
12223,-13.405,-13.633
12234,-12.577,-15.376
12246,-12.575,-17.689
12258,-12.545,-16.665
12270,-11.973,-13.832
12281,-10.824,-12.593
12293,-10.575,-16.32
12305,-13.251,-16.453
12316,-12.225,-13.892
12328,-12.556,-14.962
12340,-15.222,-14.561
12352,-15.507,-14.581
12363,-14.924,-15.165
12375,-11.882,-15.704
12387,-10.822,-13.291
12398,-14.585,-12.691
12410,-14.978,-14.609
12422,-14.392,-14.34
12434,-12.176,-13.892
12445,-12.592,-15.405
12457,-11.615,-15.723
12469,-14.702,-16.092
12480,-14.226,-13.435
12492,-12.844,-13.769
12504,-10.932,-15.821
12516,-11.044,-17.266
12527,-12.843,-17.675
12539,-12.669,-16.266
12551,-11.57,-13.277
12563,-13.838,-12.29
12574,-11.638,-15.333
12586,-10.004,-18.413
12598,-10.577,-16.875
12609,-11.605,-14.83
12621,-12.787,-18.403
12633,-9.2149,-16.258
12645,-11.574,-15.361
12656,-14.903,-16.081
12668,-9.5526,-14.475
12680,-8.6483,-14.172
12691,-13.313,-16.911
12703,-15.744,-15.762
12715,-11.587,-18.137
12727,-15.467,-16.051
12738,-19.083,-15.688
12750,-15.496,-16.603
12762,-14.112,-13.748
12773,-12.652,-15.914
12785,-11.793,-18.896
12797,-11.734,-16.451
12809,-12.616,-14.33
12820,-12.275,-14.815
12832,-13.694,-13.738
12844,-11.338,-13.066
12855,-12.412,-14.365
12867,-13.822,-16.164
12879,-13.517,-15.675
12891,-12.482,-17.82
12902,-10.738,-14.074
12914,-13.025,-13.798
12926,-14.056,-15.553
12938,-11.364,-17.668
12949,-13.601,-16.46
12961,-13.617,-15.993
12973,-11.69,-18.978
12984,-12.43,-17.963
12996,-13.424,-16.806
13008,-16.365,-17.455
13020,-15.159,-17.867
13031,-15.349,-15.089
13043,-14.06,-14.625
13055,-14.296,-15.478
13066,-13.019,-16.561
13078,-10.116,-14.905
13090,-12.583,-13.766
13102,-12.943,-14.76
13113,-13.837,-17.871
13125,-13.76,-13.609
13137,-12.829,-11.78
13148,-12.683,-12.67
13160,-11.357,-15.942
13172,-16.797,-16.623
13184,-16.574,-18.035
13195,-13.59,-18.53
13207,-14.322,-16.035
13219,-16.62,-14.643
13230,-16.774,-15.817
13242,-15.645,-16.22
13254,-17.963,-17.233
13266,-13.318,-19.402
13277,-11.724,-15.671
13289,-13.365,-16.171
13301,-13.875,-19.128
13313,-13.615,-18.639
13324,-16.363,-18.853
13336,-15.533,-16.851
13348,-13.584,-16.13
13359,-12.252,-17.836
13371,-11.188,-15.992
13383,-14.143,-15.829
13395,-13.765,-17.415
13406,-12.164,-18.277
13418,-13.203,-17.793
13430,-15.615,-18.047
13441,-15.405,-17.076
13453,-15.805,-18.968
13465,-13.98,-16.529
13477,-11.829,-16.064
13488,-12.637,-17.224
13500,-16.915,-16.552
13512,-17.217,-18.029
13523,-15.259,-17.148
13535,-13.352,-14.529
13547,-13.07,-15.264
13559,-13.571,-15.646
13570,-16.863,-17.467
13582,-15.335,-16.286
13594,-13.91,-14.933
13605,-13.81,-16.718
13617,-15.382,-15.751
13629,-14.97,-14.621
13641,-14.06,-15.108
13652,-15.45,-15.033
13664,-15.387,-17.411
13676,-15.149,-16.259
13688,-15.84,-14.786
13699,-16.142,-15.15
13711,-16.104,-15.6
13723,-15.062,-13.928
13734,-13.949,-14.696
13746,-15.256,-18.209
13758,-14.742,-17.163
13770,-13.511,-16.303
13781,-12.456,-14.376
13793,-12.208,-13.417
13805,-13.55,-15.779
13816,-14.738,-16.476
13828,-16.548,-15.668
13840,-18.739,-15.96
13852,-12.935,-18.306
13863,-12.865,-18.336
13875,-12.837,-16.866
13887,-13.284,-17.957
13898,-13.209,-15.208
13910,-14.001,-12.819
13922,-17.25,-13.549
13934,-13.998,-13.793
13945,-11.267,-14.721
13957,-12.923,-16.629
13969,-17.358,-17.12
13980,-17.712,-16.224
13992,-15.669,-18.989
14004,-16.363,-15.749
14016,-16.701,-15.299
14027,-17.737,-19.183
14039,-17.027,-18.556
14051,-16.314,-16.495
14063,-12.544,-14.826
14074,-15.809,-15.538
14086,-14.543,-18.888
14098,-13.085,-16.734
14109,-14.796,-15.19
14121,-16.588,-15.946
14133,-14.337,-16.357
14145,-12.755,-15.297
14156,-15.695,-15.765
14168,-16.242,-19.348
14180,-15.281,-20.125
14191,-14.838,-17.778
14203,-13.354,-16.518
14215,-14.228,-15.677
14227,-16.5,-16.551
14238,-17.886,-18.522
14250,-17.528,-18.27
14262,-17.455,-16.968
14273,-15.38,-16.671
14285,-13.927,-16.604
14297,-13.92,-15.829
14309,-16.081,-16.377
14320,-15.513,-16.521
14332,-16.033,-17.882
14344,-18.322,-18.556
14355,-16.834,-17.667
14367,-17.964,-17.371
14379,-16.17,-19.764
14391,-16.028,-19.557
14402,-14.624,-20.276
14414,-13.894,-19.517
14426,-15.554,-18.008
14438,-12.702,-18.045
14449,-14.239,-17.879
14461,-14.946,-16.048
14473,-16.175,-16.232
14484,-17.866,-16.238
14496,-16.615,-17.916
14508,-15.813,-18.511
14520,-15.866,-18.521
14531,-16.066,-18.65
14543,-16.28,-21.405
14555,-19.524,-19.713
14566,-16.201,-14.451
14578,-15.472,-13.785
14590,-18.305,-15.223
14602,-19.258,-17.594
14613,-20.906,-19.54
14625,-18.293,-18.831
14637,-17.281,-17.747
14648,-17.408,-17.288
14660,-17.204,-17.068
14672,-18.518,-19.422
14684,-17.344,-17.61
14695,-20.352,-17.986
14707,-19.496,-18.955
14719,-20.19,-21.097
14730,-15.375,-18.096
14742,-17.415,-18.626
14754,-19.347,-19.801
14766,-19.071,-21.083
14777,-17.937,-17.602
14789,-15.212,-14.37
14801,-14.916,-14.719
14813,-13.477,-15.977
14824,-17.018,-19.318
14836,-18.022,-20.693
14848,-17.186,-19.914
14859,-16.441,-16.762
14871,-15.374,-19.467
14883,-17.051,-23.548
14895,-16.462,-19.096
14906,-16.059,-20.348
14918,-15.182,-20.283
14930,-16.283,-19.808
14941,-16.753,-20.736
14953,-17.187,-18.031
14965,-15.145,-18.389
14977,-18.711,-17.194
14988,-19.527,-17.533
15000,-18.317,-15.629
15012,-16.533,-17.196
15023,-18.971,-21.467
15035,-10.671,-18.156
15047,-6.1398,-18.558
15059,-11.121,-19.483
15070,-15.227,-21.634
15082,-17.695,-20.068
15094,-18.315,-19.631
15105,-17.05,-17.864
15117,-18.417,-17.731
15129,-17.956,-18.512
15141,-17.067,-20.029
15152,-17.195,-18.533
15164,-18.797,-17.488
15176,-16.304,-19.062
15188,-17.186,-19.11
15199,-19.323,-19.83
15211,-19.822,-18.468
15223,-20.207,-20.135
15234,-20.058,-19.671
15246,-18.267,-17.668
15258,-17.483,-19.075
15270,-16.95,-19.384
15281,-16.066,-16.393
15293,-19.31,-13.1
15305,-22.726,-15.645
15316,-21.108,-18.587
15328,-19.413,-15.088
15340,-18.139,-17.497
15352,-16.588,-19.288
15363,-16.893,-20.551
15375,-16.814,-21.519
15387,-17.574,-19.653
15398,-18.317,-21.362
15410,-17.891,-21.95
15422,-19.379,-19.747
15434,-18.503,-21.574
15445,-18.11,-22.612
15457,-18.779,-20.243
15469,-21.474,-17.716
15480,-18.665,-17.299
15492,-20.66,-20.796
15504,-23.715,-21.967
15516,-20.502,-20.528
15527,-18.643,-17.45
15539,-18.425,-15.991
15551,-19.023,-17.18
15563,-19.773,-19.414
15574,-19.769,-21.679
15586,-18.444,-21.808
15598,-17.917,-19.946
15609,-15.885,-19.054
15621,-15.712,-19.173
15633,-21.213,-19.06
15645,-22.021,-19.554
15656,-19.738,-19.957
15668,-19.293,-20.053
15680,-20.319,-19.258
15691,-18.687,-23.991
15703,-18.78,-21.552
15715,-19.447,-22.744
15727,-17.766,-18.865
15738,-17.635,-18.429
15750,-18.409,-20.794
15762,-19.421,-17.613
15773,-18.812,-17.381
15785,-20.397,-18.292
15797,-15.61,-18.969
15809,-16.754,-20.349
15820,-21.449,-20.982
15832,-15.807,-21.221
15844,-15.12,-21.931
15855,-19.084,-22.936
15867,-19.659,-20.94
15879,-20.112,-20.254
15891,-20.476,-23.022
15902,-22.465,-24.31
15914,-21.277,-23.442
15926,-19.987,-21.232
15938,-18.947,-16.757
15949,-21.3,-16.785
15961,-20.315,-19.318
15973,-20.008,-18.267
15984,-19.241,-19.741
15996,-17.232,-19.823
16008,-17.417,-17.916
16020,-18.924,-16.838
16031,-23.619,-18.036
16043,-22.089,-19.426
16055,-18.581,-19.483
16066,-19.704,-19.574
16078,-20.154,-19.426
16090,-21.073,-19.44
16102,-18.795,-19.921
16113,-18.703,-20.138
16125,-21.144,-21.314
16137,-19.174,-21.016
16148,-17.998,-19.61
16160,-19.69,-20.978
16172,-21.913,-20.899
16184,-20.563,-20.85
16195,-18.748,-20.997
16207,-19.491,-21.646
16219,-21.866,-16.534
16230,-20.948,-18.324
16242,-21.02,-18.826
16254,-20.669,-21.709
16266,-20.026,-20.616
16277,-19.965,-22.371
16289,-19.405,-26.622
16301,-19.949,-22.279
16313,-20.964,-21.771
16324,-18.836,-18.467
16336,-19.308,-17.908
16348,-18.53,-21.086
16359,-22.282,-18.2
16371,-22.423,-19.092
16383,-21.293,-23.306
16395,-21.227,-20.755
16406,-16.906,-22.382
16418,-17.846,-22.082
16430,-20.039,-19.715
16441,-21.294,-18.474
16453,-23.038,-20.703
16465,-23.223,-22.417
16477,-21.909,-21.637
16488,-20.359,-22.786
16500,-18.662,-24.33
16512,-21.36,-23.039
16523,-18.953,-19.638
16535,-19.77,-19.383
16547,-19.736,-19.693
16559,-19.62,-21.406
16570,-20.823,-23.72
16582,-20.012,-20.693
16594,-18.466,-21.553
16605,-16.381,-22.562
16617,-19.688,-21.501
16629,-20.726,-23.515
16641,-20.248,-23.57
16652,-21.428,-24.1
16664,-22.677,-22.158
16676,-18.873,-19.891
16688,-18.599,-21.714
16699,-18.926,-21.208
16711,-19.153,-18.415
16723,-22.695,-19.706
16734,-22.534,-22.542
16746,-19.071,-21.247
16758,-15.894,-20.891
16770,-18.512,-20.515
16781,-21.153,-19.076
16793,-20.617,-18.377
16805,-22.465,-20.911
16816,-23.431,-27.848
16828,-22.576,-20.794
16840,-23.239,-20.681
16852,-23.772,-18.436
16863,-20.599,-19.98
16875,-19.124,-19.342
16887,-18.19,-17.876
16898,-18.305,-17.103
16910,-21.112,-19.667
16922,-20.86,-22.761
16934,-19.771,-23.17
16945,-21.177,-22.806
16957,-22.995,-22.485
16969,-22.392,-21.381
16980,-21.704,-20.653
16992,-23.504,-19.372
17004,-23.233,-17.118
17016,-23.922,-20.834
17027,-22.8,-22.962
17039,-21.326,-20.964
17051,-19.78,-21.526
17063,-20.406,-20.841
17074,-21.405,-21.819
17086,-21.929,-22.967
17098,-22.013,-20.801
17109,-21.031,-20.944
17121,-20.317,-25.782
17133,-19.352,-27.305
17145,-20.58,-22.604
17156,-20.116,-22.658
17168,-15.771,-23.902
17180,-16.177,-22.998
17191,-18.655,-20.446
17203,-21.092,-21.114
17215,-22.946,-23.752
17227,-25.307,-21.083
17238,-24.301,-19.635
17250,-22.752,-21.823
17262,-20.72,-20.742
17273,-22.227,-20.107
17285,-24.515,-20.05
17297,-21.933,-22.576
17309,-22.481,-23.925
17320,-23.85,-24.338
17332,-23.027,-22.487
17344,-22.553,-21.304
17355,-22.125,-23.209
17367,-20.142,-24.213
17379,-19.667,-22.463
17391,-22.395,-23.132
17402,-21.249,-23.935
17414,-20.956,-21.636
17426,-22.651,-20.58
17438,-21.827,-21.805
17449,-21.733,-20.555
17461,-21.386,-19.296
17473,-20.319,-19.901
17484,-22.129,-23.367
17496,-22.17,-19.546
17508,-23.133,-20.001
17520,-23.624,-20.768
17531,-25.022,-25.666
17543,-25.017,-21.307
17555,-25.775,-20.772
17566,-22.723,-20.99
17578,-20.433,-22.165
17590,-20.16,-25.956
17602,-20.124,-25.499
17613,-21.68,-22.337
17625,-17.453,-20.755
17637,-19.243,-22.335
17648,-22.604,-22.653
17660,-22.158,-20.547
17672,-18.169,-21.246
17684,-20.69,-22.377
17695,-24.231,-23.049
17707,-23.407,-21.649
17719,-23.804,-19.794
17730,-21.231,-22.532
17742,-18.488,-22.441
17754,-18.123,-22.623
17766,-22.184,-23.212
17777,-24.012,-23.723
17789,-22.727,-23.942
17801,-23.278,-21.775
17813,-23.463,-21.366
17824,-21.939,-24.551
17836,-19.29,-21.058
17848,-21.534,-21.566
17859,-21.948,-22.591
17871,-21.657,-24.979
17883,-21.998,-26.465
17895,-23.674,-24.582
17906,-21.151,-23.524
17918,-22.279,-23.473
17930,-22.835,-24.335
17941,-25.117,-20.563
17953,-25.585,-19.241
17965,-24.204,-23.835
17977,-24.244,-24.94
17988,-22.471,-21.438
18000,-21.848,-21.278
18012,-22.456,-20.511
18023,-23.343,-23.778
18035,-22.937,-22.557
18047,-22.332,-23.364
18059,-25.579,-22.874
18070,-27.476,-22.569
18082,-27.438,-20.763
18094,-23.079,-22.419
18105,-22.969,-26.952
18117,-22.769,-24.425
18129,-20.497,-23.186
18141,-22.007,-24.457
18152,-21.206,-21.527
18164,-22.954,-22.887
18176,-22.901,-25.55
18188,-23.525,-22.758
18199,-23.806,-20.671
18211,-22.941,-22.194
18223,-22.536,-21.478
18234,-21.364,-23.228
18246,-22.814,-24.742
18258,-25.738,-24.239
18270,-22.949,-23.701
18281,-22.103,-25.219
18293,-20.935,-21.918
18305,-22.506,-24.475
18316,-20.706,-22.52
18328,-23.079,-24.799
18340,-25.349,-24.883
18352,-25.004,-22.306
18363,-25.856,-22.778
18375,-27.442,-25.405
18387,-22.614,-24.981
18398,-22.942,-24.336
18410,-25.058,-24.424
18422,-25.564,-23.415
18434,-23.063,-23.957
18445,-21.802,-28.234
18457,-22.393,-22.965
18469,-23.786,-22.336
18480,-23.42,-23.087
18492,-19.093,-22.56
18504,-21.302,-24.771
18516,-26.335,-24.649
18527,-23.068,-26.912
18539,-25.351,-27.378
18551,-22.016,-27.058
18563,-19.738,-25.225
18574,-23.491,-24.334
18586,-23.72,-25.295
18598,-24.298,-25.097
18609,-22.468,-25.162
18621,-24.84,-29.52
18633,-23.626,-28.74
18645,-25.202,-24.695
18656,-21.526,-23.537
18668,-19.925,-23.657
18680,-21.37,-23.252
18691,-25.455,-23.544
18703,-25.775,-23.818
18715,-22.752,-23.496
18727,-22.692,-21.891
18738,-23.585,-22.844
18750,-24.44,-25.736
18762,-23.735,-21.079
18773,-23.481,-20.091
18785,-26.123,-20.174
18797,-26.125,-21.395
18809,-24.512,-20.27
18820,-24.44,-20.934
18832,-20.834,-24.861
18844,-20.735,-27.191
18855,-25.443,-24.438
18867,-23.801,-26.412
18879,-20.711,-27.306
18891,-23.161,-26.775
18902,-25.677,-24.042
18914,-24.366,-22.923
18926,-24.209,-26.116
18938,-23.902,-26.198
18949,-22.981,-25.463
18961,-23.437,-23.252
18973,-23.354,-23.082
18984,-20.301,-22.79
18996,-22.619,-23.781
19008,-22.231,-24.746
19020,-22.012,-21.917
19031,-24.801,-22.016
19043,-23.552,-23.6
19055,-23.026,-23.93
19066,-24.044,-23.835
19078,-21.699,-24.318
19090,-23.432,-24.259
19102,-24.699,-23.549
19113,-23.721,-24.934
19125,-25.114,-24.539
19137,-24.235,-28.778
19148,-24.222,-26.107
19160,-24.512,-24.615
19172,-24.167,-21.983
19184,-26.491,-22.662
19195,-25.611,-27.768
19207,-24.019,-25.233
19219,-23.333,-24.503
19230,-26.211,-27.84
19242,-26.544,-25.901
19254,-25.439,-27.023
19266,-27.074,-28.643
19277,-23.333,-27.496
19289,-22.716,-26.254
19301,-22.607,-26.746
19313,-20.584,-25.39
19324,-21.111,-25.322
19336,-23.868,-24.866
19348,-22.969,-24.091
19359,-24.19,-24.038
19371,-24.467,-24.866
19383,-26.31,-24.377
19395,-25.701,-26.587
19406,-22.164,-26.057
19418,-21.946,-26.205
19430,-23.26,-24.626
19441,-24.433,-22.693
19453,-23.278,-25.847
19465,-20.884,-24.412
19477,-22.177,-24.9
19488,-23.524,-25.328
19500,-26.724,-27.082
19512,-26.811,-27.206
19523,-25.015,-25.535
19535,-25.748,-24.778
19547,-23.8,-26.675
19559,-23.42,-27.966
19570,-24.436,-25.353
19582,-25.241,-25.763
19594,-23.703,-28.516
19605,-20.652,-25.145
19617,-19.523,-28.931
19629,-21.165,-24.857
19641,-24.958,-23.975
19652,-25.587,-22.383
19664,-25.641,-21.664
19676,-27.278,-23.94
19688,-24.233,-25.046
19699,-24.752,-24.968
19711,-26.381,-23.748
19723,-24.283,-27.044
19734,-23.026,-27.619
19746,-24.823,-24.247
19758,-28.014,-26.834
19770,-25.424,-28.239
19781,-22.553,-22.41
19793,-22.321,-19.664
19805,-23.255,-22.908
19816,-25.398,-26.604
19828,-26.071,-29.293
19840,-25.365,-25.356
19852,-24.63,-24.497
19863,-22.296,-26.548
19875,-23.809,-26.982
19887,-24.962,-27.823
19898,-24.256,-25.737
19910,-22.76,-22.384
19922,-22.089,-22.587
19934,-23.597,-25.125
19945,-25.271,-28.696
19957,-24.559,-27.753
19969,-26.792,-24.691
19980,-22.568,-26.006
19992,-21.944,-25.064
20004,-24.193,-27.078
20016,-25.757,-26.408
20027,-29.556,-23.872
20039,-24.566,-25.125
20051,-24.407,-25.746
20063,-25.442,-29.661
20074,-25.505,-26.575
20086,-26.523,-26.1
20098,-22.468,-24.175
20109,-22.425,-24.3
20121,-24.078,-24.744
20133,-21.857,-23.116
20145,-20.873,-23.11
20156,-26.855,-26.374
20168,-26.442,-25.071
20180,-26.15,-24.532
20191,-25.208,-22.889
20203,-26.457,-22.946
20215,-26.319,-24.782
20227,-23.003,-22.664
20238,-25.046,-23.462
20250,-26.904,-26.976
20262,-29.253,-26.331
20273,-29.41,-24.768
20285,-28.499,-23.193
20297,-27.119,-22.275
20309,-26.375,-23.407
20320,-24.806,-27.414
20332,-20.835,-29.06
20344,-19.161,-26.596
20355,-21.559,-23.43
20367,-24.78,-24.241
20379,-21.825,-26.315
20391,-25.489,-27.829
20402,-28.669,-26.822
20414,-25.409,-30.468
20426,-23.904,-32.42
20438,-26.304,-25.48
20449,-25.933,-22.93
20461,-24.33,-25.259
20473,-22.662,-26.395
20484,-24.421,-25.17
20496,-27.307,-27.743
20508,-27.492,-26.004
20520,-25.604,-26.378
20531,-22.926,-26.865
20543,-21.269,-25.923
20555,-22.191,-25.052
20566,-25.811,-26.065
20578,-27.534,-26.609
20590,-27.478,-26.903
20602,-28.978,-27.615
20613,-27.182,-26.272
20625,-28.054,-26.641
20637,-26.391,-26.953
20648,-24.648,-24.24
20660,-27.434,-23.901
20672,-28.759,-25.482
20684,-28.202,-25.351
20695,-26.316,-25.414
20707,-24.743,-25.005
20719,-25.6,-25.77
20730,-25.086,-27.652
20742,-24.725,-27.347
20754,-24.485,-26.236
20766,-23.727,-27.029
20777,-25.897,-26.579
20789,-26.173,-26.748
20801,-25.145,-27.037
20813,-24.046,-25.614
20824,-25.021,-23.273
20836,-26.341,-24.562
20848,-27.038,-24.589
20859,-24.273,-26.212
20871,-24.069,-26.86
20883,-26.876,-25.229
20895,-27.949,-22.496
20906,-27.292,-22.882
20918,-27.286,-24.592
20930,-26.349,-24.101
20941,-25.206,-25.972
20953,-25.082,-26.356
20965,-26.893,-28.549
20977,-26.491,-26.81
20988,-26.132,-23.282
21000,-28.745,-21.646
21012,-29.474,-22.037
21023,-25.366,-25.698
21035,-25.407,-26.476
21047,-25.674,-24.075
21059,-26.123,-24.803
21070,-26.329,-26.131
21082,-26.839,-24.31
21094,-26.443,-23.417
21105,-28.193,-24.438
21117,-27.468,-27.986
21129,-24.06,-25.638
21141,-26.182,-27.304
21152,-30.462,-25.089
21164,-29.189,-25.874
21176,-25.336,-25.013
21188,-25.98,-25.783
21199,-25.3,-27.987
21211,-23.837,-27.506
21223,-23.862,-27.378
21234,-27.292,-27.193
21246,-29.056,-28.313
21258,-30.709,-26.893
21270,-27.514,-24.922
21281,-24.661,-25.344
21293,-25.645,-25.969
21305,-25.126,-25.363
21316,-26.086,-26.95
21328,-28.83,-29.445
21340,-29.033,-29.478
21352,-29.472,-29.336
21363,-27.971,-28.757
21375,-23.28,-25.401
21387,-24.131,-27.03
21398,-24.398,-27.15
21410,-25.488,-29.333
21422,-23.155,-27.855
21434,-25.048,-28.259
21445,-27.386,-28.764
21457,-24.723,-29.93
21469,-25.212,-29.799
21480,-26.698,-29.86
21492,-27.134,-26.177
21504,-26.353,-25.798
21516,-25.559,-28.86
21527,-25.91,-29.18
21539,-28.823,-33.049
21551,-26.878,-29.859
21563,-26.994,-26.368
21574,-28.943,-25.891
21586,-27.434,-25.224
21598,-25.005,-26.954
21609,-25.878,-28.311
21621,-26.774,-30.978
21633,-28.256,-31.869
21645,-27.476,-29.72
21656,-27.346,-29.04
21668,-26.194,-27.227
21680,-27.606,-28.358
21691,-28.546,-28.443
21703,-27.82,-28.63
21715,-24.099,-26.055
21727,-26.877,-26.232
21738,-29.807,-29.378
21750,-26.063,-26.922
21762,-24.555,-25.276
21773,-27.004,-28.045
21785,-29.474,-29.63
21797,-27.535,-29.401
21809,-26.867,-28.303
21820,-27.752,-28.795
21832,-25.208,-27.076
21844,-24.531,-26.86
21855,-23.671,-27.976
21867,-26.213,-28.866
21879,-26.931,-28.744
21891,-26.842,-24.541
21902,-26.553,-24.613
21914,-28.877,-26.35
21926,-28.74,-28.647
21938,-29.056,-26.561
21949,-27.631,-26.129
21961,-28.611,-26.77
21973,-25.851,-26.28
21984,-24.525,-25.576
21996,-26.319,-25.525
22008,-23.341,-26.562
22020,-23.331,-27.826
22031,-25.169,-28.033
22043,-24.84,-28.485
22055,-21.415,-27.884
22066,-20.645,-29.86
22078,-23.08,-27.762
22090,-22.994,-27.724
22102,-22.315,-26.661
22113,-25.449,-28.161
22125,-25.014,-29.753
22137,-25.349,-26.898
22148,-26.052,-26.718
22160,-28.019,-27.487
22172,-28.442,-26.603
22184,-29.763,-28.08
22195,-28.252,-27.423
22207,-27.699,-28.707
22219,-27.764,-28.091
22230,-25.306,-26.188
22242,-24.447,-28.746
22254,-25.209,-28.068
22266,-26.641,-25.437
22277,-28.481,-25.153
22289,-28.051,-28.225
22301,-28.879,-26.742
22313,-28.138,-26.969
22324,-27.817,-27.741
22336,-24.769,-26.495
22348,-25.771,-27.776
22359,-27.214,-28.022
22371,-24.687,-25.589
22383,-28.091,-25.839
22395,-29.532,-26.887
22406,-29.114,-27.864
22418,-25.851,-29.455
22430,-25.736,-29.792
22441,-29.666,-27.395
22453,-29.517,-26.352
22465,-25.151,-29.759
22477,-23.549,-28.486
22488,-26.621,-26.241
22500,-27.147,-25.415
22512,-24.258,-23.965
22523,-24.706,-26.276
22535,-25.424,-27.46
22547,-30.462,-27.153
22559,-28.378,-30.421
22570,-28.107,-29.14
22582,-26.382,-24.875
22594,-25.049,-24.823
22605,-27.206,-28.773
22617,-27.518,-29.965
22629,-27.339,-31.282
22641,-25.237,-26.805
22652,-28.322,-28.283
22664,-27.049,-29.188
22676,-27.425,-28.49
22688,-29.917,-28.248
22699,-26.367,-27.038
22711,-27.021,-25.755
22723,-29.18,-27.219
22734,-27.178,-28.676
22746,-27.206,-29.336
22758,-28.254,-26.452
22770,-27.432,-26.204
22781,-27.523,-26.587
22793,-28.508,-26.615
22805,-29.619,-28.571
22816,-28.105,-29.209
22828,-26.5,-31.265
22840,-29.046,-28.329
22852,-27.907,-26.53
22863,-25.844,-27.232
22875,-27.244,-26.293
22887,-28.194,-26.339
22898,-29.421,-27.942
22910,-28.549,-29
22922,-29.707,-26.757
22934,-28.948,-24.904
22945,-29.84,-28.541
22957,-26.373,-28.911
22969,-28.101,-30.421
22980,-30.577,-27.851
22992,-29.516,-25.187
23004,-29.448,-25.968
23016,-25.739,-26.855
23027,-24.697,-28.055
23039,-27.179,-27.179
23051,-29.416,-26.454
23063,-31.073,-28.795
23074,-27.905,-30.95
23086,-26.438,-31.137
23098,-27.859,-28.759
23109,-29.884,-28.106
23121,-26.42,-27.749
23133,-27.309,-26.686
23145,-29.368,-28.553
23156,-28.81,-28.417
23168,-28.734,-30.04
23180,-26.757,-30.254
23191,-25.27,-29.749
23203,-25.938,-27.967
23215,-29.925,-27.541
23227,-27.812,-29.552
23238,-28.347,-27.211
23250,-27.557,-27.311
23262,-26.985,-28.618
23273,-27.739,-25.588
23285,-28.306,-26.109
23297,-27.216,-26.395
23309,-28.337,-27.74
23320,-28.537,-27.74
23332,-25.055,-27.194
23344,-27.321,-28.821
23355,-29.916,-29.17
23367,-31.068,-28.236
23379,-29.443,-27.486
23391,-27.75,-30.746
23402,-29.562,-29.457
23414,-28.707,-27.413
23426,-27.741,-26.804
23438,-28.063,-27.847
23449,-28.083,-28.585
23461,-27.34,-27.542
23473,-26.083,-27.187
23484,-25.625,-25.755
23496,-25.68,-24.727
23508,-26.351,-27.146
23520,-26.895,-26.337
23531,-29.789,-25.501
23543,-27.956,-27.93
23555,-28.105,-31.094
23566,-29.466,-26.629
23578,-28.97,-24.248
23590,-29.141,-26.899
23602,-30.104,-29.73
23613,-28.815,-30.383
23625,-26.78,-29.063
23637,-25.701,-27.234
23648,-24.227,-27.613
23660,-27.568,-27.776
23672,-27.364,-31.181
23684,-26.698,-29.271
23695,-31.004,-27.561
23707,-31.004,-30.801
23719,-27.96,-26.826
23730,-27.668,-26.617
23742,-26.897,-27.715
23754,-26.837,-30.619
23766,-28.174,-30.181
23777,-26.424,-27.206
23789,-26.274,-26.955
23801,-28.2,-26.999
23813,-28.285,-28.25
23824,-26.538,-29.965
23836,-28.105,-31.433
23848,-28.151,-29.091
23859,-32.015,-28.296
23871,-29.283,-26.818
23883,-29.568,-26.129
23895,-26.909,-25.828
23906,-24.197,-26.454
23918,-25.895,-28.967
23930,-27.196,-30.951
23941,-28.402,-30.622
23953,-29.062,-30.316
23965,-21.313,-30.448
23977,-15.581,-33.287
23988,-18.118,-33.071
