FFT,Power Spectrum
Frequency[Hz],Level-L[dB],Level-R[dB]
11.719,-23.881,-26.7
23.438,-3.9451,-6.5312
35.156,-2.4601,-2.2853
46.875,0.17161,0.78677
58.594,1.9347,2.0006
70.313,5.3673,3.5049
82.031,7.0097,4.5746
93.75,11.222,7.0666
105.47,12.364,7.2276
117.19,11.239,7.7882
128.91,9.6171,7.933
140.63,8.9163,6.613
152.34,5.035,5.9949
164.06,2.399,6.4683
175.78,5.4576,7.1376
187.5,12.232,10.352
199.22,11.765,10.136
210.94,8.1855,7.4388
222.66,10.503,8.0264
234.38,13.365,10.695
246.09,12.051,9.5906
257.81,7.4639,5.8331
269.53,4.9336,2.9577
281.25,7.4378,3.5379
292.97,8.4584,7.4045
304.69,9.7617,9.9614
316.41,8.8475,9.2298
328.13,7.6697,5.5609
339.84,8.5227,6.4832
351.56,8.0953,5.3709
363.28,4.663,4.624
375,7.3691,6.7422
386.72,7.9452,6.7295
398.44,6.8249,7.3645
410.16,5.7319,7.9353
421.88,7.0932,7.2666
433.59,5.391,5.6746
445.31,8.186,5.7451
457.03,7.1032,7.4214
468.75,4.2355,4.7897
480.47,4.3243,3.0667
492.19,3.8829,3.6919
503.91,3.2454,2.8861
515.63,2.1623,7.6496
527.34,6.2866,7.9098
539.06,7.2127,5.8493
550.78,5.1051,2.2969
562.5,5.3078,3.3985
574.22,9.8243,5.9182
585.94,11.847,8.3847
597.66,11.367,7.2901
609.38,8.8822,5.0742
621.09,5.9192,2.2925
632.81,5.1197,4.0805
644.53,6.4818,6.5444
656.25,8.919,8.1466
667.97,8.8458,8.9704
679.69,9.7722,8.5418
691.41,8.8285,8.7154
703.13,7.1994,6.0801
714.84,6.6021,3.8874
726.56,6.1182,3.3322
738.28,3.665,6.0674
750,6.8258,6.7714
761.72,9.9818,8.1348
773.44,10.156,6.9677
785.16,8.4821,6.034
796.88,7.9779,6.8569
808.59,8.1811,8.9979
820.31,8.6923,6.3052
832.03,11.459,7.4116
843.75,10.892,7.3019
855.47,9.626,5.523
867.19,8.728,7.5219
878.91,8.2231,6.2393
890.63,8.1242,5.7207
902.34,8.7078,6.2581
914.06,9.2048,5.2791
925.78,9.0879,4.1944
937.5,10.325,3.9859
949.22,9.8391,5.4491
960.94,8.0114,4.6561
972.66,4.8799,3.699
984.38,2.9721,1.2235
996.09,2.8897,2.8073
1007.8,1.2112,3.2756
1019.5,5.2364,4.6797
1031.3,8.0369,5.3959
1043,6.2785,7.7218
1054.7,5.9825,9.5108
1066.4,3.658,7.2084
1078.1,4.9155,3.5976
1089.8,7.0922,6.6055
1101.6,8.255,6.1954
1113.3,10.836,4.9799
1125,9.458,6.03
1136.7,6.2256,6.1124
1148.4,7.7071,3.3759
1160.2,9.0078,6.9006
1171.9,10.775,9.4547
1183.6,7.9419,6.6082
1195.3,4.4783,4.637
1207,7.0862,5.3373
1218.8,6.9138,5.6348
1230.5,8.0425,7.0722
1242.2,6.2993,5.0174
1253.9,3.6348,3.679
1265.6,2.1,1.8685
1277.3,3.7448,5.1009
1289.1,2.4509,3.0298
1300.8,2.9365,3.796
1312.5,3.22,3.3164
1324.2,4.9016,3.9254
1335.9,6.3203,2.7718
1347.7,5.9154,3.098
1359.4,5.5082,6.1559
1371.1,3.9837,5.6738
1382.8,6.144,4.502
1394.5,7.6639,5.4044
1406.3,6.9523,5.0693
1418,6.6551,4.8624
1429.7,4.9851,2.3658
1441.4,3.3257,4.1309
1453.1,6.8449,2.5914
1464.8,7.9497,1.9009
1476.6,7.063,-2.269
1488.3,6.4936,4.2846
1500,6.6248,7.0063
1511.7,5.9943,5.3549
1523.4,3.6077,5.3885
1535.2,7.1721,3.9811
1546.9,5.9429,4.0762
1558.6,5.8432,3.7392
1570.3,6.9361,4.5487
1582,4.7994,2.9891
1593.8,3.9517,3.2448
1605.5,4.6322,3.7387
1617.2,5.9315,2.5119
1628.9,2.3925,4.3847
1640.6,0.8314,5.4916
1652.3,2.6294,5.3669
1664.1,4.4478,3.8756
1675.8,2.9256,4.9232
1687.5,4.0332,4.7426
1699.2,3.6857,4.3483
1710.9,2.2601,1.4318
1722.7,3.262,3.9668
1734.4,4.5331,2.2288
1746.1,4.5214,-1.5084
1757.8,4.66,2.722
1769.5,4.8145,3.2256
1781.3,1.6943,2.3766
1793,0.75091,2.3979
1804.7,3.7503,3.8118
1816.4,6.1468,3.7664
1828.1,6.7431,1.6789
1839.8,4.055,3.49
1851.6,2.9683,6.1377
1863.3,6.3914,3.8939
1875,8.1228,6.6855
1886.7,5.9744,6.5683
1898.4,4.5426,2.0758
1910.2,3.8708,-0.51438
1921.9,3.1759,3.0235
1933.6,3.503,2.94
1945.3,2.0224,1.2562
1957,0.83201,-0.39062
1968.8,3.9381,2.8824
1980.5,3.8132,3.6922
1992.2,4.2123,2.5989
2003.9,3.2846,3.8692
2015.6,-1.0734,1.7068
2027.3,-1.2738,2.092
2039.1,2.3561,2.8866
2050.8,5.0725,1.418
2062.5,2.2311,3.4526
2074.2,3.1076,4.304
2085.9,4.4853,6.2708
2097.7,2.1687,5.2494
2109.4,1.1002,3.6688
2121.1,3.5127,3.3341
2132.8,2.3905,3.8651
2144.5,-0.52049,2.1898
2156.3,2.591,-2.7473
2168,5.0807,3.9777
2179.7,5.136,6.2864
2191.4,1.9951,2.0669
2203.1,1.9433,2.974
2214.8,2.3286,3.0155
2226.6,1.221,-0.61571
2238.3,0.28814,1.8248
2250,-1.4549,4.6495
2261.7,1.8356,5.7601
2273.4,4.5853,4.8112
2285.2,3.1469,4.4188
2296.9,2.1436,2.8554
2308.6,3.0888,0.82976
2320.3,1.6507,1.3119
2332,0.30129,-0.20384
2343.8,0.48328,-1.0105
2355.5,0.93846,3.8057
2367.2,3.4478,3.1608
2378.9,2.167,2.2636
2390.6,1.9107,0.84349
2402.3,4.6045,0.27263
2414.1,1.941,0.91574
2425.8,-0.76015,1.6308
2437.5,2.0292,0.39849
2449.2,2.8089,-0.16921
2460.9,3.8173,-0.41279
2472.7,0.46458,-0.034573
2484.4,0.70547,1.5636
2496.1,1.7536,3.1653
2507.8,3.0725,1.2819
2519.5,5.2932,1.5433
2531.3,3.5395,0.55006
2543,3.9138,-1.2349
2554.7,3.4761,0.57764
2566.4,2.0359,1.8267
2578.1,1.605,-0.55714
2589.8,0.29284,-1.2055
2601.6,1.2746,1.3179
2613.3,0.77741,2.2827
2625,-0.70055,2.7318
2636.7,1.1233,0.90216
2648.4,0.21142,0.16591
2660.2,2.265,-1.3401
2671.9,2.5741,-1.9424
2683.6,0.34534,-1.0116
2695.3,1.5089,-0.82663
2707,3.0492,-3.3719
2718.8,5.1928,-2.2729
2730.5,2.7545,-1.6035
2742.2,-0.7563,-0.65504
2753.9,0.34187,1.6711
2765.6,1.7742,2.0873
2777.3,1.033,-0.84787
2789.1,3.213,0.24659
2800.8,2.5523,0.46298
2812.5,-0.5934,3.0472
2824.2,-1.2955,1.1782
2835.9,0.53438,2.0842
2847.7,1.0517,1.594
2859.4,2.4612,2.6893
2871.1,2.8466,-2.4891
2882.8,0.11993,1.6737
2894.5,1.4303,2.9585
2906.3,-1.1462,2.089
2918,1.7398,2.2549
2929.7,0.74397,0.55281
2941.4,-2.3532,-1.8253
2953.1,-0.97501,-0.69265
2964.8,-3.6581,1.0885
2976.6,-3.4977,-1.0058
2988.3,1.3317,-0.51535
3000,1.8479,-1.0472
3011.7,-0.69616,-0.29722
3023.4,-0.86763,1.2913
3035.2,-0.79961,1.0405
3046.9,-3.1558,-0.70646
3058.6,-0.29783,-2.3667
3070.3,-0.76887,0.18276
3082,-1.2381,1.1877
3093.8,1.2502,-1.4894
3105.5,-0.059482,0.54901
3117.2,-3.2945,1.0823
3128.9,-2.5555,-2.55
3140.6,-4.3473,-0.74634
3152.3,-3.4743,0.0050076
3164.1,-0.085451,-1.2361
3175.8,1.8066,1.5522
3187.5,1.8446,-1.2851
3199.2,1.9754,-2.3967
3210.9,0.31495,-1.9551
3222.7,0.25264,-1.2898
3234.4,2.5693,-1.4241
3246.1,1.8756,0.88236
3257.8,0.40596,1.1041
3269.5,-3.5048,-3.2175
3281.3,1.2157,-0.87258
3293,2.7782,-0.78429
3304.7,2.7333,-2.2615
3316.4,0.18329,-1.3902
3328.1,-2.8214,-0.81972
3339.8,-2.1437,1.1634
3351.6,-1.3988,0.13457
3363.3,-2.5023,0.98512
3375,-1.1262,3.7103
3386.7,-1.4152,0.85362
3398.4,-3.1531,-0.33657
3410.2,-1.8242,-1.4655
3421.9,-3.6854,-2.5887
3433.6,-1.5926,-1.4012
3445.3,0.14207,-1.3603
3457,-2.9636,-1.183
3468.8,-2.0334,-1.9486
3480.5,-1.5033,-2.0116
3492.2,-1.9787,-0.49568
3503.9,-0.93775,-0.18411
3515.6,0.80611,-0.46185
3527.3,1.2235,-1.668
3539.1,-1.5096,-2.3237
3550.8,-0.48654,-1.3885
3562.5,0.7555,0.31212
3574.2,0.86782,0.95951
3585.9,-0.82386,-0.77846
3597.7,-0.67748,-5.3869
3609.4,-1.8344,-5.3345
3621.1,-0.25328,-0.68459
3632.8,1.4586,-1.8765
3644.5,0.41853,0.10818
3656.3,1.0127,-1.9314
3668,0.89708,-1.8554
3679.7,-0.42393,0.98138
3691.4,2.1993,-0.19983
3703.1,1.0385,0.46763
3714.8,-3.3537,0.094524
3726.6,-4.2131,-2.4337
3738.3,-3.6708,0.83469
3750,-3.9136,0.094056
3761.7,-4.2265,-0.34405
3773.4,-2.0877,-1.9371
3785.2,-2.11,-4.6862
3796.9,-2.2695,-1.9605
3808.6,-0.71051,-1.8807
3820.3,2.9203,-0.59205
3832,1.9223,-0.38
3843.8,-2.1263,-0.91466
3855.5,-1.8876,-0.90291
3867.2,0.064626,-1.7167
3878.9,0.57331,-1.3693
3890.6,-2.3009,-2.8509
3902.3,-0.40483,-5.4145
3914.1,-0.74143,-6.3945
3925.8,-0.58309,-3.0825
3937.5,-0.60521,-1.6582
3949.2,-1.6053,-2.654
3960.9,-2.7778,-1.5516
3972.7,-5.9135,-1.6784
3984.4,-2.812,-1.4207
3996.1,-3.6498,-2.9249
4007.8,-2.8933,-4.9044
4019.5,-3.045,-5.6374
4031.3,-1.7249,-4.7174
4043,-2.5249,-2.9441
4054.7,-2.0863,-0.28417
4066.4,-0.65275,-0.33244
4078.1,-1.005,-2.8906
4089.8,-4.5493,-3.2656
4101.6,-1.8685,0.57706
4113.3,-1.4524,0.10563
4125,-5.7918,-3.9079
4136.7,-2.3688,-1.7119
4148.4,-1.8495,1.2103
4160.2,-1.2437,-1.4615
4171.9,-2.7659,-3.9165
4183.6,-2.1968,-1.3659
4195.3,-0.7834,-2.137
4207,-1.464,-1.2474
4218.8,-3.6697,-2.1908
4230.5,-1.3476,-4.8184
4242.2,-3.3781,-4.9821
4253.9,-4.2913,-4.9136
4265.6,-3.8695,-3.4715
4277.3,-4.6206,-2.9543
4289.1,-4.5131,-1.0263
4300.8,-0.54592,-0.83088
4312.5,-2.3912,0.432
4324.2,-3.1463,-1.8203
4335.9,-1.2427,-5.5561
4347.7,-1.6159,-4.2514
4359.4,-2.3992,-3.7142
4371.1,-4.7407,-0.20792
4382.8,-4.7108,-2.2834
4394.5,-2.2192,-2.3288
4406.3,-4.7691,-3.232
4418,-2.6717,-2.1201
4429.7,-3.9985,-3.2896
4441.4,-3.9975,-5.3531
4453.1,-3.6396,-2.7479
4464.8,-3.1769,-2.4951
4476.6,-3.7607,-3.9778
4488.3,-1.7309,-4.1923
4500,1.2744,-4.6614
4511.7,-0.10514,-3.0826
4523.4,-3.8533,-1.1912
4535.2,-7.0063,0.30636
4546.9,-4.0776,-1.2643
4558.6,-1.98,-3.2918
4570.3,-3.9431,-5.0093
4582,-4.0256,-5.3641
4593.8,-5.8931,-1.8856
4605.5,-5.2303,-2.0547
4617.2,-3.6112,-2.1936
4628.9,-2.6913,-1.3286
4640.6,-0.23457,-3.0986
4652.3,-2.3381,-2.7097
4664.1,-2.4573,-3.5051
4675.8,-1.7057,-3.7544
4687.5,-5.1863,-4.6868
4699.2,-9.8101,-4.9165
4710.9,-2.92,-3.5396
4722.7,-1.1691,-4.0206
4734.4,-2.0926,-2.8992
4746.1,-2.3011,-1.3622
4757.8,-2.1851,-2.1415
4769.5,-2.8993,-5.4327
4781.3,-3.5703,-6.8934
4793,-3.9231,-5.3386
4804.7,-1.3229,-4.5345
4816.4,-1.9776,-4.9082
4828.1,-3.3865,-6.181
4839.8,-4.8087,-2.1647
4851.6,-3.4594,-1.6676
4863.3,-4.1183,-1.065
4875,-4.509,-0.80775
4886.7,-3.5537,-1.8672
4898.4,-3.1224,-6.041
4910.2,-3.7769,-4.0532
4921.9,-3.7089,-4.9642
4933.6,-0.38023,-5.3949
4945.3,-3.0217,-5.6473
4957,-4.6038,-5.1127
4968.8,-4.9998,-5.2146
4980.5,-2.7806,-6.1547
4992.2,-1.935,-6.2798
5003.9,-3.2212,-7.4306
5015.6,-5.267,-7.3536
5027.3,-3.9769,-6.7038
5039.1,-5.3427,-3.9607
5050.8,-6.2101,-6.7904
5062.5,-5.1716,-7.2297
5074.2,-3.255,-5.6789
5085.9,-2.7435,-4.8131
5097.7,-4.7876,-2.0847
5109.4,-6.2972,-1.7329
5121.1,-2.2202,-3.3536
5132.8,-1.5897,-4.978
5144.5,-2.6958,-5.3787
5156.3,-4.2441,-3.8331
5168,-5.0644,-2.9677
5179.7,-10.194,-3.6367
5191.4,-2.9835,-3.1792
5203.1,-5.6292,-2.6414
5214.8,-7.7269,-4.876
5226.6,-7.3682,-3.3947
5238.3,-6.3541,-2.5997
5250,-3.0393,-1.9248
5261.7,-5.5682,-3.9889
5273.4,-5.714,-4.444
5285.2,-7.4342,-2.4853
5296.9,-5.7992,-2.6609
5308.6,-5.1331,-3.2988
5320.3,-3.2636,-3.7058
5332,-2.6279,-3.9106
5343.8,-4.784,-5.4094
5355.5,-2.1524,-2.1146
5367.2,-3.1294,-3.8917
5378.9,-4.5994,-5.0248
5390.6,-7.1357,-5.0538
5402.3,-6.5102,-2.4917
5414.1,-4.6771,-6.1064
5425.8,-6.6454,-8.4232
5437.5,-7.7065,-6.0602
5449.2,-4.3781,-3.9001
5460.9,-4.7805,-5.2974
5472.7,-5.1812,-4.4459
5484.4,-2.4234,-5.1113
5496.1,-5.8089,-5.3798
5507.8,-6.6858,-7.8481
5519.5,-5.0679,-6.615
5531.3,-4.1857,-6.914
5543,-6.5073,-5.9964
5554.7,-4.6046,-5.7346
5566.4,-4.6618,-5.2924
5578.1,-7.8677,-7.3023
5589.8,-7.0789,-5.8186
5601.6,-6.0054,-4.3837
5613.3,-7.993,-5.0673
5625,-6.1882,-4.4525
5636.7,-5.996,-4.8439
5648.4,-4.9094,-2.8545
5660.2,-6.0072,-3.2106
5671.9,-9.4178,-4.4789
5683.6,-6.2913,-4.1421
5695.3,-7.6158,-6.5267
5707,-7.8547,-6.7308
5718.8,-4.8944,-3.9077
5730.5,-3.5378,-3.0608
5742.2,-3.8719,-2.7588
5753.9,-5.302,-4.9834
5765.6,-3.7522,-6.9715
5777.3,-6.1596,-5.3604
5789.1,-5.5294,-3.9751
5800.8,-7.4077,-5.3754
5812.5,-8.5946,-7.5401
5824.2,-6.5478,-9.2278
5835.9,-5.058,-7.4472
5847.7,-4.6113,-6.5126
5859.4,-2.6881,-4.16
5871.1,-3.0442,-3.8726
5882.8,-4.4711,-5.399
5894.5,-4.8469,-7.8714
5906.3,-5.0544,-5.5251
5918,-6.9947,-6.8445
5929.7,-8.4321,-5.3215
5941.4,-9.8008,-5.132
5953.1,-8.8842,-6.2987
5964.8,-8.055,-4.9111
5976.6,-5.847,-4.0274
5988.3,-3.674,-4.0506
6000,-3.1439,-5.131
6011.7,-5.2723,-7.8473
6023.4,-7.3609,-8.5269
6035.2,-4.1635,-3.6312
6046.9,-5.3416,-3.4784
6058.6,-6.2497,-6.3974
6070.3,-6.5943,-5.1401
6082,-6.696,-4.3996
6093.8,-7.5914,-5.2768
6105.5,-7.174,-4.8549
6117.2,-6.7855,-4.752
6128.9,-7.4707,-3.4775
6140.6,-6.5283,-3.2606
6152.3,-5.3677,-8.7973
6164.1,-6.7838,-5.9379
6175.8,-5.4633,-2.9712
6187.5,-6.1858,-2.0258
6199.2,-5.3016,-3.5917
6210.9,-5.881,-6.7389
6222.7,-7.0246,-6.3715
6234.4,-8.3111,-6.5656
6246.1,-6.859,-6.2461
6257.8,-5.8332,-6.1587
6269.5,-5.8182,-7.2263
6281.3,-7.1317,-6.9798
6293,-7.992,-5.9382
6304.7,-4.7628,-4.4596
6316.4,-4.6497,-2.8393
6328.1,-7.3661,-3.8699
6339.8,-9.2004,-5.0262
6351.6,-6.7486,-8.5285
6363.3,-5.3611,-8.9168
6375,-6.5511,-8.9516
6386.7,-5.1528,-7.8509
6398.4,-5.3585,-8.7324
6410.2,-3.3839,-6.4603
6421.9,-2.7209,-4.7271
6433.6,-3.681,-2.7593
6445.3,-2.9923,-4.0161
6457,-5.1387,-6.6726
6468.8,-10.259,-8.8834
6480.5,-9.4759,-7.0722
6492.2,-10.122,-4.2299
6503.9,-5.7738,-6.2304
6515.6,-4.6549,-10.565
6527.3,-7.5445,-5.7228
6539.1,-4.5911,-5.3235
6550.8,-2.0645,-7.718
6562.5,-3.8141,-8.7486
6574.2,-5.527,-6.5634
6585.9,-6.2394,-5.5691
6597.7,-7.4825,-5.9437
6609.4,-7.7202,-4.6542
6621.1,-5.5661,-3.5431
6632.8,-4.0238,-4.2542
6644.5,-6.9805,-6.405
6656.3,-7.7805,-5.4877
6668,-7.5823,-4.8408
6679.7,-7.0562,-3.9646
6691.4,-5.6482,-7.3578
6703.1,-8.2805,-8.2711
6714.8,-8.2873,-6.8727
6726.6,-5.1526,-4.9108
6738.3,-2.997,-6.774
6750,-6.2067,-7.886
6761.7,-3.7349,-5.5091
6773.4,-4.0983,-6.9578
6785.2,-8.5916,-10.371
6796.9,-8.9082,-10.807
6808.6,-8.542,-8.7584
6820.3,-7.6253,-8.4904
6832,-8.5224,-9.9923
6843.8,-7.1597,-8.8779
6855.5,-5.1692,-6.1537
6867.2,-5.4032,-8.0998
6878.9,-4.4348,-7.3959
6890.6,-3.9821,-6.9589
6902.3,-8.3413,-7.0527
6914.1,-5.0197,-3.4133
6925.8,-5.2584,-5.5427
6937.5,-7.4432,-10.623
6949.2,-5.2831,-7.2951
6960.9,-6.876,-4.0985
6972.7,-9.1297,-7.0627
6984.4,-7.858,-7.6618
6996.1,-5.9787,-7.6493
7007.8,-5.9211,-7.1212
7019.5,-6.1592,-4.5849
7031.3,-7.6718,-4.3132
7043,-9.0142,-8.541
7054.7,-9.457,-10.277
7066.4,-9.1857,-9.8339
7078.1,-7.4414,-10.061
7089.8,-6.3657,-7.625
7101.6,-9.0245,-7.922
7113.3,-9.5369,-6.2801
7125,-9.9612,-7.6947
7136.7,-6.8328,-9.2122
7148.4,-8.1345,-8.84
7160.2,-8.1159,-9.7157
7171.9,-9.3852,-7.7314
7183.6,-10.861,-7.6872
7195.3,-9.2471,-7.877
7207,-7.8591,-7.1257
7218.8,-6.4556,-6.7335
7230.5,-7.9501,-6.1451
7242.2,-8.9629,-8.3962
7253.9,-8.42,-9.3337
7265.6,-6.5656,-8.143
7277.3,-8.1753,-6.3994
7289.1,-7.9894,-6.1003
7300.8,-11.292,-7.8723
7312.5,-9.3593,-10.53
7324.2,-5.6968,-7.676
7335.9,-5.5913,-8.593
7347.7,-6.6214,-6.1247
7359.4,-6.5802,-6.1286
7371.1,-8.1343,-5.1797
7382.8,-9.1902,-7.207
7394.5,-6.6126,-9.1373
7406.3,-6.2332,-9.7118
7418,-7.291,-8.4381
7429.7,-9.7672,-6.8779
7441.4,-8.0668,-6.7939
7453.1,-6.1549,-7.2251
7464.8,-5.5917,-6.8878
7476.6,-1.7029,-7.8597
7488.3,-0.068612,-6.3211
7500,9.7575,-3.3094
7511.7,28.42,12.454
7523.4,37.35,21.379
7535.2,34.712,18.758
7546.9,18.297,3.1206
7558.6,3.0954,-6.4273
7570.3,-0.13481,-7.4561
7582,-3.4974,-7.7431
7593.8,-6.713,-8.1215
7605.5,-4.7939,-9.918
7617.2,-9.3182,-8.2393
7628.9,-10.698,-6.4335
7640.6,-8.5746,-6.6219
7652.3,-8.9231,-8.5073
7664.1,-8.34,-7.7854
7675.8,-8.0671,-8.6517
7687.5,-8.2223,-11.53
7699.2,-11.049,-7.6679
7710.9,-10.302,-6.2912
7722.7,-9.8329,-6.3187
7734.4,-9.1632,-8.2851
7746.1,-10.262,-5.0017
7757.8,-6.6644,-5.4847
7769.5,-7.1474,-8.9957
7781.3,-8.5762,-10.292
7793,-10.484,-8.9119
7804.7,-11.23,-10.884
7816.4,-8.3952,-7.8254
7828.1,-4.7975,-8.5218
7839.8,-3.7203,-11.201
7851.6,-3.8861,-13.089
7863.3,-7.4829,-9.9218
7875,-9.9028,-9.4345
7886.7,-9.5458,-9.148
7898.4,-9.8704,-7.3318
7910.2,-9.9685,-6.3319
7921.9,-7.3311,-5.4193
7933.6,-8.8083,-7.5311
7945.3,-9.1046,-9.1496
7957,-7.8892,-10.384
7968.8,-10.492,-11.544
7980.5,-8.6597,-11.654
7992.2,-8.1285,-8.5139
8003.9,-9.8163,-7.8614
8015.6,-10.522,-7.3027
8027.3,-13.012,-7.709
8039.1,-9.1506,-8.5732
8050.8,-7.6826,-11.589
8062.5,-10.117,-8.8379
8074.2,-7.3481,-7.1515
8085.9,-5.345,-6.4687
8097.7,-12.339,-7.6978
8109.4,-10.543,-7.2043
8121.1,-9.5157,-8.4234
8132.8,-10.075,-7.8411
8144.5,-11.175,-8.9381
8156.3,-11.592,-10.253
8168,-10.167,-10.509
8179.7,-9.9048,-8.6464
8191.4,-9.408,-9.1245
8203.1,-10.257,-10.362
8214.8,-9.626,-9.3744
8226.6,-7.3062,-9.6751
8238.3,-8.1422,-12.091
8250,-10.458,-10.412
8261.7,-9.7285,-10.168
8273.4,-8.393,-11.954
8285.2,-12.468,-12.288
8296.9,-10.291,-11.019
8308.6,-10.364,-8.5972
8320.3,-9.9463,-10.06
8332,-10.581,-7.7834
8343.8,-11.758,-7.6121
8355.5,-12.599,-9.8479
8367.2,-11.598,-9.7231
8378.9,-11.146,-9.2417
8390.6,-8.7002,-11.192
8402.3,-8.34,-11.877
8414.1,-8.1576,-11.118
8425.8,-4.3338,-10.208
8437.5,-5.7526,-9.5618
8449.2,-9.2493,-11.273
8460.9,-10.57,-11.107
8472.7,-16.009,-8.1323
8484.4,-10.428,-8.1583
8496.1,-8.2624,-11.618
8507.8,-10.269,-11.425
8519.5,-9.2044,-5.8684
8531.3,-8.1134,-5.0867
8543,-8.1154,-10.022
8554.7,-8.8254,-9.0081
8566.4,-6.9993,-7.1496
8578.1,-4.79,-6.0441
8589.8,-6.0157,-6.4328
8601.6,-10.935,-9.7301
8613.3,-11.715,-10.603
8625,-11.999,-9.0871
8636.7,-11.695,-10.669
8648.4,-10.856,-8.7987
8660.2,-8.7052,-6.9846
8671.9,-8.8646,-9.5043
8683.6,-8.46,-8.6385
8695.3,-9.6437,-7.6777
8707,-9.7118,-9.8566
8718.8,-11.197,-8.8622
8730.5,-10.76,-10.207
8742.2,-10.446,-11.552
8753.9,-9.7631,-10.578
8765.6,-8.804,-11.152
8777.3,-8.489,-7.4865
8789.1,-10.941,-9.4875
8800.8,-8.0311,-15.341
8812.5,-8.3928,-16.082
8824.2,-8.0419,-11.381
8835.9,-9.2236,-9.3809
8847.7,-9.0781,-11.482
8859.4,-9.209,-9.8498
8871.1,-7.3426,-8.4953
8882.8,-7.4695,-9.2229
8894.5,-9.2071,-9.0446
8906.3,-9.0361,-9.7423
8918,-10.459,-10.325
8929.7,-11.138,-11.498
8941.4,-10.071,-11.808
8953.1,-8.6767,-9.3868
8964.8,-9.2868,-11.628
8976.6,-10.095,-13.406
8988.3,-6.4954,-10.424
9000,-7.0946,-8.4749
9011.7,-8.5235,-8.4284
9023.4,-10.878,-9.9317
9035.2,-12.326,-11.862
9046.9,-7.9374,-9.4827
9058.6,-9.6318,-10.365
9070.3,-12.317,-12.776
9082,-11.602,-13.034
9093.8,-13.161,-11.783
9105.5,-13.44,-13.868
9117.2,-14.268,-11.842
9128.9,-11.702,-11.46
9140.6,-9.7107,-11.402
9152.3,-8.7016,-9.0166
9164.1,-10.708,-9.437
9175.8,-11.773,-10.599
9187.5,-11.712,-12.011
9199.2,-12.419,-10.794
9210.9,-13.271,-9.8983
9222.7,-11.319,-12.601
9234.4,-8.7189,-9.7828
9246.1,-7.8467,-10.782
9257.8,-9.5075,-12.147
9269.5,-8.2879,-10.333
9281.3,-10.599,-13.516
9293,-10.583,-15.768
9304.7,-10.115,-13.488
9316.4,-12.223,-11.043
9328.1,-13.824,-12.293
9339.8,-11.1,-11.428
9351.6,-7.3865,-13.243
9363.3,-8.9544,-12.11
9375,-11.021,-11.329
9386.7,-10.16,-11.47
9398.4,-12.249,-12.128
9410.2,-9.1644,-12.829
9421.9,-10.493,-10.579
9433.6,-11.615,-10.013
9445.3,-8.9991,-10.416
9457,-11.326,-9.8879
9468.8,-11.967,-9.3518
9480.5,-9.673,-8.7754
9492.2,-11.469,-11.978
9503.9,-13.713,-14.004
9515.6,-11.092,-11.32
9527.3,-10.063,-9.6089
9539.1,-8.1443,-8.5299
9550.8,-9.7443,-11.333
9562.5,-9.242,-9.5384
9574.2,-6.9725,-7.8339
9585.9,-9.5472,-10.251
9597.7,-9.1688,-14.589
9609.4,-7.8648,-12.153
9621.1,-9.482,-10.763
9632.8,-9.6863,-9.6114
9644.5,-6.8788,-11.587
9656.3,-9.9785,-13.208
9668,-13.201,-12.709
9679.7,-11.69,-11.845
9691.4,-11.624,-15.337
9703.1,-9.5629,-14.666
9714.8,-8.0869,-13.442
9726.6,-9.9538,-8.28
9738.3,-10.589,-11.275
9750,-8.9302,-14.881
9761.7,-10.853,-13.135
9773.4,-9.3622,-13.845
9785.2,-10.839,-15.77
9796.9,-7.4125,-15.78
9808.6,-9.0494,-14.085
9820.3,-12.089,-13.086
9832,-10.834,-11.498
9843.8,-9.772,-12.711
9855.5,-11.914,-14.054
9867.2,-12.62,-11.318
9878.9,-12.868,-9.9169
9890.6,-13.659,-10.654
9902.3,-12.478,-10.935
9914.1,-13.217,-12.199
9925.8,-14.092,-13.735
9937.5,-10.948,-15.069
9949.2,-8.9268,-11.447
9960.9,-9.1283,-10.005
9972.7,-11.354,-10.798
9984.4,-13.09,-12.775
9996.1,-11.41,-14.357
10008,-11.18,-11.718
10020,-9.2411,-10.284
10031,-10.102,-10.344
10043,-12.664,-12.495
10055,-8.8739,-11.396
10066,-9.5766,-15.243
10078,-11.61,-13.968
10090,-10.735,-12.483
10102,-10.163,-13.796
10113,-13.843,-15.28
10125,-13.81,-13.749
10137,-12.129,-14.216
10148,-10.969,-11.887
10160,-8.6415,-11.827
10172,-9.0557,-15.041
10184,-10.71,-13.832
10195,-15.182,-11.71
10207,-14.545,-12.269
10219,-12.484,-14.043
10230,-10.787,-14.154
10242,-10.497,-11.472
10254,-10.975,-9.7968
10266,-10.135,-10.994
10277,-9.242,-13.99
10289,-9.7462,-17.457
10301,-12.097,-13.929
10313,-14.995,-10.774
10324,-13.327,-10.808
10336,-11.081,-14.522
10348,-10.672,-15.468
10359,-10.937,-13.692
10371,-11.427,-14.519
10383,-12.746,-12.21
10395,-12.909,-10.477
10406,-13.257,-12.933
10418,-13.903,-11.291
10430,-15.747,-12.716
10441,-15.545,-13.319
10453,-13.909,-11.814
10465,-13.297,-12.348
10477,-12.128,-12.809
10488,-10.531,-16.099
10500,-11.727,-13.163
10512,-11.892,-13.22
10523,-10.621,-12.954
10535,-12.759,-12.159
10547,-11.005,-11.018
10559,-10.544,-10.572
10570,-11.721,-14.966
10582,-13.601,-13.921
10594,-13.524,-12.974
10605,-11.953,-12.155
10617,-9.2821,-13.889
10629,-10.083,-11.869
10641,-10.637,-11.109
10652,-9.7543,-10.417
10664,-10.369,-13.755
10676,-14.042,-14.637
10688,-12.288,-13.218
10699,-10.498,-13.957
10711,-12.413,-12.994
10723,-11.874,-15.166
10734,-11.695,-14.196
10746,-10.671,-12.887
10758,-12.641,-10.84
10770,-14.163,-11.098
10781,-9.399,-14.286
10793,-9.4441,-16.864
10805,-14.096,-13.269
10816,-11.721,-13.651
10828,-13.464,-14.247
10840,-11.971,-14.142
10852,-11.101,-13.983
10863,-11.23,-15.123
10875,-13.46,-15.559
10887,-15.205,-12.998
10898,-15.166,-11.984
10910,-15.316,-13.959
10922,-11.54,-16.201
10934,-8.127,-12.297
10945,-9.7209,-10.388
10957,-10.331,-10.998
10969,-9.5015,-11.966
10980,-13.148,-14.166
10992,-10.748,-14.496
11004,-10.946,-13.896
11016,-13.585,-13.384
11027,-13.34,-13.984
11039,-13.484,-14.115
11051,-13.6,-14.673
11063,-16.375,-13.867
11074,-12.05,-11.762
11086,-12.246,-12.701
11098,-13.812,-11.695
11109,-12.704,-11.699
11121,-11.954,-12.801
11133,-9.2505,-14.272
11145,-10.836,-13.3
11156,-12.754,-12.88
11168,-9.5394,-13.353
11180,-12.129,-12.157
11191,-15.321,-11.402
11203,-15.566,-12.65
11215,-14.078,-15.669
11227,-13.722,-17.055
11238,-13.899,-14.886
11250,-13.19,-12.664
11262,-10.014,-11.811
11273,-9.9766,-14.132
11285,-9.2824,-15.039
11297,-12.213,-13.523
11309,-12.857,-12.82
11320,-10.096,-13.134
11332,-11.658,-13.383
11344,-10.753,-14.667
11355,-13.984,-14.595
11367,-9.6881,-17.526
11379,-8.9312,-14.216
11391,-12.097,-11.921
11402,-14.785,-14.861
11414,-14.112,-14.362
11426,-12.158,-12.754
11438,-13.198,-12.92
11449,-13.951,-12.388
11461,-10.044,-11.394
11473,-10.291,-15.072
11484,-13.061,-17.813
11496,-12.499,-16.007
11508,-13.175,-13.463
11520,-10.72,-13.45
11531,-10.429,-13.365
11543,-11.468,-14.869
11555,-10.895,-11.936
11566,-12.251,-15.116
11578,-15.473,-12.175
11590,-14.002,-12.622
11602,-12.115,-15.97
11613,-16.235,-13.924
11625,-16.566,-11.854
11637,-12.563,-12.674
11648,-10.894,-16.512
11660,-11.898,-16.136
11672,-12.303,-16.308
11684,-14.661,-15.676
11695,-13.952,-17.674
11707,-10.959,-15.719
11719,-11.103,-16.485
11730,-12.66,-15.071
11742,-11.741,-12.092
11754,-12.242,-11.828
11766,-14.488,-13.436
11777,-14.982,-14.075
11789,-11.422,-11.929
11801,-11.265,-14.996
11813,-10.645,-14.304
11824,-8.584,-12.362
11836,-11.64,-12.362
11848,-13.941,-12.936
11859,-12.675,-16.181
11871,-11.728,-16.662
11883,-12.532,-14.795
11895,-12.276,-15.831
11906,-12.371,-14.973
11918,-14.434,-12.309
11930,-11.972,-12.001
11941,-9.5728,-14.85
11953,-10.178,-16.637
11965,-10.853,-16.22
11977,-13.391,-13.304
11988,-12.519,-15.429
12000,-10.812,-11.777
12012,-14.389,-13.462
12023,-12.674,-14.175
12035,-12.021,-12.877
12047,-13.066,-12.327
12059,-12.594,-13.122
12070,-12.332,-13.115
12082,-16.458,-14.077
12094,-13.024,-15.215
12105,-12.994,-17.625
12117,-15.579,-14.679
12129,-13.493,-14.27
12141,-14.004,-13.525
12152,-15.443,-16.021
12164,-12.786,-16.158
12176,-12.745,-19.097
12188,-13.276,-16.745
12199,-13.13,-15.602
12211,-16,-15.599
12223,-15.871,-16.786
12234,-15.785,-19.092
12246,-13.229,-12.743
12258,-10.424,-11.994
12270,-10.464,-15.814
12281,-12.754,-13.472
12293,-11.608,-13.421
12305,-13.353,-12.817
12316,-12.548,-13.972
12328,-11.843,-16.051
12340,-14.334,-17.076
12352,-12.145,-16.439
12363,-10.823,-15.41
12375,-11.492,-14.047
12387,-12.052,-15.399
12398,-13.589,-15.164
12410,-13.118,-14.147
12422,-12.988,-17.381
12434,-15.717,-15.096
12445,-13.021,-14.963
12457,-11.889,-12.964
12469,-10.403,-14.893
12480,-9.8253,-18.019
12492,-11.935,-13.025
12504,-11.525,-13.906
12516,-13.349,-15.982
12527,-13.806,-16.686
12539,-10.358,-16.604
12551,-10.929,-14.846
12563,-13.714,-13.281
12574,-13.632,-13.489
12586,-13.856,-14.825
12598,-14.092,-15.552
12609,-12.466,-14.001
12621,-14.582,-18.746
12633,-11.373,-18.213
12645,-11.377,-18.514
12656,-13.117,-17.32
12668,-15.568,-15.362
12680,-14.172,-14.591
12691,-11.675,-15.748
12703,-10.96,-15.732
12715,-9.5142,-16.148
12727,-9.7493,-16.244
12738,-10.727,-15.645
12750,-10.706,-15.809
12762,-11.176,-15.608
12773,-12.974,-14.888
12785,-14.967,-13.918
12797,-14.752,-14.198
12809,-10.965,-16.718
12820,-12.49,-19.923
12832,-12.396,-17.627
12844,-12.222,-16.755
12855,-11.627,-17.488
12867,-12.672,-17.918
12879,-13.472,-19.11
12891,-12.172,-17.829
12902,-12.377,-14.315
12914,-15.261,-15.307
12926,-13.451,-18.253
12938,-15.016,-16.8
12949,-14.034,-15.508
12961,-13.465,-15.8
12973,-16.131,-15.493
12984,-14.31,-16.675
12996,-11.444,-19.311
13008,-13.032,-16.094
13020,-13.144,-16.578
13031,-11.845,-16.433
13043,-11.76,-16.812
13055,-14.53,-16.834
13066,-15.919,-17.491
13078,-14.305,-15.754
13090,-12.582,-15.879
13102,-14.836,-16.219
13113,-14.871,-16.866
13125,-16.242,-18.367
13137,-17.033,-17.436
13148,-16.712,-15.632
13160,-14.829,-14.97
13172,-16.198,-12.325
13184,-12.677,-12.964
13195,-9.474,-17.276
13207,-10.341,-16.898
13219,-15.909,-15.21
13230,-14.343,-14.894
13242,-14.039,-13.652
13254,-14.781,-13.809
13266,-11.713,-16.276
13277,-10.938,-19.137
13289,-12.029,-16.561
13301,-12.313,-14.059
13313,-14.381,-14.219
13324,-13.455,-18.987
13336,-11.196,-15.88
13348,-15.132,-15.871
13359,-15.891,-17.942
13371,-13.655,-15.913
13383,-14.975,-15.047
13395,-14.988,-12.482
13406,-13.708,-14.366
13418,-12.326,-13.693
13430,-14.079,-11.541
13441,-15.748,-13
13453,-12.696,-13.045
13465,-13.498,-13.448
13477,-15.437,-17.106
13488,-16.035,-18.903
13500,-17.582,-17.193
13512,-14.692,-15.318
13523,-12.551,-15.33
13535,-12.084,-14.805
13547,-14.224,-13.475
13559,-15.083,-16.217
13570,-12.4,-18.019
13582,-13.044,-16.717
13594,-11.043,-20.071
13605,-11.29,-17.211
13617,-12.375,-19.116
13629,-14.075,-17.057
13641,-14.642,-13.796
13652,-15.744,-13.224
13664,-16.347,-15.032
13676,-16.634,-14.956
13688,-16.966,-16.978
13699,-15.276,-18.711
13711,-12.454,-16.399
13723,-14.608,-14.291
13734,-12.627,-18.071
13746,-12.836,-16.29
13758,-13.48,-17.617
13770,-13.306,-18.237
13781,-13.281,-18.121
13793,-12.218,-18.107
13805,-12.672,-16.102
13816,-13.473,-16.501
13828,-14.796,-18.344
13840,-15.15,-16.48
13852,-14.981,-16.228
13863,-17.635,-15.597
13875,-14.616,-15.649
13887,-14.998,-18.037
13898,-15.837,-13.921
13910,-14.368,-14.075
13922,-13.919,-15.638
13934,-16.535,-16.974
13945,-16.456,-19.594
13957,-18.715,-18.742
13969,-18.623,-14.875
13980,-17.91,-17.396
13992,-17.495,-20.029
14004,-15.756,-18.1
14016,-11.803,-19.208
14027,-13.445,-17.642
14039,-16.069,-19.438
14051,-14.662,-19.773
14063,-15.355,-16.393
14074,-17.3,-15.737
14086,-15.798,-15.439
14098,-14.517,-15.261
14109,-16.844,-13.022
14121,-18.639,-14.84
14133,-18.374,-16.528
14145,-16.121,-16.203
14156,-19.054,-17.647
14168,-17.897,-18.275
14180,-16.523,-17.287
14191,-17.184,-16.438
14203,-16.178,-15.543
14215,-14.833,-15.207
14227,-12.205,-14.862
14238,-13.518,-18.061
14250,-17.072,-20.057
14262,-19.908,-19.561
14273,-15.364,-17.043
14285,-15.315,-16.509
14297,-17.779,-16.786
14309,-17.403,-16.202
14320,-16.35,-16.022
14332,-15.404,-16.634
14344,-17.786,-16.163
14355,-18.902,-16.169
14367,-17.489,-15.007
14379,-16.199,-14.913
14391,-16.212,-17.713
14402,-15.84,-20.297
14414,-15.721,-20.309
14426,-14.706,-18.496
14438,-15.374,-16.91
14449,-16.6,-15.711
14461,-16.937,-17.832
14473,-14.673,-16.781
14484,-13.723,-17.034
14496,-16.627,-16.681
14508,-16.184,-15.204
14520,-14.089,-17.298
14531,-15.8,-17.023
14543,-17.264,-18.926
14555,-16.789,-16.993
14566,-15.354,-17.518
14578,-16.16,-18.507
14590,-15.204,-16.335
14602,-14.401,-16.283
14613,-18.708,-17.701
14625,-19.497,-18.034
14637,-18.349,-17.827
14648,-19.704,-18.215
14660,-20.281,-20.296
14672,-16.573,-18.931
14684,-17.197,-18.589
14695,-21.012,-17.09
14707,-19.144,-17.065
14719,-15.425,-16.49
14730,-14.602,-16.856
14742,-13.967,-16.119
14754,-15.755,-16.009
14766,-16.331,-21.107
14777,-17.261,-18.846
14789,-19.891,-16.592
14801,-18.016,-17.557
14813,-18.23,-18.452
14824,-19.026,-17.862
14836,-17.249,-15.846
14848,-19.825,-15.438
14859,-19.226,-14.909
14871,-19.362,-17.096
14883,-22.368,-16.62
14895,-17.678,-18.483
14906,-18.068,-16.301
14918,-20.932,-18.405
14930,-18.456,-18.242
14941,-19.485,-18.731
14953,-17.429,-20.529
14965,-16.361,-21.187
14977,-19.755,-19.711
14988,-17.235,-18.576
15000,-17.491,-19.002
15012,-17.541,-18.123
15023,-15.734,-18.609
15035,-14.909,-15.088
15047,-7.8254,-14.115
15059,-7.608,-16.803
15070,-14.896,-17.085
15082,-15.969,-18.544
15094,-17.729,-20.843
15105,-16.137,-18.095
15117,-16.115,-17.066
15129,-18.055,-17.832
15141,-17.154,-16.921
15152,-17.477,-19.498
15164,-21.886,-22.127
15176,-16.007,-20.675
15188,-17.687,-18.75
15199,-19.018,-18.087
15211,-19.096,-18.519
15223,-19.665,-17.619
15234,-19.413,-19.919
15246,-18.33,-19.85
15258,-19.449,-19.529
15270,-20.204,-18.847
15281,-19.756,-17.228
15293,-23.968,-18.16
15305,-21.385,-18.062
15316,-19.837,-17.487
15328,-20.87,-18.396
15340,-19.026,-19.585
15352,-17.574,-20.297
15363,-17.908,-17.347
15375,-17.652,-18.691
15387,-22.087,-15.298
15398,-18.878,-17.024
15410,-18.117,-19.669
15422,-17.436,-20.688
15434,-18.039,-19.138
15445,-16.281,-19.262
15457,-21.083,-19.659
15469,-19.856,-17.941
15480,-18.948,-17.889
15492,-19.534,-20.071
15504,-21.144,-19.808
15516,-21.093,-19.793
15527,-19.212,-19.016
15539,-16.169,-18.647
15551,-16.15,-19.756
15563,-18.219,-20.564
15574,-19.326,-20.226
15586,-18.105,-18.468
15598,-16.588,-16.721
15609,-16.585,-16.449
15621,-21.128,-16.493
15633,-22.753,-16.88
15645,-20.914,-20.21
15656,-22.817,-20.949
15668,-19.635,-22.423
15680,-17.977,-24.761
15691,-20.705,-20.718
15703,-18.972,-17.858
15715,-19.522,-16.724
15727,-21.611,-17.429
15738,-15.573,-16.691
15750,-17.153,-15.163
15762,-20.183,-18.391
15773,-17.286,-20.381
15785,-18.988,-19.239
15797,-22.567,-17.54
15809,-22.041,-19.675
15820,-20.827,-20.356
15832,-19.178,-21.921
15844,-15.723,-19.808
15855,-16.549,-20.371
15867,-16.516,-18.285
15879,-16.28,-18.373
15891,-17.725,-19.28
15902,-19.086,-19.704
15914,-20.299,-19.476
15926,-18.723,-20.681
15938,-20.149,-21.896
15949,-20.329,-22.225
15961,-18.988,-22.665
15973,-17.149,-18.514
15984,-16.605,-19.207
15996,-16.405,-19.076
16008,-18.542,-19.161
16020,-19.953,-21.602
16031,-21.259,-21.387
16043,-23.911,-18.995
16055,-19.452,-21.234
16066,-17.899,-18.333
16078,-17.782,-16.359
16090,-17.437,-18.833
16102,-20.093,-21.031
16113,-23.97,-20.089
16125,-21.644,-20.127
16137,-21.356,-20.274
16148,-23.542,-19.13
16160,-23.037,-20.56
16172,-23.757,-20.73
16184,-17.221,-20.572
16195,-16.547,-19.622
16207,-18.721,-20.452
16219,-19.637,-19.51
16230,-18.883,-19.03
16242,-20.706,-21.43
16254,-20.035,-22.908
16266,-15.635,-20.452
16277,-15.561,-19.175
16289,-20.06,-18.769
16301,-17.861,-19.622
16313,-20.351,-19.287
16324,-17.771,-20.484
16336,-17.601,-18.173
16348,-18.553,-19.66
16359,-20.36,-20.661
16371,-20.799,-19.817
16383,-21.146,-21.527
16395,-21.584,-24.032
16406,-17.992,-22.749
16418,-17.692,-20.958
16430,-23.239,-21.936
16441,-21.725,-23.47
16453,-22.883,-21.447
16465,-22.86,-20.509
16477,-20.296,-22.295
16488,-20.574,-20.602
16500,-21.414,-20.247
16512,-21.203,-19.773
16523,-21.101,-18.626
16535,-16.868,-20.114
16547,-16.755,-19.691
16559,-20.102,-20.211
16570,-21.396,-21.68
16582,-19.337,-23.781
16594,-21.467,-19.138
16605,-19.041,-19.148
16617,-17.649,-19.399
16629,-20.158,-20.272
16641,-20.106,-19.87
16652,-16.951,-20.822
16664,-20.199,-21.631
16676,-21.552,-23.14
16688,-19.092,-23.349
16699,-19.057,-21.031
16711,-22.054,-19.483
16723,-22.624,-20.374
16734,-21.562,-20.592
16746,-24.356,-20.246
16758,-22.986,-21.166
16770,-22.32,-21.418
16781,-20.154,-21.169
16793,-20.123,-21.771
16805,-20.497,-22.936
16816,-22.027,-20.509
16828,-20.335,-19.815
16840,-18.746,-21.947
16852,-21.733,-21.328
16863,-22.846,-19.717
16875,-21.692,-18.282
16887,-20.011,-17.39
16898,-17.96,-19.608
16910,-17.857,-20.752
16922,-20.872,-22.644
16934,-22.462,-19.793
16945,-19.346,-21.811
16957,-18.303,-23.071
16969,-19.663,-21.688
16980,-18.713,-21.603
16992,-21.219,-21.468
17004,-21.149,-22.177
17016,-22.206,-22.254
17027,-24.304,-20.888
17039,-21.013,-20.244
17051,-20.986,-22.736
17063,-20.17,-24.171
17074,-21.403,-24.203
17086,-21.138,-23.816
17098,-20.717,-23.922
17109,-21.359,-23.021
17121,-20.928,-21.959
17133,-23.927,-20.433
17145,-23.802,-20.561
17156,-22.518,-22.924
17168,-22.704,-24.105
17180,-21.478,-21.436
17191,-25.197,-23.776
17203,-24.605,-23.49
17215,-24.162,-22.454
17227,-24.184,-21.533
17238,-23.004,-24.914
17250,-22.414,-23.149
17262,-23.125,-22.472
17273,-21.728,-21.127
17285,-22.235,-20.649
17297,-22.639,-20.536
17309,-21.82,-22.261
17320,-19.826,-23.69
17332,-20.564,-22.521
17344,-21.938,-22.1
17355,-21.409,-21.863
17367,-22.983,-21.906
17379,-22.844,-22.06
17391,-19.968,-21.589
17402,-21.665,-21.591
17414,-22.743,-22.909
17426,-21.976,-21.661
17438,-23.373,-20.172
17449,-24.965,-21.684
17461,-22.846,-23.274
17473,-22.142,-22.413
17484,-19.649,-23.172
17496,-21.602,-22.274
17508,-19.546,-22.594
17520,-20.023,-25.752
17531,-21.151,-23.298
17543,-20.119,-24.94
17555,-22.433,-22.803
17566,-23.061,-21.341
17578,-23.75,-21.18
17590,-22.842,-22.596
17602,-22.452,-21.06
17613,-23.105,-21.003
17625,-23.294,-23.316
17637,-23.203,-22.21
17648,-20.159,-22.418
17660,-22.032,-20.48
17672,-26.09,-19.9
17684,-24.254,-23.143
17695,-23.629,-23.948
17707,-21.96,-20.709
17719,-21.657,-19.686
17730,-22.814,-20.181
17742,-23.187,-20.33
17754,-24.197,-20.43
17766,-21.704,-23.524
17777,-20.202,-22.285
17789,-20.865,-24.182
17801,-24.261,-18.269
17813,-22.806,-21.688
17824,-21.164,-20.492
17836,-21.409,-21.512
17848,-20.361,-22.79
17859,-20.201,-21.681
17871,-20.827,-24.736
17883,-25.348,-24.335
17895,-24.049,-24.278
17906,-22.015,-20.019
17918,-21.568,-20.395
17930,-19.794,-25.481
17941,-22.385,-27.516
17953,-22.868,-20.757
17965,-23.78,-20.167
17977,-23.756,-23.204
17988,-21.506,-25.779
18000,-21.19,-26.426
18012,-23.21,-22.06
18023,-25.186,-21.357
18035,-22.754,-26.228
18047,-24.286,-27.062
18059,-23.388,-24.009
18070,-21.359,-23.407
18082,-21.185,-24.174
18094,-21.503,-23.631
18105,-23.077,-23.554
18117,-25.382,-22.043
18129,-23.112,-21.831
18141,-22.307,-23.601
18152,-21.104,-24.279
18164,-25.231,-24.577
18176,-24.407,-23.832
18188,-22.137,-22.83
18199,-20.716,-22.48
18211,-22.253,-20.434
18223,-22.865,-20.528
18234,-21.764,-24.021
18246,-21.483,-22.951
18258,-21.238,-21.652
18270,-20.79,-24.832
18281,-21.92,-24.109
18293,-25.592,-23.201
18305,-24.175,-23.703
18316,-22.315,-25.292
18328,-23.479,-25.316
18340,-23.791,-22.643
18352,-24.31,-22.942
18363,-24.355,-23.823
18375,-23.688,-22.55
18387,-23.182,-22.152
18398,-22.252,-26.156
18410,-25.491,-26.034
18422,-27.046,-24.931
18434,-25.514,-25.662
18445,-24.477,-26.723
18457,-22.159,-25.918
18469,-21.036,-24.887
18480,-25.794,-24.547
18492,-23.681,-25.051
18504,-23.93,-25.242
18516,-23.07,-23.709
18527,-20.614,-23.805
18539,-22.537,-23.62
18551,-20.945,-23.433
18563,-20.207,-27.148
18574,-23.8,-24.536
18586,-26.47,-25.93
18598,-28.232,-24.72
18609,-22.794,-24.825
18621,-21.558,-23.832
18633,-22.361,-22.143
18645,-26.692,-20.704
18656,-22.307,-22.153
18668,-20.474,-25.409
18680,-21.786,-28.1
18691,-24.134,-26.009
18703,-25.96,-25.112
18715,-25.911,-24.193
18727,-26.159,-23.244
18738,-26.292,-22.218
18750,-25.678,-21.882
18762,-25.4,-24.424
18773,-24.056,-22.028
18785,-23.948,-22.837
18797,-22.331,-23.989
18809,-21.445,-25.447
18820,-21.819,-24.558
18832,-23.33,-22.705
18844,-27.397,-21.246
18855,-26.206,-21.917
18867,-24.851,-27.441
18879,-21.914,-25.895
18891,-24.644,-29.218
18902,-23.368,-25.046
18914,-23.443,-25.388
18926,-24.322,-25.213
18938,-25.552,-25.338
18949,-21.768,-24.168
18961,-22,-25.599
18973,-24.738,-27.882
18984,-23.396,-23.971
18996,-22.25,-23.322
19008,-24.159,-24.964
19020,-23.984,-24.986
19031,-23.336,-26.449
19043,-24.052,-25.152
19055,-22.264,-23.519
19066,-22.957,-24.388
19078,-23.495,-24.904
19090,-23.939,-22.361
19102,-23.196,-22.924
19113,-24.33,-23.363
19125,-26.148,-23.011
19137,-23.167,-26.366
19148,-22.348,-22.959
19160,-23.154,-25.115
19172,-25.077,-26.271
19184,-25.723,-25.875
19195,-24.103,-24.658
19207,-26.892,-25.272
19219,-25.795,-26.132
19230,-24.951,-24.715
19242,-24.53,-24.228
19254,-23.397,-22.544
19266,-24.784,-24.429
19277,-25.636,-26.057
19289,-26.748,-24.425
19301,-23.563,-23.62
19313,-23.934,-25.447
19324,-25.282,-26.093
19336,-24.797,-25.526
19348,-22.652,-24.924
19359,-21.275,-29.146
19371,-24.792,-22.316
19383,-22.438,-20.704
19395,-25.572,-23.032
19406,-25.023,-26.046
19418,-23.707,-25.95
19430,-24.392,-27.33
19441,-24.026,-26.479
19453,-24.722,-23.612
19465,-26.303,-22.67
19477,-28.497,-23.912
19488,-27.575,-23.14
19500,-24.813,-25.006
19512,-21.25,-25.879
19523,-21.804,-25.859
19535,-24.68,-22.418
19547,-25.601,-22.454
19559,-24.392,-23.291
19570,-26.573,-26.724
19582,-25.372,-23.575
19594,-23.61,-24.965
19605,-24.819,-27.271
19617,-27.015,-29.068
19629,-24.354,-23.298
19641,-26.841,-21.428
19652,-28.483,-22.744
19664,-25.891,-21.989
19676,-23.377,-23.106
19688,-24.663,-23.431
19699,-26.301,-24.066
19711,-25.308,-23.153
19723,-25.709,-21.713
19734,-26.262,-22.075
19746,-24.266,-26.037
19758,-24.665,-24.491
19770,-25.904,-25.307
19781,-24.257,-26.101
19793,-22.933,-27.447
19805,-25.219,-25.697
19816,-22.706,-23.136
19828,-21.358,-24.463
19840,-21.921,-23.957
19852,-25.365,-25.623
19863,-25.539,-23.592
19875,-26.247,-24.845
19887,-23.887,-24.467
19898,-24.846,-25.087
19910,-24.924,-25.152
19922,-25.192,-22.557
19934,-24.414,-25.59
19945,-24.098,-25.742
19957,-22.857,-24.402
19969,-23.8,-27.545
19980,-24.802,-26.828
19992,-25.42,-26.944
20004,-27.339,-25.57
20016,-25.456,-28.501
20027,-26.932,-26.468
20039,-28.036,-25.344
20051,-26.78,-25.868
20063,-24.142,-27.834
20074,-27.564,-25.328
20086,-30.24,-26.314
20098,-25.537,-24.93
20109,-26.205,-23.784
20121,-26.293,-24.843
20133,-24.397,-25.763
20145,-25.229,-24.412
20156,-26.287,-24.101
20168,-25.119,-23.962
20180,-23.819,-23.971
20191,-24.689,-25.909
20203,-25.674,-24.357
20215,-27.09,-26.624
20227,-26.013,-26.97
20238,-25.732,-29.955
20250,-26.747,-26.445
20262,-22.826,-25.024
20273,-23.532,-24.193
20285,-26.258,-26.36
20297,-27.247,-25.398
20309,-27.046,-23.247
20320,-24.053,-24.988
20332,-24.16,-25.586
20344,-24.573,-28.091
20355,-23.778,-28.698
20367,-23.946,-25.607
20379,-24.321,-25.313
20391,-23.997,-25.553
20402,-24.192,-24.436
20414,-25.939,-25.856
20426,-27.667,-25.37
20438,-28.358,-26.106
20449,-26.318,-22.122
20461,-23.003,-22.346
20473,-26.187,-25.381
20484,-24.841,-26.971
20496,-27.301,-26.471
20508,-28.428,-24.694
20520,-26.488,-24.39
20531,-27.632,-23.393
20543,-27.001,-24.782
20555,-27.321,-26.778
20566,-24.551,-24.349
20578,-25.53,-26.901
20590,-28.05,-29.472
20602,-24.568,-26.578
20613,-23.124,-26.865
20625,-20.891,-27.304
20637,-22.573,-25.912
20648,-26.265,-25.702
20660,-25.838,-24.706
20672,-25.293,-24.513
20684,-26.086,-22.172
20695,-27.151,-25.774
20707,-26.138,-28.362
20719,-24.192,-27.502
20730,-25.528,-25.865
20742,-27.148,-26.217
20754,-25.45,-27.035
20766,-24.115,-24.116
20777,-26.291,-24.012
20789,-24.873,-25.098
20801,-25.567,-27.901
20813,-27.211,-27.752
20824,-25.861,-27.164
20836,-25.576,-25.778
20848,-25.581,-24.978
20859,-22.683,-23.669
20871,-22.989,-22.486
20883,-24.446,-24.84
20895,-26.435,-23.393
20906,-27.253,-24.687
20918,-27.003,-25.569
20930,-28.596,-25.643
20941,-27.313,-24.014
20953,-24.297,-25.598
20965,-25.339,-27.57
20977,-27.357,-28.134
20988,-27.973,-27.717
21000,-27.31,-26.434
21012,-28.989,-26.099
21023,-25.78,-25.541
21035,-25.959,-25.496
21047,-26.706,-25.523
21059,-25.469,-24.396
21070,-25.846,-24.216
21082,-24.743,-24.912
21094,-23.609,-27.476
21105,-25.381,-28.906
21117,-27.513,-28.903
21129,-28.103,-26.288
21141,-27.734,-25.629
21152,-29.897,-25.912
21164,-28.509,-26.383
21176,-25.339,-26.412
21188,-25.864,-27.544
21199,-27.053,-25.893
21211,-27.629,-24.145
21223,-27.867,-25.839
21234,-27.774,-26.732
21246,-28.242,-24.218
21258,-27.823,-25.236
21270,-27.22,-25.423
21281,-27.956,-26.237
21293,-26.838,-25.565
21305,-27.45,-26.317
21316,-27.319,-27.111
21328,-27.3,-25.767
21340,-28.198,-24.074
21352,-28.185,-27.672
21363,-28.615,-25.511
21375,-26.002,-25.067
21387,-28.723,-26.247
21398,-26.813,-27.42
21410,-25.448,-28.488
21422,-25.348,-27.142
21434,-29.157,-26.458
21445,-27.499,-27.991
21457,-25.785,-28.827
21469,-25.392,-26.864
21480,-28.372,-27.523
21492,-26.038,-23.222
21504,-27.171,-23.418
21516,-27.994,-27.777
21527,-23.32,-27.179
21539,-23.357,-28.074
21551,-28.542,-27.866
21563,-27.728,-25.768
21574,-27.232,-27.108
21586,-26.805,-24.426
21598,-26.71,-30.964
21609,-25.323,-22.645
21621,-27.936,-22.577
21633,-25.094,-25.552
21645,-21.863,-24.663
21656,-24.601,-24.415
21668,-30.228,-25.081
21680,-28.672,-25.393
21691,-28.944,-27.669
21703,-29.456,-25.486
21715,-26.68,-26.554
21727,-26.207,-28.178
21738,-27.275,-26.883
21750,-27.578,-28.747
21762,-25.291,-31.627
21773,-24.082,-30.658
21785,-25.625,-27.294
21797,-26.991,-27.416
21809,-26.578,-23.448
21820,-27.558,-23.891
21832,-27.775,-28.768
21844,-27.14,-31.718
21855,-24.601,-26.712
21867,-26.239,-26.103
21879,-27.709,-29.009
21891,-24.829,-25.43
21902,-26.453,-25.816
21914,-26.592,-26.878
21926,-26.467,-31.15
21938,-27.294,-28.53
21949,-26.776,-27.378
21961,-26.108,-28.013
21973,-26.296,-31.022
21984,-26.675,-29.927
21996,-26.418,-26.903
22008,-28.953,-28.933
22020,-29.413,-26.931
22031,-25.957,-26.117
22043,-24.743,-29.143
22055,-25.44,-30.126
22066,-27.892,-29.23
22078,-29.378,-28.092
22090,-29.185,-26.787
22102,-28.006,-25.84
22113,-26.199,-28.09
22125,-26.926,-27.717
22137,-28.896,-25.637
22148,-28.276,-26.73
22160,-30.595,-27.337
22172,-30.39,-29.381
22184,-28.796,-26.475
22195,-27.505,-22.938
22207,-30.354,-25.593
22219,-31.338,-27.411
22230,-30.981,-26.387
22242,-29.137,-27.294
22254,-27.031,-28.607
22266,-27.75,-29.406
22277,-30.048,-29.33
22289,-27.398,-24.628
22301,-23.115,-25.347
22313,-23.785,-28.331
22324,-26.147,-29.592
22336,-28.263,-31.043
22348,-26.867,-30.827
22359,-22.809,-25.38
22371,-25.024,-24.651
22383,-28.846,-27.079
22395,-26.663,-29.296
22406,-24.483,-27.242
22418,-27.624,-27.022
22430,-26.353,-27.483
22441,-25.196,-27.052
22453,-26.15,-28.251
22465,-26.973,-29.751
22477,-26.468,-29.212
22488,-27.086,-26.022
22500,-27.995,-25.728
22512,-27.251,-28.064
22523,-24.949,-27.021
22535,-26.152,-27.339
22547,-27.08,-29.638
22559,-25.833,-26.508
22570,-22.01,-25.762
22582,-22.883,-26.721
22594,-27.563,-26.192
22605,-29.896,-26.514
22617,-26.481,-27.391
22629,-27.279,-28.859
22641,-27.891,-28.041
22652,-30.81,-25.145
22664,-30.376,-29.832
22676,-29.305,-31.842
22688,-26.84,-29.856
22699,-25.07,-25.849
22711,-26.295,-27.93
22723,-26.228,-30.066
22734,-26.99,-27.685
22746,-28.202,-27.683
22758,-28.649,-26.078
22770,-28.281,-25.625
22781,-28.555,-26.477
22793,-27.205,-28.295
22805,-27.289,-28.764
22816,-30.357,-28.003
22828,-26.463,-28.349
22840,-28.132,-25.479
22852,-29.626,-25.94
22863,-28.071,-29.797
22875,-27.255,-30.51
22887,-28.348,-26.844
22898,-27.313,-27.637
22910,-24.002,-27.83
22922,-27.533,-25.172
22934,-29.351,-25.05
22945,-25.125,-27.959
22957,-26.841,-28.134
22969,-27.138,-27.387
22980,-28.44,-28.068
22992,-26.942,-28.705
23004,-27.224,-26.092
23016,-28.288,-30.505
23027,-30.841,-25.478
23039,-28.36,-25.522
23051,-26.487,-27.287
23063,-27.842,-26.553
23074,-31.362,-27.293
23086,-27.648,-27.57
23098,-27.877,-27.934
23109,-29.252,-28.491
23121,-30.651,-30.356
23133,-26.844,-30.873
23145,-28.418,-27.932
23156,-28.261,-26.062
23168,-27.651,-25.303
23180,-28.628,-25.173
23191,-27.482,-26.708
23203,-29.226,-27.462
23215,-30.561,-27.874
23227,-27.325,-28.266
23238,-26.28,-29.694
23250,-26.73,-28.719
23262,-26.412,-25.737
23273,-27.443,-28.362
23285,-25.21,-27.105
23297,-25.687,-28.466
23309,-28.36,-30.124
23320,-29.552,-30.607
23332,-32.542,-27.146
23344,-26.853,-26.234
23355,-28.647,-26.329
23367,-30.386,-28.271
23379,-28.758,-29.89
23391,-26.865,-26.979
23402,-27.612,-27.396
23414,-30.281,-30.727
23426,-26.729,-31.14
23438,-26.397,-28.36
23449,-26.467,-27.957
23461,-28.593,-29.339
23473,-31.14,-27.555
23484,-30.431,-28.842
23496,-29.064,-30.477
23508,-26.615,-31.205
23520,-27.17,-26.437
23531,-29.089,-27.771
23543,-28.871,-30.064
23555,-26.79,-26.009
23566,-26.424,-28.9
23578,-30.239,-33.268
23590,-31.141,-27.59
23602,-29.949,-26.171
23613,-29.195,-28.035
23625,-30.092,-29.163
23637,-31.07,-31.378
23648,-28.285,-30.199
23660,-24.889,-30.814
23672,-26.252,-27.796
23684,-26.485,-31.754
23695,-25.378,-31.464
23707,-27.951,-28.274
23719,-26.909,-26.767
23730,-23.9,-27.019
23742,-26.22,-28.194
23754,-27.338,-29.641
23766,-26.651,-28.292
23777,-28.201,-25.722
23789,-28.825,-29.081
23801,-31.448,-30.512
23813,-33.405,-29.035
23824,-30.293,-29.749
23836,-26.813,-28.173
23848,-24.971,-26.645
23859,-25.006,-28.715
23871,-26.442,-31.093
23883,-26.423,-30.526
23895,-26.517,-28.562
23906,-26.557,-29.009
23918,-25.765,-25.378
23930,-28.464,-25.438
23941,-28.956,-29.513
23953,-26.847,-28.871
23965,-18.488,-27.482
23977,-16.034,-27.698
23988,-24.493,-29.251
