FFT,Power Spectrum
Frequency[Hz],Level-L[dB],Level-R[dB]
11.719,-16.26,-19.468
23.438,3.0451,-0.31638
35.156,2.1688,-1.0867
46.875,4.5389,0.63685
58.594,1.1504,-0.34079
70.313,-0.78046,1.4972
82.031,9.7467,5.192
93.75,14.508,10.515
105.47,13.113,9.0531
117.19,11.175,8.0452
128.91,7.7928,6.155
140.63,10.245,7.5423
152.34,8.1161,5.0783
164.06,4.1829,5.1195
175.78,7.3947,3.2674
187.5,11.394,8.8634
199.22,11.321,9.6763
210.94,11.215,10.733
222.66,10.014,9.8742
234.38,9.6761,8.7761
246.09,9.508,6.0492
257.81,9.3925,3.3543
269.53,7.429,2.8896
281.25,8.9474,4.3287
292.97,11.332,7.0994
304.69,10.854,9.5993
316.41,7.663,10.758
328.13,5.1696,8.0867
339.84,7.2437,7.6938
351.56,4.7648,7.0845
363.28,4.5459,6.9022
375,6.0522,7.5998
386.72,5.4053,4.656
398.44,3.6812,4.5965
410.16,4.3694,5.2559
421.88,5.403,3.0157
433.59,7.3374,6.9612
445.31,5.5786,6.2767
457.03,3.4943,3.9478
468.75,4.794,7.724
480.47,5.9299,7.8089
492.19,3.8315,7.2814
503.91,1.6188,4.8932
515.63,7.5399,4.9761
527.34,8.4831,5.4372
539.06,8.2822,6.2037
550.78,8.3937,6.8416
562.5,6.647,5.5947
574.22,3.3829,8.4786
585.94,7.984,8.631
597.66,7.333,7.8766
609.38,7.1158,8.1642
621.09,6.9448,4.853
632.81,8.483,6.8403
644.53,9.5854,9.4835
656.25,10.144,8.2814
667.97,8.6795,6.6676
679.69,5.404,4.0821
691.41,7.0679,4.7256
703.13,9.6142,7.0356
714.84,3.9822,4.4322
726.56,5.5757,3.0578
738.28,4.0426,4.383
750,4.7026,7.0275
761.72,6.1606,6.3692
773.44,11.298,8.208
785.16,11.677,10.093
796.88,10.144,8.8966
808.59,12,8.2573
820.31,10.825,5.9249
832.03,9.9506,8.0412
843.75,10.877,11.152
855.47,9.8451,10.579
867.19,8.6999,6.9717
878.91,8.8463,6.3942
890.63,7.8323,8.3646
902.34,10.579,7.6893
914.06,11.409,7.35
925.78,9.2099,6.3029
937.5,6.8879,6.6276
949.22,7.444,1.3149
960.94,9.4184,7.189
972.66,7.5552,4.8811
984.38,3.551,3.7989
996.09,3.0544,5.6013
1007.8,6.338,2.4086
1019.5,6.7209,2.2206
1031.3,6.3825,3.971
1043,6.5356,5.2412
1054.7,5.1366,4.1017
1066.4,1.8263,3.4657
1078.1,3.7303,5.8966
1089.8,4.0461,7.9026
1101.6,3.4904,5.6325
1113.3,6.2574,4.1755
1125,5.7202,4.8333
1136.7,7.3645,4.9166
1148.4,7.5239,4.6477
1160.2,5.6915,5.7087
1171.9,8.4991,5.2405
1183.6,6.3291,4.9161
1195.3,3.0401,6.757
1207,6.695,5.8193
1218.8,5.1485,4.8706
1230.5,3.1817,6.435
1242.2,6.0024,3.6412
1253.9,5.4984,5.4724
1265.6,3.7828,3.6594
1277.3,2.2648,2.5218
1289.1,4.9296,1.1245
1300.8,3.036,3.8462
1312.5,6.5761,5.3762
1324.2,7.6042,6.4226
1335.9,8.0071,3.9041
1347.7,5.7227,4.5091
1359.4,3.8333,5.6561
1371.1,3.1627,4.0547
1382.8,5.7315,3.7146
1394.5,2.3017,5.3144
1406.3,3.6458,4.7001
1418,4.5523,5.3962
1429.7,3.9616,4.6253
1441.4,6.5443,0.89285
1453.1,4.6993,1.6038
1464.8,2.342,6.0743
1476.6,2.5658,5.3708
1488.3,6.1052,2.51
1500,3.7511,5.2418
1511.7,0.81679,4.933
1523.4,5.3803,2.1032
1535.2,5.8338,1.1919
1546.9,6.296,0.89459
1558.6,7.0771,3.9022
1570.3,6.8062,4.6335
1582,4.1719,2.6625
1593.8,3.7396,-0.06975
1605.5,4.7,4.4972
1617.2,2.5086,3.9668
1628.9,3.7287,1.459
1640.6,3.8595,4.7733
1652.3,4.6283,7.8601
1664.1,5.503,4.7521
1675.8,5.7484,5.3022
1687.5,2.8295,2.6465
1699.2,1.7086,0.44336
1710.9,3.7172,-1.0367
1722.7,6.1883,2.303
1734.4,5.2534,3.4814
1746.1,5.6776,4.0081
1757.8,3.7732,5.2386
1769.5,5.3889,5.0171
1781.3,5.9643,5.0919
1793,2.6314,4.1823
1804.7,1.8588,2.9107
1816.4,3.419,2.0224
1828.1,1.9195,2.0562
1839.8,3.4456,4.944
1851.6,7.5844,6.8808
1863.3,7.3898,6.5158
1875,3.745,3.1324
1886.7,6.2596,5.6225
1898.4,5.3056,0.80417
1910.2,4.9366,4.1724
1921.9,4.1955,4.8401
1933.6,4.345,3.911
1945.3,5.7242,5.3463
1957,5.4266,4.2225
1968.8,4.3701,-0.2866
1980.5,5.6861,-0.11185
1992.2,5.3667,-0.036836
2003.9,2.4296,2.8243
2015.6,3.4474,3.3883
2027.3,6.7361,4.0006
2039.1,8.2217,1.4731
2050.8,4.0661,0.96256
2062.5,3.1566,5.8117
2074.2,3.3074,4.3266
2085.9,4.2381,0.0078709
2097.7,3.7505,-0.84599
2109.4,4.4034,2.0736
2121.1,5.9021,4.3868
2132.8,4.194,4.5942
2144.5,2.3917,5.9505
2156.3,5.6888,5.0405
2168,10.03,7.129
2179.7,8.3707,6.5455
2191.4,2.671,2.0825
2203.1,3.5139,1.9226
2214.8,0.20571,1.9454
2226.6,0.27941,2.0319
2238.3,0.12896,4.1174
2250,2.0179,4.3421
2261.7,-0.30837,1.6511
2273.4,-2.6457,0.23712
2285.2,0.64389,0.48249
2296.9,-0.87818,0.83524
2308.6,2.2348,3.1088
2320.3,3.2585,3.1412
2332,2.1533,3.6888
2343.8,-0.50621,2.0053
2355.5,0.81652,2.0763
2367.2,0.1578,2.4703
2378.9,0.35114,1.9426
2390.6,-0.11638,1.0227
2402.3,1.0577,1.2581
2414.1,-1.3701,-0.42604
2425.8,0.089265,-1.6674
2437.5,-0.5915,3.4829
2449.2,2.9053,7.5588
2460.9,2.8512,4.1081
2472.7,3.3616,1.3285
2484.4,2.5929,0.29179
2496.1,1.6787,0.89617
2507.8,-0.69743,2.7535
2519.5,0.96826,2.9406
2531.3,1.0119,-0.92322
2543,-0.6925,-4.1038
2554.7,1.6527,-0.50758
2566.4,1.745,2.9253
2578.1,-0.51936,3.5859
2589.8,1.844,2.0382
2601.6,4.2612,-0.58363
2613.3,1.3766,0.60734
2625,0.62234,2.3068
2636.7,-2.3119,2.2267
2648.4,1.4203,3.717
2660.2,-0.52343,3.2302
2671.9,1.5075,0.65406
2683.6,-1.0526,-0.52029
2695.3,1.252,1.1742
2707,2.5298,2.055
2718.8,1.3351,2.8631
2730.5,0.20648,1.9325
2742.2,3.2737,0.63668
2753.9,3.2822,2.0192
2765.6,0.046024,4.2188
2777.3,-2.3806,4.1022
2789.1,-0.0091699,1.489
2800.8,4.3929,-0.20116
2812.5,2.9761,1.7189
2824.2,2.4241,0.78023
2835.9,5.5526,-1.5208
2847.7,4.8787,-2.5461
2859.4,-0.30835,2.5927
2871.1,-1.5674,2.582
2882.8,0.49032,1.2813
2894.5,1.5778,2.1082
2906.3,2.3372,-2.3488
2918,-0.20893,0.63983
2929.7,-1.3325,1.9746
2941.4,-2.2585,0.89217
2953.1,-2.742,-2.424
2964.8,-0.37153,-0.34178
2976.6,-0.021126,-0.27665
2988.3,-2.7518,-2.7897
3000,-2.2148,-2.5738
3011.7,-0.38074,-0.47109
3023.4,-0.6121,-1.6556
3035.2,-1.624,-1.4536
3046.9,2.6716,0.96491
3058.6,2.6087,0.41175
3070.3,2.0227,-0.93403
3082,-0.93071,-2.0022
3093.8,-2.7169,-0.58161
3105.5,-1.2547,1.9594
3117.2,-1.7808,5.0616
3128.9,-2.3774,4.7354
3140.6,-1.5317,0.91909
3152.3,-1.855,1.0987
3164.1,0.65724,1.0912
3175.8,0.45816,1.5349
3187.5,-2.3417,1.1964
3199.2,-0.6224,-0.22488
3210.9,1.4657,-1.4701
3222.7,1.3669,1.0786
3234.4,0.85515,1.941
3246.1,-0.052512,0.81365
3257.8,0.41561,-0.29228
3269.5,0.61603,-0.015636
3281.3,1.717,-0.98644
3293,2.6344,-0.1016
3304.7,-2.8573,-0.30519
3316.4,-1.3791,-0.60037
3328.1,0.37329,-1.1674
3339.8,0.39176,-0.80708
3351.6,1.0982,-1.9298
3363.3,0.50766,1.535
3375,1.2553,0.91335
3386.7,0.37472,-3.4477
3398.4,2.4389,0.82093
3410.2,0.93197,0.18309
3421.9,0.33376,-2.7764
3433.6,-0.72902,-2.6836
3445.3,-3.9746,-1.4692
3457,0.15707,-0.29331
3468.8,1.6732,-3.533
3480.5,0.23003,-3.6861
3492.2,-0.79175,-0.39759
3503.9,-1.033,0.29613
3515.6,-1.3624,-1.0299
3527.3,-1.9698,-1.6742
3539.1,-1.7309,-1.287
3550.8,-1.5734,-3.151
3562.5,-3.6878,-0.2808
3574.2,-2.2032,0.86452
3585.9,-1.8518,-1.8943
3597.7,-0.33403,-5.346
3609.4,-0.79184,-1.385
3621.1,-2.7814,-1.8332
3632.8,-4.422,-3.5439
3644.5,-3.1715,-1.1545
3656.3,-1.1441,0.2708
3668,-3.2119,-0.47749
3679.7,-1.1919,-0.48231
3691.4,0.16504,-0.64747
3703.1,-2.5776,2.5925
3714.8,-1.2778,-1.3922
3726.6,-0.47353,-1.0389
3738.3,1.0984,1.7209
3750,-0.2944,1.7349
3761.7,-4.0693,0.51715
3773.4,-2.0469,2.4988
3785.2,-0.076632,1.897
3796.9,-1.205,0.96996
3808.6,-2.6734,-0.72526
3820.3,0.96586,-1.826
3832,1.7658,-1.4164
3843.8,-1.6907,-1.6939
3855.5,-1.7222,-0.71791
3867.2,-3.1243,-1.6321
3878.9,-2.6551,-3.4377
3890.6,-2.4094,-3.6251
3902.3,-2.9282,-3.6271
3914.1,-3.8488,-4.9153
3925.8,-2.5404,-4.6128
3937.5,-1.4327,-1.7607
3949.2,-3.3329,-1.3013
3960.9,-1.661,-1.6531
3972.7,-2.0483,-0.12661
3984.4,-1.6335,-2.9875
3996.1,-0.30088,-4.4651
4007.8,-0.78541,-1.9408
4019.5,-2.483,-1.4925
4031.3,-2.8964,0.3992
4043,-1.4717,0.23587
4054.7,-0.95992,-1.7621
4066.4,-2.3497,-1.6299
4078.1,-3.1769,-0.59264
4089.8,-1.5882,-1.4879
4101.6,-2.2435,-3.4775
4113.3,-0.14396,-3.8004
4125,-2.3849,-1.024
4136.7,-4.0601,-1.4701
4148.4,-5.8116,0.17704
4160.2,-3.0162,-0.66351
4171.9,0.067506,-2.4649
4183.6,1.1476,-2.913
4195.3,-3.0867,-2.7723
4207,-4.9339,-0.69353
4218.8,-3.5475,-0.48888
4230.5,-4.8453,-2.8094
4242.2,-2.6825,-0.31037
4253.9,-1.0124,-1.2111
4265.6,-1.7082,-2.837
4277.3,-3.8297,-3.657
4289.1,-4.4228,-3.4241
4300.8,-5.1778,-1.3778
4312.5,-5.3839,-1.1933
4324.2,-0.29743,-2.4479
4335.9,-1.0937,-2.775
4347.7,-3.7185,-4.724
4359.4,-3.0335,-5.6195
4371.1,-3.424,-3.5659
4382.8,-4.4022,-1.7727
4394.5,-3.8256,-1.2551
4406.3,-2.6048,-1.0173
4418,-3.4269,-4.5157
4429.7,-2.0446,-3.0715
4441.4,-1.5111,-3.8954
4453.1,-5.8993,-4.7564
4464.8,-4.4312,-2.6415
4476.6,-4.8581,-4.2696
4488.3,-4.7311,-6.0551
4500,-4.291,-6.1159
4511.7,-3.625,-4.0066
4523.4,-4.0954,-3.4389
4535.2,-4.9615,-4.0283
4546.9,-3.9004,-4.5924
4558.6,-5.2154,-4.3126
4570.3,-3.5685,-4.4866
4582,-5.1647,-3.4452
4593.8,-4.3298,-3.6032
4605.5,-4.2755,-5.0268
4617.2,-3.0554,-5.6418
4628.9,-5.8033,-5.6503
4640.6,-3.8367,-5.0387
4652.3,-2.6205,-3.4248
4664.1,-0.84394,-4.7709
4675.8,-3.9797,-4.2067
4687.5,-3.7127,-3.047
4699.2,-0.75084,-2.3708
4710.9,-1.45,-1.8344
4722.7,-4.9536,-1.4071
4734.4,-1.0267,-1.0524
4746.1,-1.7294,-3.1732
4757.8,-3.4105,-3.9758
4769.5,-2.4452,-5.1988
4781.3,-3.8312,-4.5014
4793,-2.0047,-2.9205
4804.7,-5.639,-3.0407
4816.4,-5.7086,-2.6477
4828.1,-2.7755,-4.8173
4839.8,-2.4133,-5.6873
4851.6,-1.5888,-3.5432
4863.3,-0.055077,-2.8733
4875,-0.80182,-2.3503
4886.7,-2.3914,-3.1985
4898.4,-4.594,-2.1486
4910.2,-3.349,-3.2574
4921.9,-2.5863,-1.8073
4933.6,-2.9998,-3.0283
4945.3,-2.1575,-6.5729
4957,-2.454,-4.5358
4968.8,-2.9857,-2.032
4980.5,-4.4658,-2.3371
4992.2,-3.5043,-2.8264
5003.9,-4.8261,-3.5028
5015.6,-3.7029,-5.6785
5027.3,-2.8249,-5.4685
5039.1,-2.9898,-3.8174
5050.8,-3.076,-2.5752
5062.5,-2.8581,-1.6548
5074.2,-1.7121,-1.8651
5085.9,-4.3356,-2.0035
5097.7,-7.1879,-6.1305
5109.4,-3.2082,-5.7732
5121.1,-3.2786,-1.3478
5132.8,-2.6911,-2.2409
5144.5,-3.0592,-4.9356
5156.3,-5.5825,-2.3291
5168,-6.5838,-2.3548
5179.7,-6.0651,-6.4342
5191.4,-5.4108,-5.0982
5203.1,-3.2062,-6.032
5214.8,-3.1024,-6.5398
5226.6,-5.3701,-4.5268
5238.3,-9.2546,-7.428
5250,-6.7467,-4.3822
5261.7,-7.5326,-1.7084
5273.4,-8.0078,-6.4204
5285.2,-7.6335,-5.2623
5296.9,-6.0362,-6.2797
5308.6,-6.5696,-4.8212
5320.3,-7.4215,-3.4807
5332,-2.8082,-6.1251
5343.8,-2.6099,-6.3186
5355.5,-4.0161,-6.3959
5367.2,-3.7759,-2.7188
5378.9,-3.819,-1.7441
5390.6,-5.519,-2.5906
5402.3,-4.4285,-2.1026
5414.1,-6.3538,-2.8992
5425.8,-5.2648,-4.5531
5437.5,-2.8701,-5.0764
5449.2,-3.8354,-4.4496
5460.9,-5.1361,-7.0487
5472.7,-4.0809,-9.4738
5484.4,-5.4458,-9.0011
5496.1,-5.897,-5.4697
5507.8,-3.1873,-3.6833
5519.5,-3.6268,-5.6357
5531.3,-5.0568,-4.8819
5543,-5.6909,-1.1052
5554.7,-4.8349,-3.5952
5566.4,-5.2734,-4.1961
5578.1,-6.0246,-3.9991
5589.8,-6.6764,-5.1918
5601.6,-6.425,-3.9286
5613.3,-4.9151,-3.9285
5625,-3.9725,-6.378
5636.7,-2.9296,-7.5645
5648.4,-4.1096,-8.0723
5660.2,-3.6843,-7.6055
5671.9,-2.2299,-6.2393
5683.6,-4.6438,-2.8082
5695.3,-7.0724,-5.0465
5707,-7.7189,-3.9747
5718.8,-7.3955,-6.4208
5730.5,-5.4916,-7.0943
5742.2,-3.629,-3.6298
5753.9,-3.444,-0.73676
5765.6,-3.6378,-3.4339
5777.3,-5.7766,-5.6762
5789.1,-5.7325,-4.8202
5800.8,-3.4172,-5.0943
5812.5,-4.385,-3.8402
5824.2,-1.2245,-6.5073
5835.9,-2.8856,-7.7736
5847.7,-5.8462,-6.1505
5859.4,-3.5299,-9.7549
5871.1,-3.0575,-6.4693
5882.8,-6.4977,-4.3465
5894.5,-6.3305,-4.6682
5906.3,-5.0213,-4.2908
5918,-5.9673,-10.898
5929.7,-7.3657,-5.481
5941.4,-7.9297,-4.3546
5953.1,-8.1142,-5.9036
5964.8,-5.5175,-4.0222
5976.6,-3.5532,-5.9748
5988.3,-4.1468,-6.2458
6000,-5.5696,-4.8569
6011.7,-3.66,-5.6601
6023.4,-2.6876,-7.9454
6035.2,-4.5483,-4.8732
6046.9,-6.3304,-4.8461
6058.6,-4.1286,-6.2348
6070.3,-5.3401,-6.2405
6082,-7.1867,-6.9341
6093.8,-7.9539,-7.2476
6105.5,-8.8768,-6.2486
6117.2,-8.156,-6.1945
6128.9,-6.5113,-5.9789
6140.6,-4.769,-6.6846
6152.3,-5.4459,-6.7976
6164.1,-6.0807,-5.9356
6175.8,-7.0256,-8.2586
6187.5,-8.4365,-6.2671
6199.2,-10.013,-4.1153
6210.9,-7.453,-5.0913
6222.7,-7.2294,-5.3683
6234.4,-6.1143,-4.666
6246.1,-8.9204,-3.106
6257.8,-8.9185,-4.0277
6269.5,-8.8083,-5.9142
6281.3,-7.7622,-6.1181
6293,-9.2054,-6.8414
6304.7,-5.9661,-6.3611
6316.4,-5.0545,-8.867
6328.1,-5.417,-5.0034
6339.8,-6.8648,-4.537
6351.6,-6.8637,-6.0688
6363.3,-6.6493,-7.3232
6375,-8.9778,-6.2931
6386.7,-8.2308,-6.2836
6398.4,-6.4375,-3.4536
6410.2,-5.9888,-3.8062
6421.9,-5.9283,-6.0782
6433.6,-5.8884,-3.813
6445.3,-5.9273,-5.5156
6457,-7.181,-8.8751
6468.8,-7.3489,-7.1516
6480.5,-6.1155,-6.5876
6492.2,-6.2881,-5.6436
6503.9,-6.4732,-6.4982
6515.6,-8.926,-6.6838
6527.3,-9.2168,-5.3811
6539.1,-6.0949,-6.413
6550.8,-6.3864,-7.3121
6562.5,-7.4872,-9.7344
6574.2,-7.0789,-7.9032
6585.9,-7.6702,-6.4335
6597.7,-6.8639,-6.5934
6609.4,-4.8888,-6.9293
6621.1,-4.655,-7.5136
6632.8,-6.5015,-8.5148
6644.5,-5.4604,-7.1621
6656.3,-7.2108,-6.5164
6668,-8.7604,-5.6415
6679.7,-8.3653,-6.0072
6691.4,-4.7795,-8.7235
6703.1,-5.8705,-7.643
6714.8,-5.5753,-6.1859
6726.6,-7.1975,-4.6871
6738.3,-8.61,-4.7706
6750,-6.4593,-5.7248
6761.7,-4.7141,-8.9839
6773.4,-4.8983,-9.162
6785.2,-7.0934,-10.025
6796.9,-8.3947,-10.11
6808.6,-8.4903,-6.7045
6820.3,-9.6358,-6.5264
6832,-9.2137,-7.3267
6843.8,-8.6202,-8.7815
6855.5,-6.8969,-9.1152
6867.2,-5.105,-7.2589
6878.9,-4.3664,-5.6091
6890.6,-5.7528,-7.0722
6902.3,-6.8284,-6.0222
6914.1,-5.0062,-4.4547
6925.8,-4.5368,-6.1923
6937.5,-6.0743,-6.6198
6949.2,-7.7638,-6.5684
6960.9,-7.4926,-5.4378
6972.7,-5.8474,-6.3061
6984.4,-6.1739,-7.6106
6996.1,-6.4204,-8.2337
7007.8,-8.5656,-9.2282
7019.5,-9.5887,-9.6789
7031.3,-8.1111,-8.6182
7043,-12.232,-6.6863
7054.7,-10.921,-8.1815
7066.4,-10.15,-8.8156
7078.1,-9.8783,-6.0785
7089.8,-9.0681,-5.7052
7101.6,-7.9427,-6.9359
7113.3,-7.0208,-8.8022
7125,-6.6332,-7.5603
7136.7,-6.6101,-5.9485
7148.4,-8.359,-6.4591
7160.2,-9.2391,-6.6146
7171.9,-7.9776,-4.8568
7183.6,-7.1586,-6.8363
7195.3,-4.5961,-8.9721
7207,-5.5509,-10.116
7218.8,-9.0296,-8.893
7230.5,-11.308,-7.6964
7242.2,-4.5345,-8.7111
7253.9,-4.2679,-8.1998
7265.6,-9.1474,-9.0942
7277.3,-7.6052,-6.9175
7289.1,-4.8192,-6.9905
7300.8,-3.3627,-10.626
7312.5,-8.1841,-9.3713
7324.2,-6.743,-11.021
7335.9,-5.35,-11.371
7347.7,-5.4662,-8.6581
7359.4,-4.0179,-7.8721
7371.1,-4.7053,-8.8289
7382.8,-7.664,-9.3195
7394.5,-7.3823,-8.7926
7406.3,-5.937,-6.2592
7418,-3.0081,-6.4601
7429.7,-3.0086,-7.4513
7441.4,-7.3932,-7.9796
7453.1,-3.8291,-7.1995
7464.8,2.2301,-5.8384
7476.6,3.0063,-5.7115
7488.3,5.2265,-10.12
7500,14.636,-1.1236
7511.7,37.274,21.382
7523.4,43.637,27.706
7535.2,38.68,22.758
7546.9,15.478,1.1965
7558.6,5.9512,-3.6745
7570.3,3.0891,-9.3146
7582,1.4874,-10.517
7593.8,-3.4329,-11.145
7605.5,-6.553,-10.172
7617.2,-7.699,-8.1834
7628.9,-8.434,-8.4232
7640.6,-11.681,-6.7781
7652.3,-8.5968,-11.057
7664.1,-7.688,-8.2228
7675.8,-7.4212,-9.0614
7687.5,-8.6997,-10.091
7699.2,-10.656,-8.5229
7710.9,-8.1366,-6.1493
7722.7,-6.8855,-6.8999
7734.4,-7.3066,-12.185
7746.1,-8.8229,-10.407
7757.8,-7.8576,-7.5748
7769.5,-7.6189,-4.7312
7781.3,-8.8761,-3.4263
7793,-7.3177,-7.1388
7804.7,-7.7934,-11.812
7816.4,-8.2475,-7.8596
7828.1,-4.3393,-5.9882
7839.8,-5.3611,-8.1395
7851.6,-9.9129,-9.4025
7863.3,-9.2912,-7.5095
7875,-9.2184,-12.23
7886.7,-9.7438,-8.3999
7898.4,-9.7889,-7.1297
7910.2,-9.6014,-5.8507
7921.9,-8.6433,-6.0437
7933.6,-7.998,-9.2901
7945.3,-8.1564,-10.918
7957,-10.303,-10.349
7968.8,-8.7317,-8.5271
7980.5,-10.738,-9.421
7992.2,-10.003,-9.4879
8003.9,-8.1762,-11.256
8015.6,-7.0296,-10.421
8027.3,-7.6679,-8.9089
8039.1,-7.5782,-8.1244
8050.8,-10.612,-9.0603
8062.5,-11.577,-8.9366
8074.2,-8.2678,-8.5814
8085.9,-8.7987,-7.4468
8097.7,-8.8226,-7.1934
8109.4,-8.3401,-9.9301
8121.1,-10.181,-10.336
8132.8,-10.52,-7.1481
8144.5,-10.645,-8.7422
8156.3,-11.177,-9.1141
8168,-10.87,-9.5664
8179.7,-11.098,-10.848
8191.4,-13.204,-10.824
8203.1,-12.611,-10.122
8214.8,-9.031,-8.9837
8226.6,-8.58,-7.5388
8238.3,-7.8667,-8.1291
8250,-9.1638,-10.23
8261.7,-9.9409,-12.67
8273.4,-10.258,-9.933
8285.2,-11.453,-10.042
8296.9,-9.8607,-9.4951
8308.6,-14.214,-6.9917
8320.3,-10.943,-7.0452
8332,-6.3907,-12.695
8343.8,-7.6088,-14.103
8355.5,-8.5896,-13.033
8367.2,-10.062,-12.737
8378.9,-11.686,-9.9901
8390.6,-9.0057,-10.113
8402.3,-9.2196,-10.203
8414.1,-6.9804,-8.1538
8425.8,-6.454,-11.495
8437.5,-10.652,-8.9886
8449.2,-7.2316,-4.4172
8460.9,-6.9289,-4.2818
8472.7,-8.3182,-9.2531
8484.4,-8.3394,-12.035
8496.1,-8.1798,-8.6628
8507.8,-8.886,-9.6639
8519.5,-9.3218,-8.264
8531.3,-11.123,-9.2541
8543,-8.8276,-9.5276
8554.7,-9.3962,-7.4267
8566.4,-9.8307,-7.6944
8578.1,-8.9955,-11.461
8589.8,-10.869,-12.259
8601.6,-9.6289,-11.241
8613.3,-10.47,-10.964
8625,-11.36,-10.16
8636.7,-10.791,-10.795
8648.4,-12.86,-11.609
8660.2,-11.417,-12.045
8671.9,-9.6215,-13.154
8683.6,-8.3695,-12.083
8695.3,-12.608,-9.4281
8707,-12.2,-9.4739
8718.8,-13.057,-8.4159
8730.5,-10.243,-13.51
8742.2,-8.9935,-9.1676
8753.9,-10.485,-10.052
8765.6,-11.591,-11.129
8777.3,-10.802,-12.433
8789.1,-8.2216,-11.913
8800.8,-9.3262,-10.584
8812.5,-9.4412,-10.381
8824.2,-10.527,-7.4961
8835.9,-11.11,-7.6521
8847.7,-12.695,-10.753
8859.4,-12.84,-12.155
8871.1,-12.395,-11.834
8882.8,-12.516,-9.4386
8894.5,-10.419,-9.8445
8906.3,-8.4937,-12.24
8918,-9.6749,-10.445
8929.7,-9.9664,-12.658
8941.4,-8.8403,-13.604
8953.1,-10.961,-10.704
8964.8,-9.1244,-11.138
8976.6,-9.6303,-13.061
8988.3,-11.141,-10.396
9000,-10.765,-10.479
9011.7,-11.051,-14.056
9023.4,-10.177,-9.7002
9035.2,-10.359,-8.8299
9046.9,-9.2046,-11.623
9058.6,-9.867,-12.999
9070.3,-10.209,-12.344
9082,-10.397,-11.868
9093.8,-12.614,-10.201
9105.5,-11.142,-10.325
9117.2,-13.446,-12.314
9128.9,-14.272,-12.109
9140.6,-12.95,-11.623
9152.3,-9.163,-11.054
9164.1,-10.088,-11.473
9175.8,-13.262,-10.142
9187.5,-12.993,-9.2392
9199.2,-10.76,-11.488
9210.9,-8.2758,-9.1475
9222.7,-8.7153,-10.374
9234.4,-11.712,-11.165
9246.1,-14.465,-11.972
9257.8,-14.393,-9.0914
9269.5,-14.316,-7.89
9281.3,-14.424,-8.6365
9293,-11.962,-10.577
9304.7,-9.7378,-11.569
9316.4,-7.7855,-12.338
9328.1,-6.9344,-10.639
9339.8,-10.542,-8.9036
9351.6,-8.6416,-10.136
9363.3,-9.0065,-13.766
9375,-11.049,-8.9712
9386.7,-10.39,-9.2812
9398.4,-10.084,-12.86
9410.2,-10.307,-13.822
9421.9,-8.7878,-12.768
9433.6,-7.7279,-11.992
9445.3,-8.1196,-10.581
9457,-9.5652,-14.905
9468.8,-9.649,-11.309
9480.5,-9.3444,-15.569
9492.2,-10.211,-13.928
9503.9,-11.814,-12.075
9515.6,-11.71,-11.988
9527.3,-11.934,-9.9502
9539.1,-9.9292,-9.8987
9550.8,-14.645,-12.88
9562.5,-11.395,-16.305
9574.2,-14.278,-12.844
9585.9,-13.165,-9.3863
9597.7,-12.457,-11.097
9609.4,-13.536,-10.201
9621.1,-13.094,-10.9
9632.8,-12.183,-9.8168
9644.5,-11.495,-9.108
9656.3,-10.202,-9.4324
9668,-10.034,-12.046
9679.7,-11.8,-15.902
9691.4,-11.707,-14.351
9703.1,-8.7814,-12.199
9714.8,-10.391,-10.279
9726.6,-9.5031,-10.017
9738.3,-8.7007,-9.0766
9750,-8.8718,-11.153
9761.7,-9.8166,-12.102
9773.4,-10.282,-10.278
9785.2,-12.186,-10.73
9796.9,-10.869,-10.826
9808.6,-12.506,-11.465
9820.3,-11.29,-10.125
9832,-11.909,-8.8743
9843.8,-12.896,-12.256
9855.5,-11.171,-13.185
9867.2,-12.328,-12.548
9878.9,-12.507,-11.872
9890.6,-11.313,-9.3565
9902.3,-9.4549,-12.63
9914.1,-10.802,-12.845
9925.8,-10.963,-11.334
9937.5,-8.4549,-11.139
9949.2,-7.8936,-12.664
9960.9,-9.381,-10.65
9972.7,-11.9,-12.247
9984.4,-12.765,-12.826
9996.1,-14.673,-11.013
10008,-13.6,-11.236
10020,-13.904,-10.798
10031,-10.969,-10.072
10043,-10.883,-10.966
10055,-9.0233,-11.999
10066,-9.7832,-12.649
10078,-14.186,-14.249
10090,-13.755,-17.149
10102,-16.075,-11.849
10113,-14.171,-11.738
10125,-11.097,-12.58
10137,-10.999,-10.108
10148,-12.925,-13.4
10160,-13.745,-14.675
10172,-12.044,-11.799
10184,-10.914,-14.196
10195,-14.311,-14.335
10207,-12.864,-11.225
10219,-10.247,-12.911
10230,-11.032,-13.747
10242,-13.443,-15.042
10254,-11.194,-13.669
10266,-11.032,-11.704
10277,-10.825,-10.905
10289,-9.48,-11.508
10301,-10.002,-9.6632
10313,-11.02,-11.17
10324,-11.363,-12.95
10336,-13.121,-14.866
10348,-12.447,-11.264
10359,-11.9,-10.826
10371,-11.145,-9.6945
10383,-10.251,-12.873
10395,-10.532,-14.246
10406,-10.056,-10.589
10418,-13.017,-11.824
10430,-14.684,-13.157
10441,-14.47,-13.313
10453,-12.443,-13.356
10465,-12.855,-12.132
10477,-11.957,-12.347
10488,-10.923,-13.995
10500,-9.3354,-12.954
10512,-8.2149,-14.817
10523,-11.074,-15.264
10535,-16.086,-13.006
10547,-14.929,-13.88
10559,-13.392,-14.103
10570,-11.62,-13
10582,-13.255,-11.671
10594,-13.189,-12.672
10605,-11.771,-13.211
10617,-12.838,-11.313
10629,-13.169,-11.576
10641,-12.786,-10.993
10652,-12.287,-11.419
10664,-12.584,-13.532
10676,-11.264,-13.005
10688,-13.602,-12.664
10699,-14.595,-12.491
10711,-12.196,-11.715
10723,-12.501,-11.602
10734,-13.041,-13.733
10746,-15.52,-12.709
10758,-15.762,-13.165
10770,-11.449,-13.549
10781,-11.436,-13.955
10793,-11.268,-13.889
10805,-11.39,-15.142
10816,-11.071,-14.937
10828,-10.748,-13.108
10840,-11.748,-14.296
10852,-11.191,-14.078
10863,-11.848,-13.03
10875,-10.716,-11.254
10887,-13.47,-12.064
10898,-15.775,-17.255
10910,-13.285,-17.846
10922,-12.316,-12.628
10934,-12.587,-12.709
10945,-14.379,-14.569
10957,-11.278,-15.552
10969,-8.2161,-12.228
10980,-8.3003,-10.903
10992,-11.102,-12.088
11004,-9.5418,-13.628
11016,-9.39,-14.785
11027,-10.758,-12.774
11039,-9.9546,-15.397
11051,-10.268,-19.959
11063,-8.6318,-16.667
11074,-8.7937,-13.969
11086,-11.234,-13.398
11098,-13.465,-14.994
11109,-13.35,-14.365
11121,-13.987,-16.04
11133,-11.831,-17.414
11145,-11.462,-12.835
11156,-11.463,-11.579
11168,-14.75,-11.949
11180,-14.503,-17.37
11191,-12.488,-11.012
11203,-12.199,-10.388
11215,-10.167,-10.954
11227,-11.027,-10.969
11238,-12.683,-11.667
11250,-11.85,-13.119
11262,-13.269,-14.428
11273,-11.745,-14.441
11285,-9.2995,-12.331
11297,-9.7885,-12.539
11309,-9.0948,-12.385
11320,-9.7695,-13.896
11332,-13.045,-17.404
11344,-12.918,-13.573
11355,-11.895,-12.267
11367,-13.935,-9.647
11379,-14.683,-12.686
11391,-12.948,-13.801
11402,-12.609,-11.478
11414,-16.93,-13.05
11426,-13.855,-14.382
11438,-11.543,-12.387
11449,-12.07,-12.591
11461,-12.185,-14.832
11473,-9.8516,-14.755
11484,-9.25,-12.185
11496,-12.757,-11.333
11508,-12.001,-11.761
11520,-13.037,-12.95
11531,-12.772,-12.505
11543,-12.123,-13.18
11555,-13.497,-12.521
11566,-14.755,-13.54
11578,-14.318,-13.841
11590,-11.714,-15.342
11602,-9.9044,-15.312
11613,-10.833,-14.897
11625,-12.395,-16.831
11637,-13.739,-12.666
11648,-11.959,-13.167
11660,-13.604,-18.613
11672,-11.751,-16.719
11684,-10.937,-15.911
11695,-13.52,-18.479
11707,-15.963,-17.111
11719,-13.215,-16.507
11730,-11.019,-17.216
11742,-11.685,-13.124
11754,-13.09,-13.324
11766,-11.576,-14.437
11777,-11.847,-12.996
11789,-11.614,-14.268
11801,-10.476,-16.293
11813,-13.291,-17.432
11824,-14.212,-16.92
11836,-15.178,-16.79
11848,-12.438,-15.079
11859,-11.541,-12.449
11871,-9.9736,-12.829
11883,-11.98,-12.658
11895,-17.412,-13.99
11906,-15.91,-17.638
11918,-13.452,-14.373
11930,-11.702,-14.005
11941,-11.031,-16.143
11953,-9.7912,-15.542
11965,-10.265,-17.522
11977,-13.432,-19.783
11988,-11.044,-16.493
12000,-13.64,-12.434
12012,-14.644,-13.451
12023,-14.861,-15.725
12035,-14.69,-16.557
12047,-14.363,-19.313
12059,-11.475,-14.756
12070,-12.184,-14.133
12082,-8.7199,-16.533
12094,-8.5715,-16.389
12105,-10.446,-14.276
12117,-12.895,-14.113
12129,-14.414,-14.922
12141,-14.128,-13.355
12152,-12.445,-12.695
12164,-13.22,-13.29
12176,-15.161,-13.44
12188,-13.476,-14.345
12199,-13.11,-16.19
12211,-13.465,-13.235
12223,-11.419,-14.041
12234,-11.553,-16.034
12246,-13.414,-16.276
12258,-10.553,-14.747
12270,-12.702,-13.781
12281,-14.141,-14.009
12293,-11.392,-13.708
12305,-10.568,-12.627
12316,-9.4194,-15.945
12328,-11.085,-21.169
12340,-14.626,-19.632
12352,-14.148,-17.064
12363,-13.446,-18.144
12375,-11.771,-17.682
12387,-11.652,-19.46
12398,-13.207,-15.776
12410,-13.422,-15.381
12422,-14.461,-16.192
12434,-13.451,-14.897
12445,-13.005,-12.655
12457,-15.306,-16.016
12469,-13.735,-14.102
12480,-14.047,-14.068
12492,-16.242,-15.517
12504,-11.563,-13.393
12516,-11.4,-11.579
12527,-13.247,-19.366
12539,-16.306,-16.142
12551,-14.719,-18.538
12563,-14.669,-20.033
12574,-16.127,-15.455
12586,-13.586,-14.585
12598,-13.427,-15.582
12609,-16.703,-15.565
12621,-14.33,-15.624
12633,-14.008,-17.756
12645,-13.322,-18.419
12656,-11.597,-16.092
12668,-12.774,-15.269
12680,-12.674,-14.508
12691,-12.462,-14.557
12703,-11.047,-15.102
12715,-11.179,-16.008
12727,-13.906,-11.687
12738,-15.026,-13.183
12750,-14.414,-17.503
12762,-14.609,-19.828
12773,-15.639,-16.98
12785,-16.846,-14.94
12797,-16.335,-15.284
12809,-13.099,-14.171
12820,-13.091,-14.654
12832,-15.062,-16.42
12844,-13.736,-15.752
12855,-18.337,-15.042
12867,-14.807,-17.165
12879,-15.861,-16.787
12891,-14.676,-16.704
12902,-13.148,-14.907
12914,-12.717,-15.911
12926,-10.15,-14.601
12938,-9.2079,-14.697
12949,-12.947,-12.717
12961,-16.417,-12.531
12973,-17.307,-16.43
12984,-15.431,-15.768
12996,-14.843,-16.456
13008,-16.026,-16.68
13020,-14.928,-13.983
13031,-13.542,-14.83
13043,-11.95,-14.63
13055,-10.498,-12.68
13066,-9.7772,-14.273
13078,-12.818,-15.79
13090,-16.383,-14.691
13102,-18.571,-15.303
13113,-12.485,-17.539
13125,-11.134,-18.191
13137,-14.957,-19.39
13148,-13.12,-17.432
13160,-12.578,-15.406
13172,-14.533,-17.564
13184,-14.865,-18.59
13195,-12.646,-15.659
13207,-14.225,-16.043
13219,-14.278,-15.801
13230,-12.594,-15.762
13242,-12.808,-16.112
13254,-11.095,-16.269
13266,-11.784,-16.732
13277,-15.67,-18.562
13289,-18.083,-17.257
13301,-15.591,-15.047
13313,-12.905,-14.136
13324,-12.948,-15.391
13336,-15.562,-16.82
13348,-15.242,-17.301
13359,-14.964,-13.416
13371,-18.853,-11.848
13383,-17.567,-14.634
13395,-14.095,-16.81
13406,-13.98,-16.24
13418,-16.591,-14.633
13430,-13.46,-14.71
13441,-13.117,-19.087
13453,-14.229,-19.813
13465,-16.208,-17.201
13477,-14.676,-17.319
13488,-16.42,-16.693
13500,-14.973,-18.334
13512,-13.256,-14.914
13523,-15.574,-15.918
13535,-12.269,-18.114
13547,-11.385,-14.472
13559,-13.041,-14.446
13570,-13.663,-17.629
13582,-13.908,-15.414
13594,-15.687,-14.109
13605,-15.097,-13.878
13617,-16.123,-16.853
13629,-15.305,-17.698
13641,-14.043,-16.786
13652,-13.363,-14.477
13664,-13.829,-14.888
13676,-14.081,-18.392
13688,-13.955,-22.062
13699,-15.481,-16.952
13711,-17.056,-15.85
13723,-14.873,-17.318
13734,-16.201,-16.6
13746,-15.49,-15.555
13758,-16.197,-16.076
13770,-15.115,-15.749
13781,-14.825,-20.55
13793,-17.131,-15.94
13805,-14.552,-15.784
13816,-11.484,-15.615
13828,-11.154,-15.286
13840,-14.466,-14.847
13852,-16.213,-13.493
13863,-15.712,-16.171
13875,-14.01,-19.559
13887,-15.914,-15.248
13898,-16.157,-15.003
13910,-17.122,-16.342
13922,-17.062,-15.126
13934,-14.696,-14.383
13945,-14.004,-17.469
13957,-13.834,-18.718
13969,-13.485,-14.72
13980,-14.549,-14.762
13992,-16.725,-16.399
14004,-16.615,-19.22
14016,-17.431,-20.113
14027,-18.299,-17.071
14039,-19.573,-16.132
14051,-17.283,-19.829
14063,-16.052,-20.461
14074,-16.879,-17.982
14086,-16.289,-18.781
14098,-15.332,-20.836
14109,-14.1,-19.221
14121,-17.561,-18.134
14133,-17.288,-17.923
14145,-16.954,-18.398
14156,-17.019,-17.97
14168,-17.852,-18.262
14180,-17.784,-20.507
14191,-17.008,-19.557
14203,-16.65,-20.708
14215,-16.302,-21.872
14227,-17.395,-17.424
14238,-17.57,-17.4
14250,-14.344,-16.744
14262,-13.708,-15.247
14273,-16.948,-14.638
14285,-17.861,-15.744
14297,-17.035,-16.03
14309,-16.086,-16.141
14320,-15.295,-17.422
14332,-14.583,-16.296
14344,-16.012,-15.876
14355,-19.053,-17.016
14367,-16.058,-17.8
14379,-11.708,-17.471
14391,-14.304,-16.536
14402,-14.436,-16.417
14414,-15.859,-16.637
14426,-19.223,-18.104
14438,-15.283,-16.667
14449,-16.137,-13.593
14461,-14.714,-14.614
14473,-15.393,-16.612
14484,-16.782,-17.569
14496,-17.351,-15.562
14508,-20.004,-15.716
14520,-19.069,-15.382
14531,-18.711,-15.69
14543,-15.432,-16.77
14555,-15.44,-17.768
14566,-12.494,-18.091
14578,-14.235,-15.79
14590,-16.337,-18.487
14602,-19.27,-18.1
14613,-18.251,-17.817
14625,-16.382,-17.154
14637,-13.503,-14.636
14648,-15.863,-13.558
14660,-16.297,-14.707
14672,-14.466,-16.551
14684,-17.755,-14.982
14695,-17.987,-18.6
14707,-17.136,-18.788
14719,-17.455,-17.653
14730,-17.617,-17.506
14742,-15.899,-16.005
14754,-15.255,-17.246
14766,-17.58,-17.29
14777,-16.409,-17.525
14789,-16.382,-18.56
14801,-20.137,-16.98
14813,-18.539,-17.422
14824,-17.297,-17.632
14836,-17.722,-15.86
14848,-19.786,-17.166
14859,-18.152,-19.131
14871,-18.974,-20.328
14883,-18.819,-20.035
14895,-16.482,-14.862
14906,-18.08,-13.096
14918,-19.646,-15.237
14930,-17.189,-18.821
14941,-20.152,-18.432
14953,-17.693,-16.443
14965,-16.695,-14.066
14977,-18.567,-13.181
14988,-17.262,-16.921
15000,-17.775,-20.157
15012,-18.487,-18.326
15023,-18.512,-18.111
15035,-12.673,-18.795
15047,-8.9623,-19.619
15059,-12.97,-18.425
15070,-17.799,-18.132
15082,-17.827,-20.138
15094,-19.269,-19.217
15105,-22.45,-17.368
15117,-18.094,-18.182
15129,-16.757,-20.246
15141,-18.122,-19.985
15152,-19.33,-17.914
15164,-21.117,-19.321
15176,-23.271,-19.259
15188,-19.37,-14.894
15199,-19.134,-16.913
15211,-20.593,-20.017
15223,-17.759,-22.234
15234,-18.077,-19.241
15246,-20.418,-18.563
15258,-17.929,-17.962
15270,-14.52,-18.632
15281,-17.205,-17.262
15293,-19.791,-20.365
15305,-17.135,-20.396
15316,-17.383,-19.568
15328,-17.506,-22.533
15340,-15.805,-22.833
15352,-16.182,-18.82
15363,-17.614,-16.31
15375,-19.795,-18.42
15387,-19.558,-23.278
15398,-18.023,-20.458
15410,-20.823,-19.128
15422,-18.295,-17.457
15434,-16.591,-16.405
15445,-15.167,-16.906
15457,-19.626,-18.96
15469,-18.931,-20.399
15480,-18.771,-18.899
15492,-17.973,-17.871
15504,-18.879,-17.523
15516,-19.176,-18.909
15527,-19.177,-17.852
15539,-21.308,-18.173
15551,-20.702,-21.769
15563,-20.263,-17.816
15574,-22.379,-14.652
15586,-21.802,-16.101
15598,-20.152,-17.469
15609,-20.379,-17.149
15621,-16.326,-20.093
15633,-15.263,-20.908
15645,-16.337,-18.861
15656,-16.822,-19.114
15668,-19.979,-16.715
15680,-19.958,-15.107
15691,-18.755,-18.785
15703,-18.472,-20.925
15715,-19.616,-22.691
15727,-20.192,-22.239
15738,-18.246,-19.138
15750,-16.191,-21.034
15762,-18.423,-23.407
15773,-20.597,-20.194
15785,-18.969,-20.002
15797,-20.001,-19.075
15809,-21.339,-18.63
15820,-19.915,-19.839
15832,-18.63,-20.393
15844,-17.756,-18.231
15855,-23.936,-18.276
15867,-22.031,-19.755
15879,-20.173,-20.265
15891,-17.689,-20.637
15902,-16.608,-21.836
15914,-17.761,-19.728
15926,-19.191,-20.802
15938,-18.566,-21.03
15949,-17.61,-20.204
15961,-17.398,-22.225
15973,-20.965,-19.868
15984,-22.383,-20.443
15996,-20.026,-19.756
16008,-20.242,-18.022
16020,-21.204,-18.223
16031,-19.246,-21.563
16043,-19.46,-21.946
16055,-19.69,-21.591
16066,-18.86,-21.818
16078,-19.29,-20.185
16090,-20.582,-19.245
16102,-20.876,-16.22
16113,-20.775,-19.202
16125,-17.119,-22.544
16137,-16.905,-21.928
16148,-16.281,-19.674
16160,-17.161,-19.769
16172,-19.103,-22.14
16184,-20.892,-21.428
16195,-21.243,-22.314
16207,-20.244,-19.934
16219,-17.03,-19.572
16230,-16.481,-19.437
16242,-18.43,-18.242
16254,-22.737,-19.227
16266,-22.309,-20.757
16277,-23.678,-20.819
16289,-26.269,-20.164
16301,-23.157,-20.909
16313,-22.162,-19.544
16324,-23.423,-16.8
16336,-21.085,-18.392
16348,-18.978,-19.052
16359,-19.882,-18.487
16371,-19.025,-19.578
16383,-19.607,-20.317
16395,-18.182,-20.514
16406,-17.429,-21.159
16418,-18.648,-20.893
16430,-19.894,-21.191
16441,-22.239,-22.046
16453,-19.125,-23.863
16465,-18.897,-18.429
16477,-20.792,-21.343
16488,-23.052,-26.654
16500,-21.593,-23.914
16512,-22.192,-22.307
16523,-22.851,-20.483
16535,-21.922,-21.074
16547,-20.014,-22.451
16559,-19.574,-21.019
16570,-18.75,-19.43
16582,-22.53,-15.957
16594,-19.81,-20.941
16605,-19.164,-21.389
16617,-20.669,-21.118
16629,-20.479,-19.481
16641,-20.124,-22.465
16652,-20.333,-22.152
16664,-22.633,-19.229
16676,-21.595,-21.663
16688,-22.899,-21
16699,-22.419,-20.976
16711,-22.353,-19.228
16723,-22.523,-20.024
16734,-21.396,-23.33
16746,-20.607,-21.629
16758,-20.851,-19.763
16770,-21.211,-17.078
16781,-17.471,-19.893
16793,-18.189,-21.145
16805,-20.806,-21.89
16816,-24.455,-21.603
16828,-24.142,-20.174
16840,-21.036,-19.634
16852,-20.106,-23.88
16863,-23.325,-21.389
16875,-22.703,-21.329
16887,-20.584,-17.208
16898,-20.695,-19.984
16910,-20.381,-20.604
16922,-22.041,-20.037
16934,-20.678,-18.274
16945,-19.67,-21.423
16957,-19.041,-23.689
16969,-18.964,-21.345
16980,-21.461,-21.127
16992,-22.38,-22.594
17004,-22.067,-23.461
17016,-19.703,-22.637
17027,-18.836,-21.504
17039,-20.915,-20.898
17051,-19.978,-22.087
17063,-20.505,-20.546
17074,-19.954,-20.894
17086,-18.998,-21.557
17098,-20.373,-19.094
17109,-21.985,-20.586
17121,-22.138,-19.938
17133,-23.547,-19.878
17145,-21.61,-22.959
17156,-18.476,-20.8
17168,-18.828,-19.326
17180,-23.009,-20.038
17191,-23.883,-20.402
17203,-25.67,-19.255
17215,-24.618,-16.921
17227,-23.259,-17.164
17238,-23.796,-20.558
17250,-24.166,-19.15
17262,-19.279,-19.23
17273,-20.242,-21.704
17285,-21.537,-23.211
17297,-20.668,-22.088
17309,-22.924,-23.509
17320,-22.841,-22.894
17332,-24.632,-23.095
17344,-23.835,-22.008
17355,-20.46,-18.804
17367,-19.852,-20.095
17379,-21.095,-23.409
17391,-20.705,-22.833
17402,-21.557,-20.899
17414,-23.48,-18.427
17426,-23.235,-20.037
17438,-22.073,-25.35
17449,-22.531,-24.632
17461,-22.906,-23.952
17473,-22.295,-20.747
17484,-22.983,-21.797
17496,-24.42,-23.217
17508,-20.672,-22.224
17520,-18.34,-24.076
17531,-18.826,-22.807
17543,-21.561,-21.812
17555,-23.369,-23.416
17566,-20.018,-23.794
17578,-21.465,-22.144
17590,-21.407,-22.624
17602,-23.806,-20.327
17613,-22.538,-21.536
17625,-22.697,-23.397
17637,-22.455,-22.126
17648,-22.897,-22.351
17660,-19.996,-22.009
17672,-20.008,-22.523
17684,-24.288,-22.185
17695,-21.75,-24.971
17707,-18.376,-24.102
17719,-19.552,-20.097
17730,-24.263,-20.55
17742,-21.311,-24.644
17754,-22.039,-23.324
17766,-24.443,-23.269
17777,-25.297,-22.999
17789,-23.538,-22.831
17801,-24.79,-25.01
17813,-23.507,-25.465
17824,-20.839,-25.86
17836,-19.639,-21.166
17848,-21.609,-18.125
17859,-22.341,-20.305
17871,-23.353,-23.72
17883,-22.03,-24.01
17895,-18.235,-21.246
17906,-21.115,-20.022
17918,-24.666,-19.879
17930,-21.128,-18.898
17941,-22.258,-19.47
17953,-23.934,-20.363
17965,-21.292,-20.533
17977,-20.053,-21.871
17988,-21.346,-22.465
18000,-20.582,-23.228
18012,-20.525,-23.004
18023,-21.298,-22.86
18035,-22.474,-21.432
18047,-22.369,-22.072
18059,-24.033,-24.782
18070,-21.509,-30.572
18082,-21.921,-24.762
18094,-25.87,-21.484
18105,-23.419,-21.223
18117,-22.044,-20.873
18129,-23.426,-21.607
18141,-23.144,-25.131
18152,-22.346,-25.535
18164,-21.965,-23.603
18176,-22.34,-23.069
18188,-19.143,-21.789
18199,-20.974,-24.301
18211,-25.343,-25.055
18223,-25.042,-23.134
18234,-24.764,-24.325
18246,-25.214,-27.308
18258,-27.107,-24.76
18270,-25.325,-23.611
18281,-22.902,-22.506
18293,-23.708,-21.902
18305,-21.988,-24.495
18316,-19.929,-25.248
18328,-20.83,-20.427
18340,-24.857,-20.853
18352,-23.891,-21.946
18363,-22.715,-21.704
18375,-23.742,-23.118
18387,-27.636,-22.459
18398,-24.359,-23.316
18410,-23.033,-26.761
18422,-22.177,-24.221
18434,-21.422,-23.353
18445,-21.385,-21.682
18457,-21.831,-22.192
18469,-22.866,-24.967
18480,-22.673,-23.925
18492,-22.941,-24.658
18504,-27.03,-24.575
18516,-25.31,-26.248
18527,-24.459,-25.861
18539,-23.603,-23.634
18551,-24.828,-24.271
18563,-25.065,-25.107
18574,-24.87,-22.354
18586,-23.364,-20.077
18598,-22.642,-21.133
18609,-23.718,-26.194
18621,-25.04,-24.312
18633,-23.586,-23.933
18645,-22.867,-25.927
18656,-22.99,-24.314
18668,-23.752,-24.167
18680,-24.928,-22.655
18691,-26.604,-22.764
18703,-26.14,-23.765
18715,-24.059,-20.921
18727,-24.541,-19.87
18738,-22.218,-19.946
18750,-23.229,-22.076
18762,-23.818,-25.574
18773,-25.692,-24.202
18785,-21.954,-25.016
18797,-20.138,-24.997
18809,-22.937,-23.292
18820,-23.747,-23.491
18832,-23.512,-24.978
18844,-25.284,-26.23
18855,-24.06,-24.108
18867,-22.658,-24.55
18879,-23.281,-26.663
18891,-25.772,-26.23
18902,-26.834,-26.24
18914,-25.289,-26.784
18926,-24.137,-22.676
18938,-24.006,-22.127
18949,-23.557,-25.989
18961,-20.589,-22.998
18973,-24.369,-23.296
18984,-21.528,-24.165
18996,-21.99,-24.164
19008,-24.644,-24.564
19020,-23.921,-26.264
19031,-23.979,-26.705
19043,-25.19,-24.817
19055,-22.544,-22.614
19066,-22.938,-22.65
19078,-24.048,-23.493
19090,-21.951,-25.191
19102,-19.309,-22.303
19113,-20.461,-23.33
19125,-23.738,-21.42
19137,-24.447,-18.704
19148,-23.234,-24.189
19160,-26.055,-26.127
19172,-23.555,-23.65
19184,-24.793,-22.598
19195,-23.479,-24.346
19207,-22.852,-24.362
19219,-24.106,-25.473
19230,-23.834,-25.326
19242,-23.05,-24.038
19254,-25.084,-25.905
19266,-22.832,-24.396
19277,-21.552,-25
19289,-25.673,-24.981
19301,-23.085,-25.528
19313,-20.014,-24.693
19324,-21.845,-23.084
19336,-24.344,-26.083
19348,-25.374,-27.484
19359,-24.567,-27.973
19371,-19.4,-29.182
19383,-20.064,-28.591
19395,-26.211,-26.534
19406,-24.562,-27.534
19418,-23.437,-24.471
19430,-21.295,-28.308
19441,-25.349,-26.181
19453,-26.933,-25.219
19465,-27.351,-26.7
19477,-23.155,-27.234
19488,-23.303,-27.775
19500,-23.781,-24.178
19512,-22.816,-23.463
19523,-22.483,-23.48
19535,-22.843,-23.165
19547,-24.014,-23.983
19559,-22.651,-24.05
19570,-23.264,-25.152
19582,-26.225,-25.962
19594,-23.993,-24.504
19605,-24.885,-21.841
19617,-26.381,-23.275
19629,-26.48,-26.384
19641,-27.284,-28.37
19652,-26.6,-28.203
19664,-24.146,-28.017
19676,-24.213,-22.686
19688,-25.392,-23.357
19699,-25.09,-23.553
19711,-26.2,-24.984
19723,-24.832,-25.323
19734,-24.227,-26.956
19746,-25.348,-26.161
19758,-24.509,-26.445
19770,-25.051,-25.042
19781,-26.968,-26.312
19793,-23.772,-27.854
19805,-23.916,-28.663
19816,-25.836,-24.322
19828,-22.569,-24.261
19840,-22.952,-25.196
19852,-22.346,-25.287
19863,-21.826,-26.936
19875,-25.62,-24.894
19887,-26.594,-28.742
19898,-24.871,-26.94
19910,-24.01,-24.824
19922,-24.261,-25.386
19934,-23.341,-26.019
19945,-23.177,-26.173
19957,-25.809,-24.574
19969,-24.903,-24.422
19980,-24.14,-25.319
19992,-22.402,-24.415
20004,-20.998,-25.115
20016,-23.103,-23.537
20027,-27.404,-24.596
20039,-23.861,-27.126
20051,-21.19,-28.6
20063,-21.894,-28.758
20074,-23.712,-27.024
20086,-26.623,-26.545
20098,-27.308,-26.021
20109,-26.301,-25.682
20121,-25.59,-23.199
20133,-26.059,-24.078
20145,-25.403,-31.238
20156,-23.312,-26.198
20168,-24.582,-24.752
20180,-25.036,-27.551
20191,-22.645,-25.673
20203,-23.665,-25.842
20215,-26.372,-25.73
20227,-27.742,-27.285
20238,-28.369,-25.254
20250,-23.929,-26.069
20262,-23.194,-25.182
20273,-25.163,-26.89
20285,-26.805,-26.468
20297,-23.481,-24.496
20309,-24.856,-24.699
20320,-25.78,-25.701
20332,-25.453,-28.124
20344,-23.59,-27.801
20355,-26.799,-23.294
20367,-25.93,-24.99
20379,-25.601,-28.451
20391,-27.831,-25.33
20402,-26.009,-23.813
20414,-25.701,-24.91
20426,-25.379,-26.067
20438,-24.15,-25.334
20449,-24.497,-24.084
20461,-26.517,-26.239
20473,-27.525,-26.447
20484,-28.219,-26.139
20496,-26.409,-25.697
20508,-24.061,-26.948
20520,-21.813,-27.671
20531,-22.505,-28.694
20543,-24.083,-28.14
20555,-24.65,-26.726
20566,-25.036,-26.31
20578,-25.686,-27.94
20590,-25.287,-28.125
20602,-26.523,-24.942
20613,-26.723,-22.432
20625,-25.252,-24.86
20637,-28.622,-24.422
20648,-27.374,-23.933
20660,-24.097,-27.034
20672,-24.397,-26.127
20684,-23.589,-26.104
20695,-23.132,-28.26
20707,-25.719,-28.003
20719,-27.961,-27.482
20730,-30.276,-26.779
20742,-30.19,-29.301
20754,-28.869,-27.243
20766,-26.824,-27.461
20777,-22.262,-26.333
20789,-22.086,-27.132
20801,-27.222,-25.673
20813,-27.27,-26.114
20824,-29.057,-25.539
20836,-23.938,-26.34
20848,-26.597,-28.815
20859,-25.769,-27.444
20871,-23.599,-26.174
20883,-24.339,-28.343
20895,-26.669,-29.724
20906,-31.067,-29.183
20918,-26.206,-27.426
20930,-23.661,-26.528
20941,-25.649,-27.598
20953,-26.277,-26
20965,-25.02,-27.356
20977,-24.293,-27.321
20988,-26.016,-24.212
21000,-27.742,-23.782
21012,-28.523,-26.258
21023,-29.015,-27.073
21035,-29.911,-28.067
21047,-26.05,-26.796
21059,-23.701,-25.61
21070,-25.344,-26.011
21082,-25.618,-29.936
21094,-21.004,-28.82
21105,-23.212,-25.741
21117,-27.532,-24.386
21129,-28.101,-25.207
21141,-27.93,-26.07
21152,-26.719,-24.72
21164,-23.474,-27.053
21176,-24.015,-25.295
21188,-24.961,-24.476
21199,-25.527,-26.995
21211,-26.116,-27.154
21223,-27.071,-27.505
21234,-23.948,-26.114
21246,-26.358,-26.221
21258,-26.322,-30.688
21270,-22.917,-30.62
21281,-22.639,-30.484
21293,-22.613,-31.999
21305,-23.778,-28.812
21316,-26.27,-25.989
21328,-28.328,-27.817
21340,-29.157,-29.402
21352,-25.943,-28.326
21363,-24.063,-26.714
21375,-24.977,-26.403
21387,-25.788,-29.62
21398,-25.59,-26.025
21410,-26.757,-26.575
21422,-24.991,-28.582
21434,-23.757,-28.552
21445,-27.744,-25.28
21457,-29.549,-23.325
21469,-24.964,-24.559
21480,-25.481,-26.194
21492,-26.924,-28.389
21504,-29.024,-26.704
21516,-27.406,-24.429
21527,-26.6,-26.188
21539,-24.713,-28.286
21551,-27.31,-24.873
21563,-25.83,-23.726
21574,-26.334,-23.493
21586,-29.016,-26.603
21598,-26.479,-27.049
21609,-26.224,-29.023
21621,-27.672,-30.422
21633,-27.912,-28.21
21645,-25.273,-24.829
21656,-25.017,-23.974
21668,-24.829,-27.532
21680,-26.259,-27.455
21691,-27.043,-26.397
21703,-28.081,-26.857
21715,-27.892,-26.563
21727,-26.919,-28.061
21738,-27.428,-27.577
21750,-27.843,-26.045
21762,-28.423,-27.856
21773,-25.873,-25.236
21785,-23.236,-25.375
21797,-22.743,-24.784
21809,-23.619,-25.245
21820,-25.535,-28.09
21832,-28.619,-27.232
21844,-30.564,-26.872
21855,-28.491,-23.973
21867,-27.579,-28.723
21879,-27.876,-29.758
21891,-26.222,-28.976
21902,-27.744,-32.268
21914,-29.444,-32.395
21926,-27.017,-28.5
21938,-26.053,-24.909
21949,-28.384,-23.733
21961,-25.541,-24.875
21973,-25.512,-28.237
21984,-25.934,-29.635
21996,-26.235,-26.325
22008,-25.96,-26.816
22020,-28.708,-29.782
22031,-25.483,-27.596
22043,-26.628,-26.514
22055,-23.856,-26.624
22066,-24.339,-29.141
22078,-26.016,-27.927
22090,-28.98,-26.71
22102,-24.631,-27.103
22113,-25.639,-30.917
22125,-28.779,-29.707
22137,-26.434,-31.299
22148,-26.402,-34.106
22160,-27.57,-29.988
22172,-30.16,-26.122
22184,-29.984,-24.019
22195,-28.774,-25.581
22207,-26.954,-26.537
22219,-25.587,-28.486
22230,-24.913,-32.392
22242,-25.28,-29.302
22254,-25.991,-29.552
22266,-27.969,-30.579
22277,-25.896,-28.23
22289,-25.134,-27.879
22301,-28.887,-26.732
22313,-31.926,-25.542
22324,-28.892,-27.947
22336,-27.373,-29.464
22348,-24.684,-24.849
22359,-25.873,-25.1
22371,-26.135,-26.821
22383,-25.629,-29.649
22395,-26.215,-26.679
22406,-28.687,-28.817
22418,-27.343,-27.524
22430,-26.03,-26.314
22441,-26.267,-25.843
22453,-28.569,-26.445
22465,-24.473,-28.056
22477,-27.192,-26.861
22488,-30.198,-29.824
22500,-25.868,-27.644
22512,-25.648,-24.132
22523,-28.416,-23.95
22535,-28.917,-24.656
22547,-26.951,-26.731
22559,-23.721,-27.272
22570,-21.163,-31.479
22582,-21.75,-27.126
22594,-27.198,-24.993
22605,-27.963,-24.788
22617,-27.261,-28.387
22629,-29.729,-28.799
22641,-27.082,-30.302
22652,-23.303,-27.752
22664,-26.741,-27.817
22676,-29.509,-27.242
22688,-25.871,-27.376
22699,-25.87,-26.093
22711,-28.566,-28.072
22723,-29.238,-30.169
22734,-28.265,-28.293
22746,-24.671,-31.948
22758,-26.584,-29.93
22770,-31.495,-27.382
22781,-31.502,-27.144
22793,-30.863,-29.32
22805,-29.279,-29.841
22816,-27.8,-28.739
22828,-26.629,-30.874
22840,-24.361,-28.303
22852,-27.684,-26.601
22863,-30.697,-25.603
22875,-28.782,-28.74
22887,-28.174,-28.525
22898,-28.482,-26.011
22910,-25.108,-25.069
22922,-24.258,-26.778
22934,-27.238,-30.557
22945,-27.744,-27.799
22957,-26.744,-27.642
22969,-27.393,-27.014
22980,-27.117,-28.058
22992,-27.702,-26.879
23004,-30.553,-25.79
23016,-28.048,-27.238
23027,-26.411,-29.145
23039,-25.739,-29.464
23051,-26.386,-30.657
23063,-26.289,-28.024
23074,-24.969,-28.757
23086,-24.629,-28.024
23098,-26.712,-30.052
23109,-30.63,-28.007
23121,-30.757,-27.852
23133,-27.026,-31.019
23145,-26.788,-31.701
23156,-27.612,-29.453
23168,-27.042,-30.582
23180,-28.396,-32.108
23191,-27.771,-31.215
23203,-25.187,-28.948
23215,-24.63,-28.054
23227,-26.736,-27.99
23238,-29.131,-28.496
23250,-28.885,-30.093
23262,-28.948,-29.263
23273,-28.511,-26.42
23285,-27.737,-29.738
23297,-25.859,-32.598
23309,-26.642,-31.42
23320,-33.916,-27.382
23332,-29.593,-26.031
23344,-32.379,-29.229
23355,-27.8,-27.736
23367,-27.675,-25.263
23379,-28.457,-26.032
23391,-27.817,-28.031
23402,-25.809,-30.647
23414,-26.042,-31.154
23426,-27.949,-29.756
23438,-28.605,-30.92
23449,-28.063,-30.199
23461,-28.288,-25.449
23473,-27.999,-26.36
23484,-31.035,-26.785
23496,-31.894,-29.624
23508,-28.474,-29.878
23520,-26.957,-32.095
23531,-29.272,-30.263
23543,-26.728,-28.321
23555,-25.951,-28.888
23566,-26.701,-30.928
23578,-29.452,-30.211
23590,-29.582,-30.153
23602,-27.766,-27.351
23613,-25.989,-29.518
23625,-27.464,-29.426
23637,-29.867,-30.637
23648,-30.794,-26.889
23660,-25.53,-25.668
23672,-25.473,-29.848
23684,-30.409,-29.741
23695,-29.734,-28.564
23707,-29.882,-29.539
23719,-29.208,-30.794
23730,-27.604,-33.024
23742,-28.255,-30.481
23754,-29.539,-29.725
23766,-28.853,-29.203
23777,-27.332,-29.762
23789,-24.295,-29.679
23801,-25.717,-30.358
23813,-29.107,-31.531
23824,-28.463,-31.744
23836,-27.592,-30.612
23848,-28.738,-29.736
23859,-31.49,-26.968
23871,-31.077,-27.176
23883,-28.533,-27.415
23895,-27.805,-26.151
23906,-27.713,-28.36
23918,-27.676,-31.765
23930,-27.851,-30.401
23941,-26.851,-27.195
23953,-29.998,-28.944
23965,-27.898,-29.25
23977,-17.244,-29.509
23988,-16.521,-28.604
