FFT,Power Spectrum
Frequency[Hz],Level-L[dB],Level-R[dB]
11.719,-21.145,-25.356
23.438,-0.36833,-4.5583
35.156,1.8918,-1.8977
46.875,1.4938,0.20691
58.594,1.1087,0.53496
70.313,6.5235,4.8874
82.031,6.1237,4.8002
93.75,7.0559,4.8808
105.47,10.425,8.3714
117.19,10.29,6.8928
128.91,7.0416,2.5483
140.63,14.053,10.329
152.34,11.613,8.313
164.06,1.26,0.60491
175.78,4.9613,5.0483
187.5,11.384,10.372
199.22,10.031,7.4986
210.94,10.114,7.4005
222.66,10.867,8.8043
234.38,11.285,7.8942
246.09,10.124,6.8026
257.81,8.3867,6.8418
269.53,7.7995,4.4202
281.25,7.0981,4.5571
292.97,9.8878,6.206
304.69,10.926,8.0696
316.41,8.5324,4.5244
328.13,7.243,0.42152
339.84,6.5417,4.309
351.56,6.694,5.1251
363.28,6.5205,4.7997
375,5.7318,4.0081
386.72,5.3635,6.0932
398.44,7.3719,9.2284
410.16,6.5742,7.9107
421.88,6.4707,6.0806
433.59,6.328,8.1096
445.31,5.5234,6.1729
457.03,6.0439,4.9523
468.75,6.7492,3.9768
480.47,7.0592,4.929
492.19,3.9507,7.4001
503.91,1.7173,6.4578
515.63,1.9906,4.8335
527.34,5.5114,6.2649
539.06,7.3955,4.8078
550.78,3.5404,2.1514
562.5,7.1358,4.1916
574.22,5.4553,5.8298
585.94,6.337,7.717
597.66,4.147,8.27
609.38,6.4824,6.1631
621.09,8.5973,6.9483
632.81,7.3564,6.3503
644.53,8.7391,7.0721
656.25,11.117,8.9557
667.97,9.2955,6.4243
679.69,9.1398,4.9291
691.41,9.0636,5.0726
703.13,6.8554,5.5068
714.84,7.3258,9.3275
726.56,4.3117,6.8586
738.28,3.9779,3.3354
750,3.4664,3.1776
761.72,8.1883,5.0126
773.44,8.126,5.9224
785.16,7.2702,6.4817
796.88,7.7889,7.2108
808.59,8.9312,7.8906
820.31,5.7646,7.7554
832.03,5.7885,8.6044
843.75,9.7852,8.3557
855.47,10.85,8.9801
867.19,11.91,9.5012
878.91,12.151,11.415
890.63,11.464,10.245
902.34,11.73,8.1296
914.06,10.772,6.4555
925.78,9.5272,7.0626
937.5,10.449,7.363
949.22,10.745,6.9932
960.94,9.5316,6.9117
972.66,8.2614,6.2878
984.38,6.5087,2.753
996.09,5.9604,3.1005
1007.8,5.3771,2.5959
1019.5,7.3915,6.4255
1031.3,5.298,6.1977
1043,3.7711,5.7535
1054.7,6.8719,5.7339
1066.4,10.049,5.3365
1078.1,9.7675,6.0289
1089.8,7.3138,7.5904
1101.6,5.7995,5.4831
1113.3,8.4017,5.1317
1125,9.2193,2.5365
1136.7,7.2511,5.1107
1148.4,8.342,6.5546
1160.2,5.2138,5.4116
1171.9,5.0767,5.295
1183.6,6.0103,4.5911
1195.3,4.5488,2.0819
1207,5.9142,3.8525
1218.8,6.8514,7.5782
1230.5,6.8583,5.5687
1242.2,4.3648,5.5062
1253.9,0.57222,2.455
1265.6,3.4262,1.9049
1277.3,2.4276,3.2176
1289.1,5.5109,4.7567
1300.8,2.5766,5.4129
1312.5,4.8571,2.7835
1324.2,3.0304,1.8857
1335.9,3.5842,1.5855
1347.7,2.4861,1.7667
1359.4,3.7526,6.1124
1371.1,4.1206,5.1945
1382.8,2.0361,4.1677
1394.5,4.0487,4.7755
1406.3,6.7879,3.4887
1418,5.2419,2.4202
1429.7,8.3349,6.8644
1441.4,6.84,5.7045
1453.1,5.1145,3.8102
1464.8,5.0372,2.7053
1476.6,6.7082,2.1752
1488.3,5.9255,2.4415
1500,4.9886,4.1963
1511.7,4.5546,4.1127
1523.4,3.0712,2.8393
1535.2,3.9477,-0.046762
1546.9,5.6361,2.7679
1558.6,6.5355,2.5432
1570.3,4.6973,4.3585
1582,6.6649,3.4147
1593.8,5.4638,0.77705
1605.5,3.8245,3.1516
1617.2,6.7315,3.5955
1628.9,4.8845,-0.23455
1640.6,0.79746,-1.6742
1652.3,3.1568,-0.87002
1664.1,5.1272,4.7718
1675.8,-0.68878,3.9247
1687.5,5.8011,2.7945
1699.2,6.5701,3.1986
1710.9,5.3454,4.4768
1722.7,2.9621,4.9615
1734.4,4.0149,3.0301
1746.1,3.3478,3.6398
1757.8,4.5672,4.9745
1769.5,3.4556,2.8605
1781.3,3.5858,4.6754
1793,2.0262,5.8318
1804.7,2.3524,1.6407
1816.4,6.01,0.19346
1828.1,7.2742,2.5947
1839.8,2.6783,1.9431
1851.6,3.5185,1.6132
1863.3,7.8527,6.0435
1875,7.8354,6.7925
1886.7,3.4258,4.8414
1898.4,0.94757,5.7733
1910.2,1.6656,4.2377
1921.9,5.6961,2.1158
1933.6,6.4704,1.9339
1945.3,2.434,2.9934
1957,3.6457,4.0805
1968.8,4.0678,4.2846
1980.5,3.8309,2.4088
1992.2,1.4047,2.3005
2003.9,2.6349,1.2829
2015.6,1.2491,0.79584
2027.3,3.2212,2.1705
2039.1,2.8977,2.7987
2050.8,4.1393,3.0288
2062.5,2.1248,4.0112
2074.2,0.81239,2.5473
2085.9,3.3524,2.2227
2097.7,4.2576,2.1144
2109.4,4.3663,1.8635
2121.1,3.87,1.6799
2132.8,2.6577,2.5278
2144.5,2.5199,5.3674
2156.3,2.5774,5.2751
2168,5.5995,2.1311
2179.7,7.2985,5.5869
2191.4,4.009,3.7354
2203.1,1.1251,3.2865
2214.8,1.4719,2.4673
2226.6,0.65507,4.6317
2238.3,2.4435,5.6131
2250,3.3697,3.5186
2261.7,1.5439,2.4533
2273.4,2.1624,1.3333
2285.2,2.7447,3.6749
2296.9,3.1184,4.97
2308.6,2.1824,2.1949
2320.3,2.7002,-1.1294
2332,1.7053,1.1807
2343.8,-2.4559,1.1605
2355.5,-2.5683,1.698
2367.2,1.4417,-0.95675
2378.9,1.4366,0.40448
2390.6,1.9155,2.9386
2402.3,2.2536,3.5621
2414.1,4.4683,0.59283
2425.8,3.5729,-1.4356
2437.5,2.9045,2.6194
2449.2,2.3264,1.3455
2460.9,3.5673,-0.19249
2472.7,2.8375,2.0521
2484.4,0.47853,1.4329
2496.1,-0.55765,0.36136
2507.8,-1.792,-1.1075
2519.5,1.6584,-0.74773
2531.3,3.8441,0.53036
2543,2.3489,-1.5844
2554.7,4.1029,-0.19562
2566.4,0.039776,3.6677
2578.1,3.05,3.8993
2589.8,2.1262,2.8219
2601.6,0.79281,-0.21428
2613.3,0.45165,0.38106
2625,0.23229,-0.27575
2636.7,0.096836,-0.8427
2648.4,0.5193,1.4417
2660.2,1.2584,0.78587
2671.9,0.56528,2.1678
2683.6,1.561,3.1781
2695.3,-2.6002,-0.14193
2707,-1.5362,0.32977
2718.8,2.7127,-0.99504
2730.5,3.2824,-0.51775
2742.2,1.7839,0.2184
2753.9,-0.038718,-2.1841
2765.6,-0.15239,0.068445
2777.3,0.74866,1.4096
2789.1,2.689,3.183
2800.8,2.6053,4.5725
2812.5,2.7738,3.5908
2824.2,2.3681,0.040531
2835.9,-0.12894,-2.5696
2847.7,-1.7967,0.17579
2859.4,-3.3596,-0.19532
2871.1,2.0327,-1.4629
2882.8,2.3416,1.4502
2894.5,0.46229,2.529
2906.3,-1.3895,1.6161
2918,-1.2737,0.45419
2929.7,0.078444,0.70041
2941.4,-2.7635,0.44893
2953.1,-2.6433,-0.11178
2964.8,-1.5366,2.1172
2976.6,-1.0507,1.9945
2988.3,-0.77767,1.0279
3000,-0.86148,0.40864
3011.7,-0.11086,-2.6759
3023.4,1.0238,-0.49874
3035.2,0.46339,-0.16927
3046.9,0.00074494,0.98944
3058.6,-2.6407,-0.39065
3070.3,-0.68295,1.0383
3082,0.62745,1.054
3093.8,-1.824,-0.28822
3105.5,-1.0459,-1.8911
3117.2,-0.72933,-1.6755
3128.9,0.17234,-0.55381
3140.6,1.127,0.38883
3152.3,-0.21811,2.0541
3164.1,-1.6347,0.5729
3175.8,1.1144,-2.3187
3187.5,3.1519,-0.094334
3199.2,1.546,-0.6962
3210.9,1.5026,-2.4494
3222.7,1.8534,-1.6639
3234.4,-0.27003,-2.9469
3246.1,0.63811,-6.6787
3257.8,-0.7955,-2.2415
3269.5,0.20702,2.77
3281.3,1.2933,3.6052
3293,1.3712,0.26896
3304.7,0.77803,-3.6513
3316.4,0.082937,-2.8444
3328.1,-0.99122,-0.32371
3339.8,-0.99809,0.50402
3351.6,0.70803,1.1207
3363.3,-3.0342,1.1003
3375,0.071697,1.1762
3386.7,1.7802,-0.12729
3398.4,1.2212,-1.4154
3410.2,-1.1114,-3.3536
3421.9,-4.0567,-1.3818
3433.6,-2.7039,-1.5221
3445.3,-3.1526,-1.5217
3457,-2.402,-2.2073
3468.8,-0.73734,1.1244
3480.5,-1.55,0.97006
3492.2,-2.1982,1.3088
3503.9,-0.85471,-1.7799
3515.6,-0.52321,-1.6892
3527.3,-2.1239,-2.3841
3539.1,-3.3466,-3.0892
3550.8,-3.9913,-1.9039
3562.5,-2.2266,-0.047275
3574.2,0.9685,1.6564
3585.9,-1.2384,1.2407
3597.7,-2.8444,0.29113
3609.4,-3.0402,-0.78784
3621.1,-2.6287,1.2126
3632.8,-4.4093,1.8679
3644.5,-2.4479,-5.2873
3656.3,-0.49678,-0.5471
3668,-0.29982,0.55248
3679.7,-0.59606,1.7644
3691.4,-1.0536,-0.71078
3703.1,-0.64371,-4.2176
3714.8,-0.70752,-2.8583
3726.6,-0.093596,-1.1435
3738.3,0.31602,-3.1463
3750,0.0054158,-5.9649
3761.7,-3.0727,-5.603
3773.4,0.96593,-1.6435
3785.2,1.3891,-1.9189
3796.9,0.074909,-0.56917
3808.6,-3.1313,-1.0933
3820.3,-2.5708,-1.7629
3832,-0.4041,-3.2295
3843.8,-0.22981,-5.6085
3855.5,0.10875,-3.4558
3867.2,-3.5387,-3.1542
3878.9,-3.6144,-1.9405
3890.6,-1.0469,-2.1221
3902.3,-0.43291,-3.011
3914.1,-3.7844,-1.2777
3925.8,-2.3154,-1.6105
3937.5,-2.7939,0.40371
3949.2,-0.054977,-0.18545
3960.9,-2.842,-3.6498
3972.7,-2.6716,-5.1431
3984.4,-3.8074,-3.8335
3996.1,-2.6047,-2.4595
4007.8,-0.92299,-2.0769
4019.5,-1.5916,-3.4243
4031.3,0.58205,-2.1982
4043,0.7751,-2.2424
4054.7,0.29447,-1.8881
4066.4,-1.7463,0.81217
4078.1,-3.1438,-0.64441
4089.8,-3.1946,-1.3569
4101.6,-3.2513,-1.8971
4113.3,-4.2764,-3.8242
4125,-1.9679,-3.0638
4136.7,-1.4548,-0.46646
4148.4,-2.7852,-0.91304
4160.2,-6.7762,-1.7151
4171.9,-2.6992,0.43999
4183.6,-3.7208,-1.1818
4195.3,-2.0971,-3.0007
4207,-0.45884,-4.3855
4218.8,-2.0519,-4.1948
4230.5,-3.1384,-5.2303
4242.2,-1.2887,-4.8099
4253.9,-0.97927,-2.9459
4265.6,-1.548,-3.4386
4277.3,-3.9426,-3.3894
4289.1,-2.4142,-0.80445
4300.8,-0.76006,0.9373
4312.5,-1.0034,0.41367
4324.2,-2.7638,-2.541
4335.9,-2.4829,-4.2489
4347.7,-4.1568,-3.0419
4359.4,-2.9599,-2.6439
4371.1,-2.0864,-2.2771
4382.8,-0.65765,-4.2107
4394.5,0.24687,-1.5267
4406.3,-2.4644,-1.5933
4418,-3.2712,-2.1158
4429.7,-2.1009,-2.8173
4441.4,-2.629,-1.3334
4453.1,-1.1831,-0.49642
4464.8,-1.5007,-0.060591
4476.6,-4.0325,-3.1682
4488.3,-1.4397,-1.3073
4500,-2.7754,-2.334
4511.7,-1.1856,-4.2221
4523.4,-3.4936,-2.5628
4535.2,-5.5565,-2.1547
4546.9,-2.354,-3.0592
4558.6,-2.5419,-3.1017
4570.3,0.11461,-1.7352
4582,-1.222,-1.3498
4593.8,-2.6212,-5.7375
4605.5,-1.8102,-6.1692
4617.2,-3.1943,-1.7958
4628.9,-6.6847,-2.4198
4640.6,-4.5207,-4.7437
4652.3,-3.5284,-4.3053
4664.1,-4.6548,-3.1567
4675.8,-3.2692,-5.606
4687.5,-4.9433,-3.6297
4699.2,-3.0773,-3.1426
4710.9,-3.5162,-5.1161
4722.7,-6.3099,-5.2561
4734.4,-6.7352,-5.527
4746.1,-5.0169,-6.7939
4757.8,-4.2115,-5.0123
4769.5,-4.3696,-2.9751
4781.3,-5.3353,-2.4347
4793,-4.0145,-2.7076
4804.7,-6.2987,-5.5296
4816.4,-6.2762,-3.6446
4828.1,-3.7182,-2.2199
4839.8,-3.236,-0.99758
4851.6,-4.0444,-5.5258
4863.3,-4.7044,-4.7939
4875,-5.9741,-3.1921
4886.7,-5.1492,-5.4313
4898.4,-3.9686,-8.1279
4910.2,-1.5228,-5.1033
4921.9,-5.2339,-6.2763
4933.6,-6.4243,-6.7004
4945.3,-6.174,-5.9229
4957,-1.8568,-2.9822
4968.8,-0.71006,-2.1972
4980.5,-2.4029,-6.1637
4992.2,-4.2953,-5.713
5003.9,-5.8934,-4.5965
5015.6,-4.98,-3.9043
5027.3,-2.6059,-5.4256
5039.1,-2.3048,-3.4024
5050.8,-5.9238,-1.0815
5062.5,-4.4484,-4.1616
5074.2,-2.7794,-4.281
5085.9,-2.0551,-2.3646
5097.7,-4.0158,-2.368
5109.4,-3.1095,-2.1915
5121.1,-2.2569,-1.5457
5132.8,-3.0158,-1.883
5144.5,-4.5886,-4.8635
5156.3,-3.294,-3.8062
5168,-0.2701,-1.9304
5179.7,-4.467,-2.2919
5191.4,-2.6333,-5.0087
5203.1,-1.2215,-4.6013
5214.8,-2.8648,-7.4622
5226.6,-5.1058,-5.6144
5238.3,-5.6601,-4.3757
5250,-4.9565,-4.6956
5261.7,-2.9406,-3.22
5273.4,-3.6551,-7.2006
5285.2,-1.5114,-7.6159
5296.9,-1.5609,-7.0219
5308.6,-5.0358,-6.2325
5320.3,-4.9317,-4.2016
5332,-5.3864,-4.0268
5343.8,-5.1969,-5.0628
5355.5,-4.8404,-6.6444
5367.2,-6.1786,-6.5614
5378.9,-5.2954,-3.5489
5390.6,-3.0804,-4.3301
5402.3,-3.1687,-7.1571
5414.1,-3.9723,-7.0093
5425.8,-4.6272,-5.3581
5437.5,-2.3348,-6.5422
5449.2,-3.5487,-4.3014
5460.9,-5.6308,-2.6308
5472.7,-5.5542,-3.6967
5484.4,-6.5453,-2.8497
5496.1,-6.363,-3.4121
5507.8,-3.7606,-5.0628
5519.5,-6.0404,-6.6921
5531.3,-8.7423,-6.1001
5543,-6.37,-4.8779
5554.7,-5.9468,-5.785
5566.4,-6.5024,-3.8361
5578.1,-5.4,-5.8265
5589.8,-5.4374,-5.6621
5601.6,-7.6119,-4.7575
5613.3,-4.0543,-3.308
5625,-1.6637,-3.1524
5636.7,-2.266,-4.6314
5648.4,-4.5592,-5.121
5660.2,-5.3999,-5.2199
5671.9,-8.2463,-5.0865
5683.6,-4.5103,-4.0989
5695.3,-3.334,-4.5943
5707,-2.164,-4.5107
5718.8,-4.1058,-3.8193
5730.5,-3.4035,-3.0291
5742.2,-2.7442,-4.267
5753.9,-4.7646,-5.8326
5765.6,-5.2138,-7.0182
5777.3,-4.8259,-5.0275
5789.1,-8.6987,-7.0172
5800.8,-5.6666,-6.3521
5812.5,-7.457,-4.3853
5824.2,-4.5901,-5.647
5835.9,-4.9557,-7.0866
5847.7,-3.6754,-5.6489
5859.4,-2.8986,-2.4986
5871.1,-2.7469,-3.3665
5882.8,-5.573,-6.4503
5894.5,-6.8061,-5.963
5906.3,-4.45,-4.775
5918,-4.9894,-3.5665
5929.7,-6.7213,-3.853
5941.4,-8.7262,-3.3683
5953.1,-6.7096,-4.1671
5964.8,-4.5842,-5.2638
5976.6,-5.3253,-5.0378
5988.3,-7.7256,-6.0565
6000,-7.0432,-6.1878
6011.7,-7.5182,-4.5972
6023.4,-7.3636,-6.8555
6035.2,-4.4154,-6.8431
6046.9,-3.8736,-5.8935
6058.6,-3.5393,-6.2425
6070.3,-2.4793,-6.4849
6082,-3.8219,-5.1904
6093.8,-6.6018,-7.4027
6105.5,-4.9825,-7.6913
6117.2,-4.7469,-8.7143
6128.9,-4.295,-6.9414
6140.6,-6.067,-7.4064
6152.3,-7.8548,-8.7499
6164.1,-8.3773,-6.1207
6175.8,-7.4557,-5.5837
6187.5,-6.8617,-4.4837
6199.2,-7.2318,-5.1095
6210.9,-6.7875,-6.9524
6222.7,-10.19,-4.5759
6234.4,-12.087,-2.676
6246.1,-10.762,-2.6804
6257.8,-10.03,-3.8711
6269.5,-8.9795,-5.7105
6281.3,-3.8487,-7.3899
6293,-5.4275,-9.6433
6304.7,-8.1387,-8.8318
6316.4,-8.5148,-5.6219
6328.1,-6.4657,-6.4088
6339.8,-8.3001,-7.2922
6351.6,-7.9434,-7.5733
6363.3,-3.7514,-8.4401
6375,-3.8989,-6.7385
6386.7,-6.3251,-5.1125
6398.4,-7.1576,-4.5228
6410.2,-5.7972,-5.6285
6421.9,-6.1849,-6.3438
6433.6,-5.2558,-6.0306
6445.3,-3.9658,-7.679
6457,-8.362,-11.055
6468.8,-9.9889,-5.3347
6480.5,-3.5072,-2.601
6492.2,-4.1794,-4.3217
6503.9,-8.7408,-9.8645
6515.6,-4.0342,-10.993
6527.3,-3.2673,-8.9013
6539.1,-5.191,-7.7674
6550.8,-9.0943,-6.762
6562.5,-12.114,-4.8188
6574.2,-9.5157,-4.868
6585.9,-6.753,-8.8105
6597.7,-3.4923,-7.1955
6609.4,-7.598,-6.2489
6621.1,-10.255,-7.4484
6632.8,-9.5277,-7.2371
6644.5,-8.2845,-8.725
6656.3,-8.8564,-6.2937
6668,-5.9213,-5.7569
6679.7,-5.8346,-7.2202
6691.4,-6.1824,-6.574
6703.1,-6.5825,-6.0986
6714.8,-6.7683,-7.4434
6726.6,-6.2932,-11.711
6738.3,-5.239,-9.4853
6750,-3.4016,-9.3058
6761.7,-3.8066,-8.256
6773.4,-4.3243,-6.2857
6785.2,-6.8704,-6.4009
6796.9,-5.987,-7.8075
6808.6,-6.0003,-6.2384
6820.3,-6.9261,-3.2465
6832,-9.1941,-4.2581
6843.8,-8.6714,-7.1374
6855.5,-7.7788,-6.3605
6867.2,-10.1,-9.4058
6878.9,-5.2048,-6.5399
6890.6,-4.7213,-7.3641
6902.3,-7.5778,-9.1524
6914.1,-14.582,-7.4644
6925.8,-8.5562,-6.8246
6937.5,-7.7529,-5.6198
6949.2,-10.966,-4.3648
6960.9,-7.0504,-5.0201
6972.7,-3.1229,-6.6014
6984.4,-2.7516,-4.0029
6996.1,-4.4817,-4.1477
7007.8,-4.3485,-6.8018
7019.5,-2.4164,-8.107
7031.3,-2.7101,-10.598
7043,-7.2261,-10.954
7054.7,-3.8744,-8.6276
7066.4,-4.8883,-8.2042
7078.1,-6.9193,-6.8364
7089.8,-9.2645,-7.3179
7101.6,-6.7948,-7.6801
7113.3,-6.8071,-11.321
7125,-4.1753,-7.0756
7136.7,-3.6962,-6.2687
7148.4,-5.6861,-6.8033
7160.2,-7.1977,-7.8706
7171.9,-6.3577,-4.9921
7183.6,-5.9128,-4.8463
7195.3,-4.3093,-8.3434
7207,-4.592,-4.6866
7218.8,-6.0101,-4.9958
7230.5,-5.6646,-9.0149
7242.2,-6.5718,-9.6363
7253.9,-4.4795,-8.3352
7265.6,-2.4883,-7.1481
7277.3,-6.7849,-6.5907
7289.1,-3.9087,-9.6602
7300.8,-3.2917,-10.542
7312.5,-4.8187,-8.9846
7324.2,-3.2229,-8.102
7335.9,-1.268,-4.7412
7347.7,-0.37243,-5.1137
7359.4,-1.9972,-8.3082
7371.1,1.0587,-8.5916
7382.8,0.98866,-7.5323
7394.5,1.4037,-5.4526
7406.3,4.1974,-6.1996
7418,3.7244,-8.3471
7429.7,3.0512,-5.9688
7441.4,7.2541,-3.8069
7453.1,10.264,-4.4106
7464.8,10.881,-1.7984
7476.6,14.441,-1.0241
7488.3,20.799,5.1352
7500,28.477,12.491
7511.7,50.977,34.988
7523.4,55.684,39.685
7535.2,48.601,32.586
7546.9,25.216,8.8355
7558.6,19.181,3.2354
7570.3,13.739,-1.735
7582,9.623,-2.6661
7593.8,8.5834,-3.9989
7605.5,5.8849,-6.2802
7617.2,1.5465,-6.5749
7628.9,1.2682,-6.4145
7640.6,2.2418,-6.9224
7652.3,0.30127,-9.18
7664.1,0.94778,-8.2652
7675.8,-1.4547,-9.2105
7687.5,-1.8667,-7.2972
7699.2,-0.93709,-8.3934
7710.9,-1.4577,-6.4304
7722.7,-3.8048,-6.3618
7734.4,-2.2484,-10.601
7746.1,-4.8549,-6.6825
7757.8,-4.9221,-8.0499
7769.5,-5.6622,-9.9541
7781.3,-4.657,-10.567
7793,-7.2765,-7.8009
7804.7,-9.1359,-6.3368
7816.4,-4.8616,-8.2352
7828.1,-3.0778,-11.911
7839.8,-4.871,-9.6146
7851.6,-6.9333,-8.8371
7863.3,-5.7168,-10.562
7875,-6.5799,-11.032
7886.7,-8.4388,-7.4852
7898.4,-8.7838,-7.2158
7910.2,-7.5259,-9.8699
7921.9,-5.0033,-7.8413
7933.6,-5.746,-6.6808
7945.3,-6.4752,-10.68
7957,-6.319,-10.674
7968.8,-9.0064,-7.7367
7980.5,-8.2134,-11.696
7992.2,-7.2419,-9.5432
8003.9,-5.724,-8.5978
8015.6,-5.7286,-7.5273
8027.3,-8.3657,-8.3324
8039.1,-6.8258,-10.609
8050.8,-7.7583,-9.3635
8062.5,-7.9345,-8.1118
8074.2,-8.3321,-7.9357
8085.9,-6.7575,-8.434
8097.7,-6.4632,-8.1146
8109.4,-6.6019,-9.6903
8121.1,-9.6826,-9.6766
8132.8,-6.271,-10.237
8144.5,-5.8715,-11.435
8156.3,-7.9023,-10.344
8168,-7.6964,-8.4831
8179.7,-8.5934,-9.6892
8191.4,-6.4552,-8.8867
8203.1,-6.7791,-8.5567
8214.8,-8.1953,-9.4148
8226.6,-3.8788,-9.3028
8238.3,-4.4694,-11.527
8250,-7.8734,-12.103
8261.7,-9.8511,-11.068
8273.4,-8.8189,-9.2417
8285.2,-7.5147,-7.9754
8296.9,-4.3697,-7.6743
8308.6,-6.987,-8.1058
8320.3,-8.0678,-8.9037
8332,-6.9631,-8.023
8343.8,-8.243,-9.6968
8355.5,-10.453,-10.284
8367.2,-9.5075,-10.706
8378.9,-10.033,-9.7558
8390.6,-9.8704,-9.0456
8402.3,-13.247,-7.79
8414.1,-7.6075,-11.499
8425.8,-5.7544,-12.06
8437.5,-5.7684,-9.909
8449.2,-6.0621,-10.551
8460.9,-7.9924,-12.131
8472.7,-11.724,-10.814
8484.4,-10.015,-11.792
8496.1,-8.5814,-8.7268
8507.8,-6.8666,-7.6151
8519.5,-7.7251,-10.212
8531.3,-8.9729,-9.9678
8543,-7.3113,-8.414
8554.7,-7.2038,-9.0131
8566.4,-9.1674,-8.6914
8578.1,-7.04,-10.97
8589.8,-7.3036,-7.5468
8601.6,-10.559,-8.2542
8613.3,-10.426,-10.094
8625,-10.811,-8.6132
8636.7,-10.274,-9.4882
8648.4,-8.155,-14.277
8660.2,-7.2177,-9.4037
8671.9,-9.4757,-8.1364
8683.6,-14.95,-9.4236
8695.3,-12.419,-8.2313
8707,-7.9867,-7.0255
8718.8,-9.6512,-8.242
8730.5,-11.386,-7.4963
8742.2,-9.7921,-7.211
8753.9,-9.8684,-12.004
8765.6,-10.375,-13.467
8777.3,-10.759,-17.378
8789.1,-10.868,-13.262
8800.8,-10.932,-10.239
8812.5,-11.214,-9.0676
8824.2,-11.473,-7.6919
8835.9,-12.512,-10.844
8847.7,-14.031,-11.262
8859.4,-14.968,-10.977
8871.1,-13.927,-9.0873
8882.8,-9.9166,-8.6405
8894.5,-7.4844,-11.689
8906.3,-9.1262,-10.429
8918,-7.9234,-12.822
8929.7,-8.0856,-8.9624
8941.4,-9.701,-8.8471
8953.1,-11.804,-10.311
8964.8,-11.845,-12.078
8976.6,-12.18,-9.1074
8988.3,-8.9266,-10.018
9000,-6.2857,-12.811
9011.7,-8.0475,-10.307
9023.4,-11.299,-11.486
9035.2,-7.3294,-13.765
9046.9,-6.5204,-8.1652
9058.6,-9.831,-9.5843
9070.3,-10.18,-8.863
9082,-9.2223,-9.1024
9093.8,-10.192,-8.6254
9105.5,-8.645,-10.504
9117.2,-9.0919,-16.324
9128.9,-11.506,-12.456
9140.6,-10.56,-10.56
9152.3,-11.414,-12.078
9164.1,-11.247,-12.131
9175.8,-8.8405,-11.64
9187.5,-7.5343,-10.831
9199.2,-8.6143,-11.105
9210.9,-9.8491,-12.771
9222.7,-11.069,-12.602
9234.4,-11.267,-10.494
9246.1,-11.354,-9.5112
9257.8,-8.8135,-11.514
9269.5,-9.3267,-9.9643
9281.3,-10.886,-8.3076
9293,-13.088,-10.456
9304.7,-11.496,-9.6074
9316.4,-11.526,-11.389
9328.1,-12.792,-11.274
9339.8,-9.4034,-12.138
9351.6,-9.7618,-10.798
9363.3,-10.754,-10.765
9375,-10.025,-9.816
9386.7,-10.411,-9.8035
9398.4,-9.4677,-11.243
9410.2,-10.27,-11.8
9421.9,-8.6486,-8.6499
9433.6,-7.4202,-9.8422
9445.3,-10.709,-10.071
9457,-13.264,-11.127
9468.8,-12.373,-11.894
9480.5,-14.512,-15.761
9492.2,-12.402,-13.129
9503.9,-9.1325,-12.122
9515.6,-7.4116,-9.8783
9527.3,-8.8838,-9.9289
9539.1,-11.077,-8.5206
9550.8,-14.169,-11.639
9562.5,-11.728,-10.993
9574.2,-9.7101,-9.1663
9585.9,-10.748,-11.643
9597.7,-10.874,-10.18
9609.4,-11.048,-10.993
9621.1,-10.176,-12.148
9632.8,-10.924,-11.669
9644.5,-10.119,-11.933
9656.3,-10.751,-11.127
9668,-15.007,-11.304
9679.7,-13.411,-11.455
9691.4,-11.574,-13.751
9703.1,-8.8452,-12.499
9714.8,-10.912,-9.8295
9726.6,-12.473,-9.7848
9738.3,-15.642,-13.01
9750,-13.718,-12.599
9761.7,-10.152,-10.01
9773.4,-10.048,-10.35
9785.2,-12.546,-11.093
9796.9,-10.601,-13.314
9808.6,-11.081,-16.005
9820.3,-12.024,-11.999
9832,-13.977,-12.128
9843.8,-14.246,-11.659
9855.5,-12.293,-11.941
9867.2,-10.244,-13.413
9878.9,-9.9502,-12.302
9890.6,-11.363,-12.197
9902.3,-10.3,-13.097
9914.1,-10.682,-13.273
9925.8,-12.887,-13.343
9937.5,-13.809,-10.083
9949.2,-11.342,-10.158
9960.9,-10.487,-11.709
9972.7,-10.195,-7.8805
9984.4,-11.469,-8.6256
9996.1,-12.181,-12.589
10008,-12.882,-11.06
10020,-13.759,-10.436
10031,-12.701,-12.884
10043,-12.43,-10.786
10055,-10.946,-10.86
10066,-11.435,-10.329
10078,-8.413,-10.834
10090,-10.185,-13.529
10102,-12.406,-14.853
10113,-12.866,-10.089
10125,-10.455,-8.5728
10137,-12.908,-11.297
10148,-14.502,-15.161
10160,-13.933,-14.029
10172,-14.708,-13.391
10184,-14.322,-11.362
10195,-15.851,-13.023
10207,-14.094,-12.084
10219,-13.235,-11.803
10230,-13.294,-13.588
10242,-12.099,-10.568
10254,-12.592,-10.089
10266,-12.186,-14.495
10277,-10.356,-8.9387
10289,-9.931,-11.087
10301,-11.258,-13.278
10313,-12.203,-13.303
10324,-13.063,-13.832
10336,-14.567,-14.933
10348,-11.709,-13.268
10359,-9.2636,-14.027
10371,-10.254,-13.468
10383,-12.516,-13.671
10395,-12.719,-13.621
10406,-11.994,-12.89
10418,-12.176,-15.199
10430,-9.9487,-15.909
10441,-9.491,-14.279
10453,-9.0138,-12.358
10465,-11.095,-13
10477,-14.056,-13.258
10488,-12.604,-13.352
10500,-10.985,-13.72
10512,-9.5174,-13.065
10523,-11.168,-12.675
10535,-13.215,-13.021
10547,-13.571,-11.711
10559,-13.751,-11.729
10570,-14.235,-13.528
10582,-13.27,-14.962
10594,-11.775,-12.809
10605,-9.2913,-14.517
10617,-12.662,-14.819
10629,-12.162,-12.595
10641,-9.9726,-10.114
10652,-9.2204,-12.087
10664,-11.139,-12.956
10676,-11.712,-15.404
10688,-9.0755,-15.163
10699,-13.471,-15.308
10711,-13.187,-12.306
10723,-12.156,-13.32
10734,-10.08,-14.314
10746,-10.26,-13.145
10758,-14.478,-13.913
10770,-11.089,-12.65
10781,-9.6727,-11.049
10793,-7.8234,-13.521
10805,-10.705,-16.315
10816,-12.351,-13.411
10828,-11.313,-9.9175
10840,-11.102,-13.058
10852,-12.249,-16.989
10863,-11.027,-13.385
10875,-11.362,-13.634
10887,-10.423,-16.992
10898,-10.758,-13.642
10910,-12.958,-11.749
10922,-13.114,-13.63
10934,-14.439,-16.42
10945,-12.192,-18.676
10957,-11.668,-15.455
10969,-15.645,-12.852
10980,-13.732,-11.905
10992,-15.91,-14.866
11004,-13.851,-13.753
11016,-11.393,-15.091
11027,-12.413,-14.138
11039,-14.82,-13.353
11051,-12.334,-14.87
11063,-11.494,-13.063
11074,-13.955,-11.941
11086,-14.417,-13.334
11098,-11.254,-14.721
11109,-12.175,-13.809
11121,-13.376,-11.892
11133,-11.813,-12.487
11145,-10.925,-13.386
11156,-12.315,-12.969
11168,-12.047,-12.58
11180,-11.999,-13.347
11191,-12.538,-11.777
11203,-12.098,-13.553
11215,-11.582,-15.993
11227,-12.771,-14.231
11238,-14.182,-13.648
11250,-14.474,-12.492
11262,-14.39,-13.555
11273,-10.425,-13.586
11285,-8.1425,-13.999
11297,-10.844,-15.996
11309,-8.3894,-13.438
11320,-11.158,-13.861
11332,-13.312,-15.727
11344,-10.411,-14.002
11355,-9.69,-12.116
11367,-13.047,-12.919
11379,-12.279,-12.664
11391,-12.275,-13.79
11402,-10.832,-13.117
11414,-14.727,-11.985
11426,-15.163,-11.171
11438,-13.212,-15.47
11449,-14.016,-16.019
11461,-14.922,-15.272
11473,-12.372,-16.364
11484,-12.5,-15.391
11496,-13.737,-13.356
11508,-13.158,-14.474
11520,-13.197,-13.48
11531,-11.582,-12.402
11543,-10.974,-15.563
11555,-11.945,-17.126
11566,-12.653,-13.423
11578,-13.945,-12.269
11590,-13.937,-13.428
11602,-11.241,-14.531
11613,-12.312,-15.427
11625,-14.695,-14.824
11637,-16.692,-14.457
11648,-10.68,-14.888
11660,-12.2,-14.062
11672,-11.307,-12.228
11684,-13.692,-12.904
11695,-12.971,-13.622
11707,-13.72,-13.723
11719,-15.203,-16.991
11730,-13.038,-15.48
11742,-11.6,-15.465
11754,-13.929,-14.834
11766,-12.157,-15.312
11777,-14.486,-15.203
11789,-11.591,-15.663
11801,-9.9249,-16.589
11813,-8.2884,-13.391
11824,-8.705,-13.624
11836,-10.933,-14.457
11848,-12.308,-13.824
11859,-13.242,-16.311
11871,-14.013,-18.517
11883,-15.802,-16.416
11895,-12.18,-14.71
11906,-12.345,-15.383
11918,-13.708,-17.637
11930,-13.517,-15.675
11941,-11.244,-15.55
11953,-11.533,-16.556
11965,-14.108,-16.119
11977,-11.997,-13.65
11988,-11.114,-12.473
12000,-12.598,-14.01
12012,-12.672,-12.422
12023,-13.248,-12.671
12035,-13.262,-13.711
12047,-14.068,-11.657
12059,-15.659,-14.918
12070,-12.39,-17.696
12082,-13.133,-15.759
12094,-13.376,-13.484
12105,-14.47,-14.691
12117,-14.606,-15.441
12129,-14.45,-13.917
12141,-13.603,-11.833
12152,-16.895,-11.852
12164,-16.978,-11.355
12176,-14.573,-13.911
12188,-11.893,-16.678
12199,-11.181,-15.886
12211,-14.455,-16.119
12223,-14.599,-17.078
12234,-15.617,-15.325
12246,-11.998,-15.284
12258,-10.191,-14.396
12270,-12.185,-14.201
12281,-13.227,-17.346
12293,-11.713,-13.332
12305,-13.6,-13.084
12316,-13.113,-16.112
12328,-11.276,-15.596
12340,-11.563,-14.836
12352,-10.351,-14.032
12363,-9.8556,-14.488
12375,-12.813,-14.723
12387,-14.928,-14.474
12398,-16.8,-14.613
12410,-13.458,-13.205
12422,-11.754,-12.941
12434,-11.779,-14.762
12445,-15.41,-15.552
12457,-13.514,-14.767
12469,-14.079,-15.356
12480,-14.647,-19.03
12492,-17.17,-14.974
12504,-12.896,-10.71
12516,-11.764,-14.039
12527,-13.649,-13.133
12539,-14.106,-11.441
12551,-10.219,-13.122
12563,-9.4991,-14.538
12574,-10.763,-13.897
12586,-12.986,-12.361
12598,-14.373,-14.289
12609,-14.427,-15.742
12621,-11.128,-14.296
12633,-9.2818,-13.982
12645,-13.461,-15.697
12656,-13.544,-17.052
12668,-14.875,-16.586
12680,-11.892,-16.074
12691,-10.595,-16.511
12703,-12.876,-14.247
12715,-14.219,-14.004
12727,-14.965,-13.67
12738,-14.382,-15.53
12750,-15.28,-16.799
12762,-13.895,-19.505
12773,-9.8309,-15.182
12785,-10.094,-15.374
12797,-10.965,-18.932
12809,-13.204,-16.649
12820,-14.308,-17.486
12832,-14.786,-14.54
12844,-11.759,-14.72
12855,-9.9144,-16.311
12867,-11.535,-16.613
12879,-12.969,-16.177
12891,-12.407,-15.912
12902,-11.955,-17.015
12914,-11.437,-18.7
12926,-14.067,-16.443
12938,-19.58,-15.683
12949,-16.191,-18.754
12961,-15.03,-18.405
12973,-12.713,-14.838
12984,-9.9013,-13.855
12996,-8.9132,-17.484
13008,-12.842,-17.143
13020,-14.294,-14.816
13031,-12.942,-15.178
13043,-13.196,-16.371
13055,-12.372,-15.835
13066,-13.342,-13.413
13078,-12.363,-13.843
13090,-11.103,-14.05
13102,-12.02,-15.265
13113,-16.525,-16.131
13125,-16.865,-20.411
13137,-16.724,-13.411
13148,-15.035,-12.071
13160,-10.653,-16.488
13172,-10.571,-16.091
13184,-15.399,-14.834
13195,-14.711,-16.524
13207,-13.326,-15.135
13219,-12.973,-16.954
13230,-14.238,-18.925
13242,-17.789,-17.974
13254,-12.698,-17.881
13266,-10.954,-16.619
13277,-12.365,-18.207
13289,-15.689,-17.707
13301,-15.485,-14.435
13313,-14.506,-14.075
13324,-14.792,-13.113
13336,-14.708,-14.114
13348,-14.426,-14.421
13359,-13.327,-14.46
13371,-13.639,-19.231
13383,-16.335,-18.552
13395,-14.808,-19.155
13406,-13.544,-19.549
13418,-12.236,-18.267
13430,-14.5,-16.033
13441,-14.715,-16.6
13453,-13.906,-19.599
13465,-14.462,-16.055
13477,-15.68,-17.72
13488,-15.184,-17.801
13500,-17.774,-16.551
13512,-17.113,-17.685
13523,-16.873,-15.63
13535,-16.22,-12.13
13547,-14.564,-13.143
13559,-13.694,-14.29
13570,-14.025,-17.633
13582,-14.279,-18.052
13594,-13.419,-16.562
13605,-12.727,-16.648
13617,-11.758,-21.187
13629,-14.263,-20.75
13641,-13.845,-16.659
13652,-13.199,-18.875
13664,-13.028,-19.421
13676,-14.815,-16.21
13688,-16.1,-14.778
13699,-13.469,-14.628
13711,-11.507,-16.734
13723,-14.26,-19.816
13734,-17.079,-18.927
13746,-15.076,-15.209
13758,-14.157,-12.528
13770,-14.232,-14.433
13781,-15.482,-14.6
13793,-15.224,-14.6
13805,-17.079,-16.385
13816,-15.908,-18.477
13828,-13.67,-19.445
13840,-16.547,-18.245
13852,-18.414,-16.816
13863,-16.472,-17.095
13875,-15.539,-16.134
13887,-15.136,-14.52
13898,-14.6,-15.897
13910,-14.611,-15.67
13922,-14.859,-19.129
13934,-14.911,-16.86
13945,-14.317,-16.454
13957,-12.327,-17.644
13969,-13.639,-16.271
13980,-17.339,-14.914
13992,-16.854,-16.607
14004,-17.904,-18.61
14016,-16.613,-18.275
14027,-17.314,-20.037
14039,-16.883,-19.202
14051,-17.832,-17.947
14063,-18.913,-19.176
14074,-12.928,-16.806
14086,-11.703,-15.477
14098,-14.142,-20.382
14109,-14.22,-16.19
14121,-16.141,-16.526
14133,-15.04,-19.725
14145,-14.081,-17.041
14156,-15.564,-17.128
14168,-17.395,-18.379
14180,-16.065,-16.645
14191,-15.441,-15.2
14203,-17.392,-17.672
14215,-18.035,-15.741
14227,-16.929,-13.641
14238,-17.438,-13.713
14250,-18.178,-16.504
14262,-17.946,-17.914
14273,-19.025,-18.194
14285,-17.131,-17.567
14297,-17.284,-15.39
14309,-18.191,-17.149
14320,-15.849,-17.337
14332,-15.102,-16.592
14344,-15.693,-15.857
14355,-15.019,-16.796
14367,-14.882,-14.716
14379,-18.675,-13.052
14391,-13.531,-14.511
14402,-15.201,-16.778
14414,-18.817,-17.474
14426,-17.272,-18.911
14438,-16.162,-14.697
14449,-16.656,-16.238
14461,-16.114,-16.446
14473,-17.271,-17.355
14484,-17.678,-18.534
14496,-16.587,-16.611
14508,-16.625,-15.172
14520,-17.617,-16.608
14531,-13.883,-19.257
14543,-14.083,-20.962
14555,-13.785,-18.159
14566,-14.718,-16.309
14578,-16.761,-18.242
14590,-14.74,-15.692
14602,-14.571,-15.431
14613,-16.578,-18.269
14625,-18.227,-18.933
14637,-17.848,-22.201
14648,-18.699,-18.458
14660,-17.592,-18.607
14672,-17.461,-16.248
14684,-17.058,-15.713
14695,-16.766,-18.376
14707,-14.847,-17.004
14719,-15.079,-17.813
14730,-21.387,-19.589
14742,-20.631,-19.5
14754,-16.695,-18.396
14766,-18.468,-22.088
14777,-17.699,-17.357
14789,-16.727,-16.453
14801,-18.801,-14.204
14813,-21.621,-16.039
14824,-21.125,-17.536
14836,-19.319,-17.637
14848,-16.194,-16.495
14859,-14.409,-17.583
14871,-15.715,-19.306
14883,-15.841,-19.845
14895,-13.963,-18.143
14906,-14.447,-17.559
14918,-15.113,-19.645
14930,-19.089,-19.882
14941,-19.829,-17.942
14953,-17.891,-18.141
14965,-18.03,-17.756
14977,-18.488,-18.123
14988,-18.376,-20.146
15000,-17.609,-17.715
15012,-17.072,-17.434
15023,-14.386,-18.782
15035,-8.8825,-14.608
15047,-6.7468,-13.889
15059,-12.909,-18.348
15070,-20.132,-20.493
15082,-16.2,-18.816
15094,-16.742,-20.226
15105,-19.36,-19.296
15117,-22.573,-20.567
15129,-17.666,-18.941
15141,-14.999,-20.638
15152,-15.99,-18.244
15164,-18.982,-17.122
15176,-20.321,-18.857
15188,-17.005,-19.088
15199,-15.905,-20.582
15211,-17.251,-20.26
15223,-19.368,-22.341
15234,-18.344,-21.675
15246,-18.251,-18.095
15258,-18.506,-18.294
15270,-17.252,-17.991
15281,-17.889,-16.255
15293,-20.866,-15.681
15305,-19.707,-16.544
15316,-18.23,-19.074
15328,-18.926,-20.575
15340,-18.318,-20.939
15352,-14.41,-20.034
15363,-16.301,-20.601
15375,-19.889,-22.891
15387,-20.724,-20.817
15398,-18.261,-18.798
15410,-19.383,-20.346
15422,-18.153,-18.569
15434,-20.323,-22.303
15445,-17.035,-20.109
15457,-15.227,-17.858
15469,-17.225,-17.405
15480,-18.601,-22.886
15492,-18.129,-22.697
15504,-17.171,-19.281
15516,-18.772,-16.292
15527,-19.373,-17.706
15539,-16.004,-18.653
15551,-15.601,-16.568
15563,-19.095,-19.419
15574,-18.829,-21.261
15586,-18.79,-18.855
15598,-19.376,-18.466
15609,-15.681,-18.739
15621,-17.24,-19.255
15633,-17.84,-19.95
15645,-17.601,-19.764
15656,-18.827,-22.748
15668,-16.009,-19.887
15680,-15.3,-18.491
15691,-17.791,-20.582
15703,-20.726,-19.906
15715,-20.249,-17.399
15727,-19.076,-17.681
15738,-18.224,-20.141
15750,-15.326,-23.72
15762,-15.217,-23.632
15773,-15.165,-20.85
15785,-17.163,-19.258
15797,-19.719,-17.94
15809,-19.793,-18.474
15820,-18.742,-19.538
15832,-20.826,-19.444
15844,-20.982,-20.906
15855,-22.531,-21.283
15867,-21.18,-19.851
15879,-19.647,-16.803
15891,-16.816,-17.068
15902,-17.988,-19.974
15914,-18.175,-20.201
15926,-18.795,-17.468
15938,-19.759,-20.092
15949,-19.176,-22.029
15961,-19.138,-18.914
15973,-19.7,-18.754
15984,-16.613,-22.223
15996,-17.112,-21.871
16008,-17.085,-21.914
16020,-20.859,-21.924
16031,-23.342,-18.843
16043,-20.029,-18.186
16055,-20.764,-22.489
16066,-19.856,-21.098
16078,-20.502,-24.436
16090,-19.138,-19.526
16102,-19.287,-17.545
16113,-18.644,-18.035
16125,-18.332,-18.577
16137,-19.582,-18.294
16148,-20.655,-24.286
16160,-23.752,-21.959
16172,-21.004,-22.346
16184,-20.053,-21.237
16195,-20.675,-17.968
16207,-20.878,-18.149
16219,-19.769,-19.601
16230,-19.346,-21.558
16242,-18.349,-22.385
16254,-16.486,-21.004
16266,-18.718,-20.474
16277,-18.337,-25.997
16289,-19.137,-22.871
16301,-18.647,-21.253
16313,-19.731,-20.471
16324,-20.792,-21.593
16336,-21.639,-19.907
16348,-18.013,-18.979
16359,-17.21,-18.757
16371,-18.359,-17.914
16383,-19.488,-17.654
16395,-21.08,-20.599
16406,-18.642,-22.929
16418,-18.023,-25.088
16430,-20.133,-22.09
16441,-22.314,-18.522
16453,-22.03,-21.296
16465,-21.872,-24.412
16477,-19.491,-22.446
16488,-19.487,-21.92
16500,-20.359,-24.438
16512,-22.46,-24.653
16523,-21.143,-26.554
16535,-21.09,-23.154
16547,-19.454,-20.147
16559,-18.349,-19.939
16570,-20.428,-20.522
16582,-20.732,-20.577
16594,-21.315,-21.061
16605,-21.092,-22.016
16617,-22.146,-20.133
16629,-22.137,-18.031
16641,-25.251,-21.083
16652,-19.695,-21.653
16664,-18.158,-21.777
16676,-20.854,-21.446
16688,-22.383,-26.387
16699,-19.88,-25.723
16711,-18.266,-21.808
16723,-19.397,-20.8
16734,-20.739,-21.06
16746,-19.467,-22.007
16758,-18.378,-20.855
16770,-21.828,-21.418
16781,-21.344,-24.374
16793,-20.478,-21.183
16805,-19.802,-18.14
16816,-21.496,-20.02
16828,-22.863,-21.813
16840,-21.13,-24.218
16852,-19.564,-22.658
16863,-18.968,-19.607
16875,-22.089,-20.49
16887,-21.271,-21.676
16898,-21.991,-20.481
16910,-22.532,-21.983
16922,-22.535,-21.093
16934,-20.291,-20.051
16945,-22.81,-22.655
16957,-21.976,-19.337
16969,-20.78,-24.273
16980,-20.909,-19.456
16992,-21.378,-20.115
17004,-18.227,-22.931
17016,-17.669,-22.032
17027,-20.772,-19.584
17039,-22.852,-22.602
17051,-24.806,-24.597
17063,-21.293,-20.626
17074,-20.729,-20.312
17086,-19.54,-22.158
17098,-17.192,-21.867
17109,-17.388,-21.332
17121,-20.947,-20.763
17133,-21.063,-19.568
17145,-18.325,-17.908
17156,-18.453,-18.012
17168,-21.025,-18.98
17180,-23.143,-20.622
17191,-20.113,-22.323
17203,-18.865,-18.731
17215,-21.654,-17.367
17227,-22.622,-22.406
17238,-19.922,-22.203
17250,-19.074,-21.434
17262,-20.593,-20.959
17273,-21.427,-20.753
17285,-23.225,-21.42
17297,-21.642,-19.721
17309,-20.266,-21.34
17320,-18.489,-23.316
17332,-18.666,-23.693
17344,-20.564,-21.012
17355,-18.991,-19.309
17367,-19.85,-20.411
17379,-21.06,-19.998
17391,-21.791,-18.499
17402,-21.519,-19.767
17414,-21.764,-24.472
17426,-22.893,-23.327
17438,-21.616,-22.859
17449,-21.236,-23.291
17461,-20.251,-21.045
17473,-21.534,-22.767
17484,-19.17,-21.344
17496,-19.656,-22.085
17508,-22.738,-21.606
17520,-22.698,-21.49
17531,-21.69,-21.049
17543,-21.609,-21.801
17555,-21.382,-23.485
17566,-21.371,-23.069
17578,-22.814,-22.885
17590,-23.066,-23.799
17602,-18.449,-22.158
17613,-19.015,-24.893
17625,-23.679,-26.305
17637,-24.832,-23.212
17648,-23.221,-25.734
17660,-21.663,-22.759
17672,-20.635,-23.666
17684,-21.186,-24.266
17695,-23.446,-22.366
17707,-24.951,-21.618
17719,-23.387,-21.228
17730,-22.685,-22.555
17742,-21.314,-21.437
17754,-21.74,-22.524
17766,-21.194,-22.623
17777,-22.729,-19.898
17789,-20.592,-21
17801,-20.578,-20.585
17813,-23.548,-20.985
17824,-25.547,-22.175
17836,-23.249,-22.083
17848,-22.544,-22.098
17859,-22.652,-22.633
17871,-21.392,-20.565
17883,-24.946,-20.765
17895,-25.035,-20.293
17906,-23.693,-19.777
17918,-19.705,-22.4
17930,-21.29,-24.505
17941,-22.608,-22.969
17953,-21.434,-21.386
17965,-21.697,-21.275
17977,-21.114,-23.365
17988,-21.275,-23.002
18000,-23.929,-20.459
18012,-26.022,-23.872
18023,-24.681,-22.861
18035,-24.029,-19.73
18047,-25.217,-22.178
18059,-23.832,-24.642
18070,-23.085,-23.043
18082,-19.448,-22.408
18094,-21.037,-22.292
18105,-21.4,-21.974
18117,-22.911,-21.821
18129,-23.522,-22.164
18141,-22.78,-23.278
18152,-24.881,-21.877
18164,-23.139,-20.728
18176,-22.15,-22.864
18188,-21.798,-23.168
18199,-23.056,-18.978
18211,-19.693,-20.537
18223,-20.909,-25.255
18234,-25.082,-24.378
18246,-21.852,-24.788
18258,-22.447,-24.221
18270,-22.252,-21.448
18281,-23.607,-22.851
18293,-23.338,-24.337
18305,-22.948,-21.402
18316,-23.044,-18.917
18328,-21.881,-22.418
18340,-22.007,-22.941
18352,-22.233,-23.599
18363,-22.145,-24.269
18375,-23.577,-23.609
18387,-22.694,-21.161
18398,-23.589,-23.582
18410,-26.593,-23.801
18422,-23.378,-25.229
18434,-22.585,-21.315
18445,-24.767,-18.748
18457,-24.765,-22.305
18469,-24.785,-23.794
18480,-22.76,-23.818
18492,-23.307,-22.01
18504,-22.406,-20.7
18516,-26.136,-23.432
18527,-24.813,-26.329
18539,-23.178,-24.595
18551,-23.431,-24.621
18563,-23.929,-22.856
18574,-24.93,-23.196
18586,-24.809,-24.582
18598,-24.575,-25.631
18609,-22.26,-24.155
18621,-22.749,-23.43
18633,-25.325,-22.642
18645,-24.801,-25.618
18656,-25.927,-24.659
18668,-25.459,-22.065
18680,-23.357,-24.488
18691,-23.39,-24.119
18703,-25.042,-22.893
18715,-26.043,-21.964
18727,-24.524,-22.057
18738,-23.345,-24.014
18750,-24.443,-23.881
18762,-27.006,-26.35
18773,-25.654,-23.498
18785,-23.358,-22.677
18797,-20.773,-24.631
18809,-22.686,-27.148
18820,-23.783,-26.615
18832,-24.829,-25.658
18844,-23.194,-24.719
18855,-23.027,-22.972
18867,-23.033,-23.435
18879,-22.38,-24.392
18891,-25.619,-22.969
18902,-24.975,-24.78
18914,-24.56,-27.221
18926,-25.218,-22.646
18938,-24.103,-22.296
18949,-27.456,-24.444
18961,-23.959,-22.927
18973,-24.16,-23.121
18984,-27.271,-24.57
18996,-25.943,-22.724
19008,-26.988,-23.945
19020,-26.925,-25.968
19031,-23.644,-24.891
19043,-23.355,-23.543
19055,-21.874,-24.519
19066,-23.04,-26.514
19078,-24.08,-23.363
19090,-22.884,-21.902
19102,-24.712,-22.692
19113,-25.782,-21.779
19125,-25.045,-22.756
19137,-24.507,-22.563
19148,-23.194,-21.886
19160,-23.445,-25.106
19172,-25.219,-23.649
19184,-25.328,-23.453
19195,-26.681,-23.443
19207,-25.584,-24.041
19219,-25.43,-24.754
19230,-23.81,-25.461
19242,-25.215,-26.078
19254,-24.259,-23.313
19266,-22.323,-21.451
19277,-23.847,-22.727
19289,-27.406,-24.7
19301,-25.923,-27.367
19313,-24.085,-26.674
19324,-24.652,-24.905
19336,-25.091,-24.038
19348,-27.944,-22.786
19359,-28.516,-24.061
19371,-24.712,-24.997
19383,-22.762,-25.875
19395,-23.061,-26.862
19406,-24.395,-22.096
19418,-25.488,-20.701
19430,-27.358,-22.882
19441,-23.695,-24.145
19453,-21.746,-25.51
19465,-22.531,-27.928
19477,-21.782,-24.549
19488,-21.806,-24.328
19500,-22.598,-23.931
19512,-22.311,-25.458
19523,-23.406,-25.586
19535,-24.93,-24.795
19547,-24.339,-26.357
19559,-22.347,-26.065
19570,-21.903,-25.452
19582,-21.589,-26.479
19594,-23.107,-25.329
19605,-29.478,-25.549
19617,-22.834,-26.286
19629,-24.185,-23.819
19641,-24.381,-23.106
19652,-23.576,-25.618
19664,-25.312,-27.736
19676,-24.548,-27.816
19688,-24.124,-28.348
19699,-26.307,-28.76
19711,-24.962,-24.356
19723,-26.976,-23.845
19734,-27.071,-28.301
19746,-26.541,-24.952
19758,-25.458,-23.625
19770,-24.113,-23.614
19781,-26.826,-24.556
19793,-23.763,-27.806
19805,-22.905,-26.321
19816,-26.511,-26.802
19828,-28.443,-27.061
19840,-25.618,-23.505
19852,-23.179,-24.595
19863,-24.788,-26
19875,-23.023,-24.775
19887,-24.138,-26.212
19898,-26.26,-25.693
19910,-25.374,-24.747
19922,-24.807,-26.047
19934,-27.184,-24.863
19945,-22.48,-25.24
19957,-20.702,-21.045
19969,-24.325,-20.934
19980,-26.723,-23.032
19992,-27.723,-24.15
20004,-26.875,-26.978
20016,-23.055,-26.089
20027,-25.746,-25.661
20039,-25.744,-27.83
20051,-24.542,-27.822
20063,-26.241,-27.168
20074,-26.159,-26.831
20086,-24.288,-24.809
20098,-25.057,-25.712
20109,-23.958,-26.542
20121,-23.009,-25.524
20133,-23.238,-24.132
20145,-25.388,-22.428
20156,-25.301,-23.39
20168,-24.581,-27.518
20180,-24.557,-28.636
20191,-24.737,-29.732
20203,-25.253,-26.546
20215,-23.095,-25.955
20227,-22.862,-25.272
20238,-26.48,-27.117
20250,-26.042,-28.771
20262,-23.601,-28.909
20273,-25.27,-28.698
20285,-26.637,-28.585
20297,-25.915,-26.23
20309,-24.363,-28.815
20320,-23.576,-26.559
20332,-25.721,-24.111
20344,-28.454,-24.243
20355,-29.2,-25.367
20367,-29.241,-24.786
20379,-26.963,-24.252
20391,-25.177,-24.902
20402,-23.035,-25.365
20414,-24.316,-24.471
20426,-27.739,-25.601
20438,-25.695,-26.624
20449,-24.226,-27.403
20461,-24.8,-26.041
20473,-25.121,-24.491
20484,-24.818,-24.455
20496,-29.36,-23.744
20508,-25.804,-26.867
20520,-25.567,-28.098
20531,-25.104,-24.618
20543,-24.984,-27.479
20555,-25.023,-29.623
20566,-27.317,-27.3
20578,-26.177,-27.732
20590,-25.263,-26.702
20602,-24.519,-27.261
20613,-26.986,-27.243
20625,-27.378,-25.252
20637,-25.662,-24.286
20648,-24.473,-23.677
20660,-25.518,-26.405
20672,-29.342,-25.994
20684,-25.509,-27.765
20695,-24.121,-26.472
20707,-24.803,-24.365
20719,-25.726,-26.31
20730,-24.956,-25.252
20742,-25.055,-25.389
20754,-25.511,-23.341
20766,-26.653,-25.224
20777,-25.755,-27.113
20789,-24.119,-26.396
20801,-26.965,-27.285
20813,-27.94,-28.875
20824,-27.381,-27.049
20836,-26.213,-25.838
20848,-25.202,-24.541
20859,-24.019,-26.769
20871,-29.609,-27.078
20883,-27.277,-27.842
20895,-26.429,-26.548
20906,-25.679,-23.621
20918,-24.483,-26.947
20930,-27.3,-30.736
20941,-24.986,-27.888
20953,-26.692,-23.957
20965,-27.505,-25.892
20977,-26.005,-27.043
20988,-26.279,-25.968
21000,-27.329,-25.204
21012,-24.124,-29.786
21023,-25.871,-24.177
21035,-26.43,-26.983
21047,-24.456,-23.682
21059,-23.866,-25.549
21070,-24.281,-25.14
21082,-24.534,-22.516
21094,-26.282,-25.518
21105,-22.517,-25.769
21117,-23.607,-26.472
21129,-26.258,-25.686
21141,-26.369,-24.09
21152,-27.074,-23.264
21164,-29.188,-23.867
21176,-28.28,-25.407
21188,-28.698,-24.985
21199,-25.65,-27.655
21211,-22.975,-27.389
21223,-25.381,-27.112
21234,-27.896,-29.844
21246,-28.907,-26.081
21258,-28.513,-27.2
21270,-24.531,-30.106
21281,-25.428,-26.608
21293,-27.218,-25.999
21305,-25.816,-27.986
21316,-27.307,-27.077
21328,-25.563,-27.447
21340,-26.496,-25.587
21352,-29.208,-23.64
21363,-27.285,-25.117
21375,-25.982,-25.21
21387,-27.571,-25.152
21398,-27.859,-28.457
21410,-31.375,-29.978
21422,-26.994,-26.083
21434,-25.312,-22.934
21445,-25.78,-26.038
21457,-26.28,-28.498
21469,-29.616,-27.937
21480,-31.764,-28.644
21492,-31.875,-25.592
21504,-28.162,-27.102
21516,-24.708,-30.961
21527,-24.081,-31.088
21539,-23.381,-26.65
21551,-26.504,-26.39
21563,-22.338,-26.019
21574,-22.537,-25.624
21586,-26.997,-28.178
21598,-25.891,-27.277
21609,-26.246,-24.155
21621,-25.694,-25.663
21633,-24.645,-29.056
21645,-27.567,-28.535
21656,-27.911,-24.416
21668,-26.292,-24.783
21680,-26.022,-28.562
21691,-26.067,-29.509
21703,-26.744,-28.367
21715,-25.722,-25.922
21727,-25.478,-27.458
21738,-26.731,-29.221
21750,-27.382,-29.391
21762,-27.566,-24.639
21773,-26.976,-25.271
21785,-27.924,-28.99
21797,-25.87,-32.999
21809,-22.671,-31.143
21820,-25.161,-30.745
21832,-30.509,-28.211
21844,-26.599,-27.086
21855,-25.622,-27.481
21867,-25.721,-28.346
21879,-25.362,-29.4
21891,-24.513,-29.007
21902,-25.706,-27.633
21914,-27.378,-26.673
21926,-26.325,-28.189
21938,-24.708,-28.012
21949,-25.557,-25.788
21961,-29.604,-28.191
21973,-28.329,-32.296
21984,-28.832,-29.917
21996,-25.707,-24.391
22008,-27.208,-25.711
22020,-28.934,-28.135
22031,-26.168,-28.28
22043,-23.892,-27.138
22055,-23.625,-24.844
22066,-24.717,-26.006
22078,-27.886,-27.554
22090,-25.611,-26.325
22102,-24.321,-28.445
22113,-27.227,-28.38
22125,-27.939,-25.132
22137,-30.578,-26.862
22148,-28.284,-28.475
22160,-26.828,-27.063
22172,-25.608,-31.102
22184,-25.176,-28.308
22195,-27.644,-27.545
22207,-28.141,-29.325
22219,-27.548,-29.427
22230,-27.873,-29.208
22242,-29.675,-32.449
22254,-27.856,-28.619
22266,-28.203,-25.667
22277,-29.625,-25.893
22289,-28.693,-27.42
22301,-27.402,-28.306
22313,-26.631,-28.342
22324,-26.676,-27.117
22336,-27.863,-26.736
22348,-27.783,-27.942
22359,-25.667,-28.414
22371,-25.024,-26.775
22383,-24.902,-28.236
22395,-27.552,-27.746
22406,-27.164,-28.674
22418,-26.649,-27.494
22430,-28.591,-27.629
22441,-26,-26.886
22453,-27.158,-26.024
22465,-29.523,-25.444
22477,-25.478,-29.696
22488,-25.172,-30.755
22500,-27.151,-26.243
22512,-25.676,-24.267
22523,-28.756,-25.369
22535,-30.863,-24.401
22547,-27.892,-23.7
22559,-24.157,-25.487
22570,-22.548,-26.898
22582,-27.952,-26.214
22594,-28.267,-26.101
22605,-25.386,-25.677
22617,-25.312,-26.493
22629,-28.023,-28.247
22641,-28.545,-28.714
22652,-28.306,-27.347
22664,-27.136,-29.524
22676,-26.776,-28.258
22688,-28.14,-27.233
22699,-28.387,-28.629
22711,-29.471,-29.95
22723,-31.062,-31.648
22734,-30.642,-32.643
22746,-28.035,-33.089
22758,-25.789,-30.108
22770,-24.286,-26.204
22781,-24.186,-27.275
22793,-25.567,-30.646
22805,-25.473,-28.292
22816,-29.629,-25.46
22828,-32.056,-26.975
22840,-28.501,-30.093
22852,-25.629,-29.806
22863,-25.166,-27.151
22875,-26.524,-26.097
22887,-26.63,-27.268
22898,-26.489,-30.344
22910,-25.794,-30.002
22922,-27.679,-29.889
22934,-27.47,-28.83
22945,-26.922,-29.669
22957,-27.33,-28.667
22969,-28.485,-28.085
22980,-29.329,-28.999
22992,-28.719,-25.406
23004,-26.59,-25.082
23016,-28.235,-29.161
23027,-27.146,-28.158
23039,-26.702,-27.815
23051,-26.74,-26.793
23063,-28.484,-28.264
23074,-26.902,-27.041
23086,-26.73,-27.739
23098,-25.295,-28.958
23109,-24.877,-27.912
23121,-27.402,-26.942
23133,-28.434,-27.886
23145,-27.952,-27.332
23156,-26.987,-26.604
23168,-28.534,-26.756
23180,-28.653,-24.094
23191,-27.299,-24.234
23203,-26.248,-25.48
23215,-27.887,-26.368
23227,-28.343,-25.44
23238,-28.814,-25.5
23250,-27.087,-28.702
23262,-26.187,-30.327
23273,-28.652,-32.019
23285,-29.634,-25.835
23297,-30.088,-26.238
23309,-30.814,-26.173
23320,-27.987,-25.39
23332,-26.197,-31.583
23344,-25.948,-29.518
23355,-28.229,-26.788
23367,-25.881,-26.964
23379,-27.918,-26.588
23391,-31.352,-26.925
23402,-28.325,-28.834
23414,-30.296,-27.483
23426,-27.144,-25.858
23438,-27.163,-27.534
23449,-28.727,-26.685
23461,-24.024,-26.151
23473,-24.893,-27.063
23484,-29.453,-30.683
23496,-27.355,-28.178
23508,-27.749,-29.987
23520,-29.017,-32.475
23531,-28.746,-30.6
23543,-30.106,-28.573
23555,-30.064,-28.408
23566,-27.462,-29.617
23578,-29.26,-31.129
23590,-31.586,-24.913
23602,-31.505,-25.742
23613,-29.11,-29.328
23625,-28.676,-28.291
23637,-27.904,-31.322
23648,-26.723,-28.139
23660,-27.68,-26.572
23672,-27.728,-27.892
23684,-29.52,-28.524
23695,-29.334,-28.251
23707,-32.417,-27.139
23719,-29.52,-26.362
23730,-28.948,-28.865
23742,-27.136,-30.441
23754,-25.423,-27.372
23766,-28.531,-29.222
23777,-27.809,-30.905
23789,-27.869,-29.245
23801,-29.371,-28.884
23813,-25.227,-32.164
23824,-25.933,-30.126
23836,-28.881,-26.019
23848,-28.497,-29.22
23859,-29.754,-33.222
23871,-27.795,-31.055
23883,-27.769,-27.642
23895,-27.608,-29.863
23906,-26.086,-27.373
23918,-25.316,-28.589
23930,-26.594,-31.718
23941,-27.906,-29.497
23953,-23.477,-27.648
23965,-16.032,-29.663
23977,-16.305,-31.486
23988,-28.046,-28.023
