FFT,Power Spectrum
Frequency[Hz],Level-L[dB],Level-R[dB]
11.719,-22.529,-11.182
23.438,-2.1362,6.1164
35.156,-1.7595,12.276
46.875,-1.3436,17.942
58.594,0.98918,21.751
70.313,4.1958,23.142
82.031,3.1124,24.619
93.75,13.591,28.89
105.47,14.836,27.473
117.19,6.6429,25.879
128.91,11.691,27.06
140.63,14.442,26.328
152.34,9.8232,26.186
164.06,7.0074,26.957
175.78,6.4751,25.028
187.5,11.239,25.093
199.22,12.549,28.199
210.94,6.1628,29.662
222.66,6.8581,30.056
234.38,9.3374,30.595
246.09,6.0073,29.283
257.81,0.014461,30.308
269.53,5.071,30.572
281.25,9.3138,31.863
292.97,9.4249,30.485
304.69,5.0365,32.465
316.41,4.4354,35.467
328.13,5.925,31.976
339.84,5.9994,29.795
351.56,7.9933,32.55
363.28,8.078,31.369
375,6.7007,31.788
386.72,7.0479,33.718
398.44,5.2363,33.738
410.16,4.9423,34.105
421.88,5.6486,33.26
433.59,5.819,33.467
445.31,6.0718,32.592
457.03,4.85,35.279
468.75,2.5426,35.837
480.47,3.5324,33.214
492.19,4.0984,32.78
503.91,5.4541,33.393
515.63,9.349,35.421
527.34,8.8946,37.926
539.06,8.7019,35.682
550.78,8.5273,33.835
562.5,6.9327,34.84
574.22,4.9129,36.052
585.94,4.8281,35.727
597.66,3.0926,34.513
609.38,3.5606,32.039
621.09,4.2442,35.834
632.81,3.0616,33.172
644.53,4.7758,35.16
656.25,6.9317,36.486
667.97,5.8768,34.282
679.69,6.7919,33.893
691.41,6.5767,37.127
703.13,5.1267,36.379
714.84,4.3913,35.108
726.56,6.6197,32.178
738.28,8.4034,31.509
750,9.027,33.617
761.72,7.9183,34.117
773.44,6.1203,33.329
785.16,5.7315,32.207
796.88,7.5207,33.989
808.59,9.4079,35.047
820.31,7.5223,37.765
832.03,5.1331,35.391
843.75,5.4022,32.156
855.47,5.2191,34.82
867.19,6.3192,36.726
878.91,5.3941,38.277
890.63,4.9522,38.119
902.34,4.3812,38.771
914.06,1.6963,36.108
925.78,4.0544,34.18
937.5,7.429,34.605
949.22,7.2314,36.253
960.94,5.8862,33.854
972.66,7.2703,33.683
984.38,8.6234,34.123
996.09,6.7384,32.021
1007.8,7.3827,34.144
1019.5,9.1816,35.542
1031.3,8.4955,38.607
1043,7.9746,37.974
1054.7,7.3194,30.165
1066.4,5.5283,36.044
1078.1,6.8266,36.786
1089.8,5.7294,36.026
1101.6,8.1328,36.567
1113.3,7.8526,36.997
1125,5.5738,34.597
1136.7,5.6953,35.723
1148.4,6.3895,34.706
1160.2,4.4485,34.349
1171.9,3.4251,34.599
1183.6,1.1484,32.923
1195.3,3.3269,34.34
1207,3.5858,36.206
1218.8,3.5822,34.126
1230.5,0.76246,32.973
1242.2,2.7749,34.867
1253.9,4.2196,35.182
1265.6,2.6485,33.06
1277.3,2.9123,35.231
1289.1,6.0405,33.801
1300.8,6.2368,31.956
1312.5,5.6138,34.27
1324.2,4.5895,32.316
1335.9,4.6734,33.039
1347.7,2.5453,31.273
1359.4,2.452,31.384
1371.1,1.2807,32.432
1382.8,5.3416,35.368
1394.5,6.4439,36.076
1406.3,6.4866,34.239
1418,6.2495,33.947
1429.7,4.5235,33.636
1441.4,7.7788,32.27
1453.1,6.4938,33.205
1464.8,5.0708,35.004
1476.6,3.0151,33.432
1488.3,6.3373,34.751
1500,6.7915,34.183
1511.7,5.5042,33.194
1523.4,4.9218,34.101
1535.2,7.9449,34.396
1546.9,6.7191,32.762
1558.6,3.0893,34.168
1570.3,5.9176,36.066
1582,8.4779,35.089
1593.8,5.8475,34.589
1605.5,5.1209,32.696
1617.2,6.0566,30.899
1628.9,6.9312,29.31
1640.6,6.7399,31.837
1652.3,4.694,33.193
1664.1,3.723,33.451
1675.8,3.34,31.921
1687.5,5.6913,30.923
1699.2,7.184,32.228
1710.9,6.9702,31.811
1722.7,9.3508,33.556
1734.4,10.807,33.487
1746.1,7.2457,33.82
1757.8,1.859,35.282
1769.5,3.4584,36.071
1781.3,6.2261,32.317
1793,9.1396,34.008
1804.7,10.121,31.831
1816.4,11.641,29.923
1828.1,28.577,28.71
1839.8,39.543,30.333
1851.6,37.624,31.667
1863.3,20.088,35.388
1875,6.8716,35.623
1886.7,9.3232,32.501
1898.4,7.9264,30.899
1910.2,6.3376,30.927
1921.9,4.4733,33.826
1933.6,1.8069,35.249
1945.3,1.7341,35.151
1957,3.5342,36.123
1968.8,3.1449,34.925
1980.5,4.2278,33.21
1992.2,2.3087,32.845
2003.9,-0.14914,30.644
2015.6,2.9869,28.119
2027.3,3.671,30.543
2039.1,3.5358,30.789
2050.8,0.63521,28.827
2062.5,3.8058,27.562
2074.2,6.6663,30.203
2085.9,5.6199,34.834
2097.7,5.1368,35.819
2109.4,4.9347,34.094
2121.1,4.2852,32.51
2132.8,5.5365,33.768
2144.5,7.5943,31.537
2156.3,6.2174,30.571
2168,7.9112,31.266
2179.7,4.0263,33.782
2191.4,4.149,32.931
2203.1,5.7524,32.683
2214.8,6.6941,32.454
2226.6,4.9847,33.463
2238.3,3.6685,30.637
2250,1.1627,27.466
2261.7,5.9839,30.966
2273.4,5.6138,32.887
2285.2,1.9885,31.399
2296.9,-1.042,28.452
2308.6,3.2846,29.921
2320.3,2.3125,28.229
2332,0.52727,31.655
2343.8,-0.32357,34.448
2355.5,3.0298,32.87
2367.2,3.7132,29.327
2378.9,1.9844,31.506
2390.6,-1.8687,32.634
2402.3,-1.2158,33.227
2414.1,2.0004,34.888
2425.8,5.3484,31.235
2437.5,4.7924,31.474
2449.2,2.767,31.697
2460.9,6.0132,30.522
2472.7,6.4811,30.316
2484.4,5.4772,30.338
2496.1,6.8046,31.541
2507.8,5.9423,34.956
2519.5,3.7739,29.392
2531.3,2.2847,31.844
2543,-0.30337,34.448
2554.7,0.46402,32.258
2566.4,4.2661,32.379
2578.1,5.1589,33.497
2589.8,2.6172,32.065
2601.6,3.6944,27.584
2613.3,4.2276,28.803
2625,3.277,32.931
2636.7,3.3894,33.984
2648.4,-0.21721,31.908
2660.2,-0.03305,31.953
2671.9,0.21795,32.288
2683.6,0.16766,33.868
2695.3,1.6991,36.009
2707,2.4257,37.34
2718.8,2.8017,34.663
2730.5,0.96092,30.884
2742.2,-2.871,31.522
2753.9,-2.2395,31.119
2765.6,1.3998,31.301
2777.3,4.293,31.051
2789.1,5.0622,30.467
2800.8,3.4453,31.857
2812.5,0.96526,31.582
2824.2,-1.8379,29.661
2835.9,-2.0693,25.98
2847.7,-0.12936,24.72
2859.4,1.7944,26.671
2871.1,1.4299,27.922
2882.8,-0.75069,28.691
2894.5,-2.1399,30.534
2906.3,-0.57537,29.441
2918,3.7061,30.382
2929.7,5.5819,31.438
2941.4,1.2813,29.072
2953.1,-0.050785,28.823
2964.8,1.5841,28.831
2976.6,1.252,30.136
2988.3,-0.111,29.856
3000,-0.024644,29.964
3011.7,0.13261,27.319
3023.4,1.4277,29.184
3035.2,-1.5757,30.891
3046.9,-1.5063,31.009
3058.6,-1.2378,32.491
3070.3,0.68946,33.396
3082,2.5575,32.633
3093.8,0.89671,31.457
3105.5,-3.864,30.956
3117.2,-0.86114,31.067
3128.9,4.3266,29.28
3140.6,3.5031,24.336
3152.3,-1.295,28.725
3164.1,1.2011,31.842
3175.8,2.3273,32.311
3187.5,0.37973,31.884
3199.2,2.6127,31.317
3210.9,0.12916,30.485
3222.7,-1.9876,29.742
3234.4,1.4417,29.862
3246.1,2.2004,31.775
3257.8,1.0737,31.765
3269.5,1.7473,31.219
3281.3,1.6298,28.741
3293,-1.0682,32.191
3304.7,-1.0813,30.348
3316.4,0.68171,30.663
3328.1,3.8906,29.523
3339.8,2.3012,25.882
3351.6,0.6371,28.98
3363.3,-1.033,28.699
3375,-4.077,28.923
3386.7,-2.9027,29.346
3398.4,-0.16041,30.33
3410.2,0.27275,30.667
3421.9,-1.9573,29.737
3433.6,-0.6684,31.296
3445.3,1.5751,31.659
3457,2.0325,29.525
3468.8,0.57208,28.69
3480.5,0.64821,26.17
3492.2,0.60927,27.21
3503.9,-3.2591,28.064
3515.6,-0.53166,27.322
3527.3,2.5234,25.442
3539.1,3.1784,26.787
3550.8,2.8387,30.299
3562.5,4.6029,30.664
3574.2,4.0906,29.129
3585.9,0.74297,25.856
3597.7,0.52419,26.18
3609.4,-1.723,27.57
3621.1,0.16459,30.362
3632.8,1.3477,31.199
3644.5,-0.35227,29.813
3656.3,1.1134,29.27
3668,-0.81739,28.41
3679.7,1.8435,27.406
3691.4,3.322,28.81
3703.1,1.1813,31.64
3714.8,0.79566,31.709
3726.6,0.24097,24.783
3738.3,-2.3202,26.374
3750,-3.61,30.777
3761.7,-2.0842,33.047
3773.4,-0.72274,31.886
3785.2,0.33153,28.302
3796.9,1.8942,27.624
3808.6,0.56905,27.647
3820.3,-1.1191,29.505
3832,2.366,31.552
3843.8,1.4617,30.45
3855.5,3.4869,31.351
3867.2,4.4168,32.005
3878.9,3.4061,29.325
3890.6,1.5512,28.878
3902.3,4.5949,31.151
3914.1,6.9192,31.173
3925.8,5.4658,30.997
3937.5,6.5713,29.708
3949.2,9.9342,27.27
3960.9,7.0326,27.036
3972.7,4.1085,27.167
3984.4,6.0868,28.038
3996.1,2.1586,30.695
4007.8,3.6855,31.153
4019.5,3.3434,28.886
4031.3,4.3411,26.03
4043,4.819,26.332
4054.7,2.9226,26.582
4066.4,3.2893,29.571
4078.1,0.42666,29.618
4089.8,-0.044932,28.804
4101.6,-3.015,29.679
4113.3,-3.1874,28.944
4125,-0.5256,29.641
4136.7,-0.46085,28.135
4148.4,-1.2371,30.244
4160.2,-2.7596,31.748
4171.9,-3.8602,29.984
4183.6,-0.64553,28.972
4195.3,-0.0072516,29.048
4207,0.48524,27.298
4218.8,-0.65441,26.635
4230.5,0.79348,26.359
4242.2,2.7196,25.356
4253.9,2.1157,25.805
4265.6,-0.24084,27.762
4277.3,0.48632,26.028
4289.1,1.387,26.151
4300.8,-0.22811,28.987
4312.5,-2.0971,29.633
4324.2,-1.4485,28.416
4335.9,-0.11084,26.82
4347.7,-0.72802,30.157
4359.4,-2.2668,26.837
4371.1,-2.9128,27.186
4382.8,-7.0698,26.298
4394.5,-4.2302,28.527
4406.3,-2.2802,28.436
4418,-3.5376,26.403
4429.7,-4.7134,23.962
4441.4,-1.6428,27.048
4453.1,-3.4744,29.091
4464.8,-2.8435,30.256
4476.6,-4.3991,29.388
4488.3,-1.6254,26.787
4500,-1.9597,26.667
4511.7,-4.485,30.048
4523.4,-5.4362,29.351
4535.2,-4.9231,31.922
4546.9,-2.0561,30.787
4558.6,-4.3808,29.388
4570.3,-0.058039,28.194
4582,0.86373,28.446
4593.8,-1.9949,29.517
4605.5,-4.1927,29.602
4617.2,-5.0423,30.67
4628.9,-3.5173,30.139
4640.6,-1.3532,28.451
4652.3,-0.54813,26.139
4664.1,-1.2224,26.779
4675.8,-0.81246,29.453
4687.5,3.0306,27.895
4699.2,6.0992,27
4710.9,2.9768,27.494
4722.7,2.6155,27.459
4734.4,3.6078,28.153
4746.1,1.9425,31.636
4757.8,0.76867,30.886
4769.5,-2.1045,26.813
4781.3,-3.4858,21.898
4793,-4.1903,28.446
4804.7,-1.8514,28.441
4816.4,0.47096,26.814
4828.1,1.349,27.916
4839.8,-4.1727,28.372
4851.6,0.603,27.687
4863.3,2.0938,25.037
4875,1.6719,27.497
4886.7,1.1538,26.299
4898.4,-0.30613,23.376
4910.2,0.78259,23.823
4921.9,0.83256,25.801
4933.6,1.6883,24.307
4945.3,0.37717,24.887
4957,-4.0677,26.177
4968.8,-7.005,26.646
4980.5,-3.9345,26.376
4992.2,0.50872,28.184
5003.9,-2.3573,29.187
5015.6,1.0754,29.624
5027.3,-0.72492,27.958
5039.1,-2.3274,26.386
5050.8,-2.4934,28.242
5062.5,-3.2777,27.017
5074.2,-2.3028,25.708
5085.9,-4.0327,24.403
5097.7,-2.7406,23.536
5109.4,0.16246,26.452
5121.1,-1.7493,28.486
5132.8,-4.5609,27.026
5144.5,-3.387,25.924
5156.3,-1.857,26.388
5168,-3.6076,26.429
5179.7,-4.5496,25.121
5191.4,-4.3687,24.21
5203.1,-4.0934,24.564
5214.8,-5.4083,27.29
5226.6,-5.6596,26.294
5238.3,-3.4515,23.191
5250,-3.1022,22.89
5261.7,-3.7762,24.258
5273.4,-2.8999,23.869
5285.2,-2.1592,23.864
5296.9,-1.5105,27.069
5308.6,-0.43946,26.462
5320.3,0.63488,23.868
5332,-0.44038,25.084
5343.8,-3.8941,23.814
5355.5,-0.9412,22.606
5367.2,1.8501,23.747
5378.9,-0.52394,25.878
5390.6,0.086376,24.85
5402.3,0.3951,26.862
5414.1,-4.2454,25.351
5425.8,-4.5181,27.637
5437.5,-3.203,28.707
5449.2,-4.015,26.347
5460.9,-3.7485,28.488
5472.7,-3.8377,27.668
5484.4,-5.2646,26.752
5496.1,-4.2328,26.651
5507.8,-4.0574,25.369
5519.5,-2.3245,23.624
5531.3,0.2395,26.462
5543,-3.5528,27.12
5554.7,-3.225,26.851
5566.4,-1.5418,25.661
5578.1,-3.1769,26.977
5589.8,-3.6984,27.681
5601.6,-4.9713,26.309
5613.3,-6.3569,26.047
5625,-5.371,22.75
5636.7,-3.0564,26.024
5648.4,-4.7825,25.841
5660.2,-3.7318,25.289
5671.9,-5.1565,26.02
5683.6,-6.1067,25.892
5695.3,-2.6525,25.805
5707,-1.2436,22.54
5718.8,-1.2281,26.258
5730.5,-2.259,27.703
5742.2,-3.2002,23.596
5753.9,-6.0292,23.93
5765.6,-4.1338,25.574
5777.3,-2.7549,24.42
5789.1,-5.6602,23.646
5800.8,-5.5267,26.011
5812.5,-2.5679,26.447
5824.2,-3.5581,25.484
5835.9,-6.8014,24.661
5847.7,-5.1209,26.441
5859.4,-1.2701,27.211
5871.1,-2.8659,26.747
5882.8,-6.988,25.253
5894.5,-3.4612,23.879
5906.3,-2.6894,23.984
5918,-3.4585,24.005
5929.7,-6.6667,24.481
5941.4,-5.0088,24.547
5953.1,-5.9133,24.873
5964.8,-5.3391,21.744
5976.6,-5.0179,27.006
5988.3,-3.4325,27.001
6000,-3.0768,24.689
6011.7,-4.8253,26.213
6023.4,-5.3891,26.549
6035.2,-4.3622,26.227
6046.9,-7.4055,26.223
6058.6,-4.7459,25.243
6070.3,-3.1751,26.127
6082,-4.0729,26.199
6093.8,-5.8615,27.095
6105.5,-6.6222,24.069
6117.2,-4.2456,24.066
6128.9,-2.9544,24.643
6140.6,-4.415,24.52
6152.3,-6.9031,24.281
6164.1,-5.8887,24.998
6175.8,-4.8775,25.078
6187.5,-4.7739,27.593
6199.2,-6.2143,29.382
6210.9,-6.27,26.563
6222.7,-4.9183,26.979
6234.4,-3.7502,27.185
6246.1,-7.1648,25.663
6257.8,-5.9034,26.83
6269.5,-8.396,28.534
6281.3,-5.9618,26.507
6293,-5.591,25.042
6304.7,-4.1666,25.013
6316.4,-6.1052,25.229
6328.1,-2.8299,22.575
6339.8,-3.415,23.729
6351.6,-3.2844,26.303
6363.3,-1.7719,26.822
6375,-1.0849,27.116
6386.7,-3.2395,23.81
6398.4,-4.3463,23.82
6410.2,-4.8303,24.236
6421.9,-3.6329,23.448
6433.6,-3.4527,28.232
6445.3,-2.7411,29.232
6457,-3.6772,28.042
6468.8,-1.9581,26.567
6480.5,-2.1114,27.217
6492.2,-4.7908,27.631
6503.9,-7.6249,25.926
6515.6,-7.3647,23.922
6527.3,-8.1217,24.306
6539.1,-9.439,23.658
6550.8,-6.1617,24.152
6562.5,-4.3608,22.413
6574.2,-3.6627,23.532
6585.9,-5.4606,23.378
6597.7,-4.2476,22.583
6609.4,-5.3889,24.916
6621.1,-5.068,24.74
6632.8,-5.0904,26.121
6644.5,-5.825,26.888
6656.3,-3.8562,25.651
6668,-4.0177,25.917
6679.7,-7.9299,24.513
6691.4,-10.286,25.523
6703.1,-8.0715,26.486
6714.8,-6.5512,22.815
6726.6,-5.4737,19.361
6738.3,-5.7828,21.766
6750,-4.6191,24.908
6761.7,-4.6466,24.251
6773.4,-6.0088,21.356
6785.2,-4.5664,25.411
6796.9,-5.4138,26.161
6808.6,-6.4844,25.233
6820.3,-5.4871,25.495
6832,-7.8309,24.543
6843.8,-8.5381,25.112
6855.5,-8.4096,21.784
6867.2,-5.4325,21.805
6878.9,-4.7718,21.774
6890.6,-6.526,21.057
6902.3,-4.3707,26.599
6914.1,-2.491,27.878
6925.8,-6.8731,25.389
6937.5,-6.9814,26.8
6949.2,-8.9586,28.508
6960.9,-5.946,27.222
6972.7,-3.456,25.47
6984.4,-3.6379,26.774
6996.1,-6.5949,27.93
7007.8,-9.1904,26.202
7019.5,-7.2422,25.827
7031.3,-4.4401,22.239
7043,-5.3944,23.047
7054.7,-7.9864,25.483
7066.4,-3.4937,25.503
7078.1,-2.4326,24.679
7089.8,-4.3375,24.856
7101.6,-4.2772,25.702
7113.3,-1.288,23.347
7125,-0.96845,22.346
7136.7,-3.6812,22.777
7148.4,-6.1606,24.72
7160.2,-9.5841,26.469
7171.9,-5.4736,25.172
7183.6,-4.4754,23.218
7195.3,-6.226,24.554
7207,-6.3317,24.842
7218.8,-6.7306,23.656
7230.5,-8.3011,23.549
7242.2,-9.509,21.71
7253.9,-7.9191,23.634
7265.6,-8.6287,21.43
7277.3,-7.822,18.593
7289.1,-6.823,19.647
7300.8,-8.2299,22.904
7312.5,-5.4846,20.858
7324.2,-5.9612,20.415
7335.9,-8.0704,21.817
7347.7,-4.3349,21.973
7359.4,-3.084,19.872
7371.1,-4.6137,19.913
7382.8,-8.3744,25.144
7394.5,-7.3086,25.094
7406.3,-4.497,21.452
7418,-8.3862,20.521
7429.7,-8.377,22.046
7441.4,-6.6657,22.41
7453.1,-7.893,22.818
7464.8,-8.6177,25.074
7476.6,-6.8604,24.346
7488.3,-9.7619,24.257
7500,-9.7258,24.381
7511.7,-7.9179,24.734
7523.4,-5.479,25.058
7535.2,-3.5284,23.627
7546.9,-4.9763,24.657
7558.6,-3.797,25.253
7570.3,-3.188,24.91
7582,-6.1646,24.562
7593.8,-7.5473,25.205
7605.5,-7.2516,24.137
7617.2,-5.3376,24.887
7628.9,-5.6666,24.837
7640.6,-5.8991,23.249
7652.3,-3.7843,21.581
7664.1,-4.0009,22.312
7675.8,-5.9941,24.438
7687.5,-5.7725,23.822
7699.2,-6.3934,24.268
7710.9,-3.6406,24.108
7722.7,-7.7917,23.786
7734.4,-12.314,23.761
7746.1,-7.4232,25.208
7757.8,-5.5922,25.182
7769.5,-6.0893,26.878
7781.3,-7.5057,26.085
7793,-10.386,24
7804.7,-8.8561,22.725
7816.4,-7.7371,23.254
7828.1,-5.2529,24.502
7839.8,-6.0309,25.203
7851.6,-7.5695,22.059
7863.3,-7.3324,23.41
7875,-4.4592,23.874
7886.7,-7.211,23.434
7898.4,-7.8596,24.21
7910.2,-5.959,26.766
7921.9,-6.492,26.659
7933.6,-5.4129,22.98
7945.3,-7.0285,21.34
7957,-11.736,23.578
7968.8,-8.9478,23.598
7980.5,-6.7166,20.985
7992.2,-5.8194,20.856
8003.9,-8.4359,20.697
8015.6,-8.449,21.034
8027.3,-5.1555,22.189
8039.1,-6.8066,24.173
8050.8,-8.4828,22.957
8062.5,-9.3456,21.06
8074.2,-9.4403,21.346
8085.9,-7.7171,20.936
8097.7,-6.2206,22.206
8109.4,-5.6079,23.827
8121.1,-6.252,23.26
8132.8,-6.6096,25.283
8144.5,-8.9618,21.603
8156.3,-8.5729,18.863
8168,-9.3482,20.437
8179.7,-7.3637,21.167
8191.4,-7.8112,21.383
8203.1,-12.046,23.206
8214.8,-10.275,21.857
8226.6,-9.7733,24.476
8238.3,-7.8972,24.89
8250,-9.9575,19.729
8261.7,-8.8621,18.994
8273.4,-4.9017,24.877
8285.2,-10.676,25.584
8296.9,-9.948,22.974
8308.6,-8.097,21.24
8320.3,-9.6275,20.873
8332,-7.5307,22.193
8343.8,-5.7512,22.49
8355.5,-11.734,20.894
8367.2,-8.2413,18.028
8378.9,-5.9471,20.868
8390.6,-9.4891,22.899
8402.3,-9.4432,21.298
8414.1,-9.7917,24.605
8425.8,-9.4362,19.868
8437.5,-9.8632,19.272
8449.2,-10.139,22.163
8460.9,-10.742,24.157
8472.7,-11.595,22.425
8484.4,-12.365,22.692
8496.1,-9.6158,21.334
8507.8,-8.9227,19.16
8519.5,-6.6851,22.317
8531.3,-7.3655,20.114
8543,-9.3108,21.07
8554.7,-11.693,23.651
8566.4,-10.437,22.504
8578.1,-6.9207,22.796
8589.8,-7.6311,21.667
8601.6,-8.3004,19.902
8613.3,-7.4417,19.781
8625,-7.8446,21.863
8636.7,-5.9298,21.089
8648.4,-6.9281,21.337
8660.2,-11.383,22.586
8671.9,-9.2537,23.106
8683.6,-9.0972,20.577
8695.3,-10.808,20.07
8707,-10.129,20.271
8718.8,-9.8631,20.989
8730.5,-8.6765,21.496
8742.2,-7.9043,22.372
8753.9,-9.352,22.793
8765.6,-7.7578,17.613
8777.3,-10.907,15.889
8789.1,-10.086,21.662
8800.8,-8.9498,22.457
8812.5,-11.521,22.169
8824.2,-11.766,21.702
8835.9,-11.281,22.2
8847.7,-11.554,22.099
8859.4,-9.2798,23.07
8871.1,-11.61,20.834
8882.8,-8.2431,19.436
8894.5,-7.7822,21.588
8906.3,-12.188,19.593
8918,-12.198,21.55
8929.7,-8.0517,20.96
8941.4,-7.497,20.274
8953.1,-8.985,19.734
8964.8,-11.056,21.544
8976.6,-8.1414,23.943
8988.3,-7.429,23.21
9000,-6.555,21.651
9011.7,-6.5666,21.277
9023.4,-7.4735,20.955
9035.2,-9.5492,21.186
9046.9,-13.148,19.852
9058.6,-9.1298,20.826
9070.3,-7.9138,19.528
9082,-9.676,19.703
9093.8,-8.5165,20.735
9105.5,-10.455,18.658
9117.2,-12.4,16.545
9128.9,-10.529,20.793
9140.6,-10.318,21.382
9152.3,-10.186,19.193
9164.1,-9.8718,21.19
9175.8,-7.6292,21.072
9187.5,-8.4072,21.497
9199.2,-11.012,23.92
9210.9,-11.381,23.992
9222.7,-10.472,23.512
9234.4,-8.5525,23.448
9246.1,-7.8887,22.766
9257.8,-11.521,20.741
9269.5,-10.202,19.788
9281.3,-8.0682,21.235
9293,-8.1621,20.706
9304.7,-8.8424,23.416
9316.4,-9.0582,22.625
9328.1,-8.228,20.259
9339.8,-9.6774,16.626
9351.6,-10.87,21.033
9363.3,-7.0328,21.843
9375,-7.5374,19.653
9386.7,-8.6672,20.449
9398.4,-7.6247,22.282
9410.2,-11.636,18.643
9421.9,-6.9406,17.869
9433.6,-7.7538,20.625
9445.3,-10.994,19.798
9457,-14.321,19.917
9468.8,-10.337,22.037
9480.5,-9.1734,20.892
9492.2,-8.0871,19.184
9503.9,-11.345,18.745
9515.6,-15.049,18.62
9527.3,-9.3329,19.646
9539.1,-10.561,18.489
9550.8,-10.554,17.234
9562.5,-11.301,20.154
9574.2,-11.323,20.258
9585.9,-11.17,20.115
9597.7,-8.6414,20.984
9609.4,-5.3535,21.288
9621.1,-6.4461,21.382
9632.8,-9.1751,19.917
9644.5,-9.631,19.32
9656.3,-10.441,19.616
9668,-8.1989,18.758
9679.7,-8.416,21.035
9691.4,-8.2975,20.977
9703.1,-5.2719,21.338
9714.8,-7.4795,20.847
9726.6,-10.543,21.891
9738.3,-8.192,22.869
9750,-7.2281,21.424
9761.7,-10.769,22.69
9773.4,-8.6019,22.768
9785.2,-8.8766,19.112
9796.9,-8.6259,21.682
9808.6,-8.1473,22.614
9820.3,-7.2448,20.178
9832,-6.7233,17.592
9843.8,-7.9615,19.817
9855.5,-13.159,23.506
9867.2,-9.4692,22.777
9878.9,-8.1944,20.46
9890.6,-9.9361,22.351
9902.3,-15.038,22.346
9914.1,-12.6,23.182
9925.8,-9.4476,21.639
9937.5,-8.5782,15.519
9949.2,-7.7159,18.057
9960.9,-8.5133,20.053
9972.7,-14.602,21.605
9984.4,-12.005,21.521
9996.1,-11.207,20.839
10008,-12.113,19.474
10020,-11.463,16.302
10031,-6.4914,21.09
10043,-4.8263,23.036
10055,-11.431,22.025
10066,-12.792,20.603
10078,-11.748,19.133
10090,-11.44,20.574
10102,-10.872,20.801
10113,-12.294,19.82
10125,-10.877,19.815
10137,-8.3362,19.262
10148,-7.749,18.736
10160,-7.3295,20.976
10172,-7.179,19.088
10184,-8.3827,19.019
10195,-10.162,20.033
10207,-10.26,18.288
10219,-8.5122,18.584
10230,-9.4968,20.291
10242,-7.6498,21.518
10254,-6.6684,20.132
10266,-8.5894,18.223
10277,-9.7279,15.911
10289,-8.9571,17.753
10301,-7.9637,18.198
10313,-10.531,18.633
10324,-11.57,17.421
10336,-11.425,18.68
10348,-11.943,17.325
10359,-6.008,19.71
10371,-3.059,19.74
10383,-6.1377,19.288
10395,-10.497,18.936
10406,-10.242,21.687
10418,-9.8684,22.043
10430,-9.4172,22.042
10441,-8.9527,20.353
10453,-11.908,19.073
10465,-12.023,19.005
10477,-11.395,19.232
10488,-11.619,17.846
10500,-11.201,17.728
10512,-11.29,20.067
10523,-10.395,19.213
10535,-7.6163,19.756
10547,-7.1798,20.891
10559,-11.46,19.796
10570,-9.917,17.934
10582,-7.9279,17.648
10594,-8.3101,21.34
10605,-8.3332,22.858
10617,-10.647,20.181
10629,-11.67,19.476
10641,-12.345,20.341
10652,-10.569,20.218
10664,-8.4661,18.433
10676,-11.402,17.95
10688,-11.772,16.753
10699,-12.787,17.043
10711,-12.327,16.453
10723,-8.4516,16.561
10734,-6.0539,18.942
10746,-6.984,18.478
10758,-11.267,16.804
10770,-12.181,19.516
10781,-9.4365,20.898
10793,-8.1392,16.734
10805,-9.2224,16.18
10816,-10.882,19.827
10828,-10.841,21.192
10840,-14.369,18.135
10852,-13.314,15.039
10863,-9.8465,16.975
10875,-8.6481,19.772
10887,-11.823,21.362
10898,-14.764,19.049
10910,-14.265,15.585
10922,-9.7072,14.543
10934,-10.335,18.449
10945,-8.3369,20.622
10957,-10.469,20.783
10969,-10.607,18.194
10980,-8.3701,17.009
10992,-9.0848,20.741
11004,-10.743,19.388
11016,-8.2884,19.319
11027,-8.9424,20.351
11039,-9.081,20.992
11051,-10.433,21.52
11063,-11.721,23.301
11074,-9.6729,20.859
11086,-13.851,17.569
11098,-9.0224,18.926
11109,-8.7815,17.179
11121,-10.133,20.841
11133,-10.214,22.856
11145,-10.855,19.677
11156,-12.735,18.227
11168,-12.722,17.451
11180,-12.367,17.529
11191,-12.062,19.487
11203,-13.766,19.632
11215,-14.469,18.53
11227,-11.784,15.601
11238,-11.163,17.285
11250,-13.888,18.151
11262,-11.235,18.031
11273,-11.234,18.694
11285,-12.046,18.979
11297,-13.981,16.483
11309,-13.863,15.656
11320,-13.768,16.542
11332,-11.75,19.827
11344,-11.85,20.636
11355,-10.666,22.104
11367,-10.589,20.524
11379,-11.298,16.998
11391,-12.3,16.292
11402,-11.544,17.321
11414,-11.521,17.66
11426,-10.755,16.403
11438,-9.4633,17.288
11449,-6.8906,19.594
11461,-8.3711,21.622
11473,-7.6515,17.912
11484,-10.519,16.519
11496,-13.625,17.393
11508,-14.208,17.18
11520,-8.1255,18.518
11531,-7.0087,17.337
11543,-9.1958,16.121
11555,-9.5183,16.985
11566,-11.107,17.885
11578,-13.031,18.261
11590,-12.475,18.169
11602,-14.113,18.039
11613,-12.649,16.121
11625,-10.324,17.92
11637,-10.436,16.082
11648,-10.382,18.755
11660,-9.5904,20.358
11672,-8.0141,17.732
11684,-8.5088,15.412
11695,-9.5018,15.803
11707,-8.6025,15.907
11719,-9.3516,16.991
11730,-6.0261,16.135
11742,-7.7244,15.076
11754,-10.501,15.441
11766,-11.788,15.62
11777,-10.716,17.214
11789,-10.952,18.763
11801,-9.4208,19.946
11813,-7.1402,19.921
11824,-7.9287,18.661
11836,-13.231,19.479
11848,-10.983,20.357
11859,-10.751,19.302
11871,-11.281,19.052
11883,-9.9142,19.714
11895,-11.151,18.525
11906,-11.057,17.352
11918,-9.0381,18.993
11930,-7.9602,19.521
11941,-8.0465,15.409
11953,-11.759,13.613
11965,-12.234,17.421
11977,-12.984,19.092
11988,-12.155,20.682
12000,-12.478,17.698
12012,-12.375,14.15
12023,-10.768,15.564
12035,-7.6574,19.799
12047,-10.094,18.804
12059,-9.8528,15.029
12070,-9.0454,12.656
12082,-9.2531,13.758
12094,-8.4988,17.861
12105,-7.5024,18.326
12117,-8.5719,16.006
12129,-5.0649,18.866
12141,-6.3279,20.517
12152,-7.9465,19.88
12164,-7.9121,16.191
12176,-3.9351,13.789
12188,-3.5931,14.434
12199,-5.1158,20.215
12211,-7.3157,19.177
12223,-5.6134,20.367
12234,-8.0706,20.025
12246,-6.6841,18.413
12258,-7.4258,22.247
12270,-11.572,21.49
12281,-13.362,19.962
12293,-9.786,20.724
12305,-5.3683,18.85
12316,-6.7306,16.352
12328,-13.137,13.419
12340,-11.075,18.697
12352,-11.405,17.977
12363,-10.667,18.85
12375,-9.3963,18.277
12387,-10.179,16.011
12398,-11.688,14.224
12410,-11.769,17.684
12422,-12.708,16.782
12434,-9.7055,13.835
12445,-10.96,14.203
12457,-10.662,15.539
12469,-9.2818,17.683
12480,-10.232,15.153
12492,-12.668,14.646
12504,-10.249,15.985
12516,-11.433,16.776
12527,-10.793,17.443
12539,-10.134,16.998
12551,-12.645,17.984
12563,-14.17,16.105
12574,-10.618,13.956
12586,-11.193,14.021
12598,-12.25,12.605
12609,-12.58,14.028
12621,-11.297,15.422
12633,-13.322,16.869
12645,-10.75,18.333
12656,-10.465,16.386
12668,-8.666,14.658
12680,-10.311,15.289
12691,-10.996,15.531
12703,-9.2057,18.244
12715,-11.036,19.324
12727,-11.661,18.751
12738,-13.082,17.946
12750,-7.6656,15.976
12762,-7.484,15.849
12773,-8.6572,16.408
12785,-11.49,18.033
12797,-12.41,18.326
12809,-11.474,13.461
12820,-13.852,16.641
12832,-14.689,17.686
12844,-15.678,14.449
12855,-11.082,16.055
12867,-9.5639,17.165
12879,-10.323,15.71
12891,-11.842,15.372
12902,-5.7683,13.936
12914,-7.8518,14.395
12926,-11.544,17.072
12938,-13.264,14.406
12949,-12.563,14.786
12961,-10.474,18.319
12973,-8.7212,17.561
12984,-11.506,17.991
12996,-8.283,16.196
13008,-9.0741,19.555
13020,-9.2134,18.295
13031,-12.123,16.016
13043,-9.2184,15.765
13055,-11.146,15.033
13066,-7.169,13.571
13078,-9.21,13.978
13090,-11.263,13.758
13102,-10.603,14.022
13113,-9.4862,16.755
13125,-11.264,16.983
13137,-12.036,16.246
13148,-11.432,15.062
13160,-12.222,17.475
13172,-10.763,18.683
13184,-10.569,17.802
13195,-14.095,15.69
13207,-12.011,14.933
13219,-10.236,16.179
13230,-10.757,17.915
13242,-12.727,15.509
13254,-12.034,15.413
13266,-10.876,13.614
13277,-13.796,13.646
13289,-11.025,13.76
13301,-9.6727,13.947
13313,-8.3275,15.048
13324,-12.373,16.651
13336,-12.926,19.676
13348,-12.356,18.143
13359,-12.512,16.2
13371,-11.859,14.292
13383,-8.5194,12.98
13395,-8.4025,11.631
13406,-7.9979,14.893
13418,-7.8037,16.242
13430,-9.5683,16.481
13441,-9.3716,16.681
13453,-8.0711,14.114
13465,-9.6433,16.499
13477,-11.843,14.315
13488,-12.43,14.893
13500,-13.263,16.995
13512,-9.7298,12.749
13523,-10.486,16.169
13535,-13.144,18.932
13547,-11.279,19.12
13559,-11.85,19.414
13570,-11.988,17.363
13582,-12.304,15.135
13594,-14.288,14.671
13605,-15.382,17.089
13617,-12.344,15.054
13629,-12.235,15.597
13641,-8.5364,14.271
13652,-8.0454,17.103
13664,-9.7751,16.511
13676,-10.097,16.103
13688,-13.511,17.124
13699,-12.859,18.393
13711,-10.351,17.588
13723,-10.684,16.465
13734,-12.435,17.505
13746,-14.112,17.825
13758,-15.085,18.334
13770,-18.1,17.376
13781,-15.58,14.423
13793,-14.103,13.712
13805,-11.379,14.776
13816,-9.1604,16.142
13828,-11.994,13.545
13840,-9.6411,13.802
13852,-8.8046,13.312
13863,-9.822,15.415
13875,-14.546,15.04
13887,-12.508,14.283
13898,-12.379,14.536
13910,-13.461,17.564
13922,-11.806,17.689
13934,-10.784,14.871
13945,-12.787,14.911
13957,-12.962,11.948
13969,-13.908,12.52
13980,-17.157,12.735
13992,-14.859,14.947
14004,-11.41,16.835
14016,-9.535,14.722
14027,-14.164,14.538
14039,-17.316,16.561
14051,-18.069,16.669
14063,-13.745,15.414
14074,-10.589,12.678
14086,-11.793,14.306
14098,-13.95,15.292
14109,-14.366,13.374
14121,-14.404,15.893
14133,-12.05,14.715
14145,-12.642,13.055
14156,-13.909,11.84
14168,-10.789,12.722
14180,-12.326,11.6
14191,-9.4238,11.861
14203,-7.9367,12.532
14215,-6.0367,15.181
14227,-5.8367,15.36
14238,-6.9128,15.323
14250,-10.901,13.145
14262,-13.725,12.613
14273,-13.128,15.14
14285,-10.449,16.289
14297,-8.8783,14.211
14309,-12.471,12.58
14320,-12.835,15.465
14332,-11.4,16.428
14344,-10.207,11.867
14355,-8.5393,10.454
14367,-8.7681,12.766
14379,-11.302,16.13
14391,-13.208,15.775
14402,-12.735,15.547
14414,-17.772,16.889
14426,-16.738,10.749
14438,-14.22,17.998
14449,-15.128,17.72
14461,-16.472,13.789
14473,-13.8,13.586
14484,-12.641,13.029
14496,-13.838,15.182
14508,-16.161,15.216
14520,-17.405,12.164
14531,-17.781,13.611
14543,-12.395,15.201
14555,-10.134,12.734
14566,-14.617,14.175
14578,-14.001,15.243
14590,-11.726,16.066
14602,-9.1405,16.104
14613,-8.595,15.41
14625,-12.069,16.036
14637,-12.485,14.622
14648,-12.068,13.784
14660,-12.807,11.978
14672,-11.498,14.921
14684,-12.25,15.458
14695,-14.418,16.192
14707,-12.92,16.526
14719,-10.669,18.079
14730,-12.744,17.426
14742,-15.809,15.896
14754,-14.655,14.456
14766,-15.1,13.633
14777,-16.3,14.833
14789,-11.244,15.473
14801,-9.5805,14.385
14813,-8.1565,14.554
14824,-10.241,13.131
14836,-13.129,12.617
14848,-14.323,14.518
14859,-16.921,15.205
14871,-15.635,12.735
14883,-12.967,11.392
14895,-11.487,10.854
14906,-12.916,14.642
14918,-18.168,15.334
14930,-17.874,15.006
14941,-15.878,15.68
14953,-14.599,14.526
14965,-12.113,12.696
14977,-10.849,15.861
14988,-11.201,14.306
15000,-11.301,10.367
15012,-12.602,13.835
15023,-14.813,13.656
15035,-12.82,9.903
15047,-14.809,11.784
15059,-13.519,11.579
15070,-14.013,12.283
15082,-15.484,12.194
15094,-15.248,13.943
15105,-13.035,16.701
15117,-11.802,16.708
15129,-16.221,12.562
15141,-14.734,12.478
15152,-12.587,14.392
15164,-13.455,14.465
15176,-13.043,13.392
15188,-11.68,11.49
15199,-13.301,12.719
15211,-15.608,15.407
15223,-14.723,15.84
15234,-14.733,13.485
15246,-13.044,11.628
15258,-12.103,10.599
15270,-12.234,14.178
15281,-11.949,13.125
15293,-13.092,10.305
15305,-16.042,14.802
15316,-15.324,14.603
15328,-15.983,13.286
15340,-13.362,12.895
15352,-16.477,9.3737
15363,-16.428,11.635
15375,-14.004,11.938
15387,-17.275,11.334
15398,-20.707,10.705
15410,-17.851,12.357
15422,-15.082,11.909
15434,-12.335,13.077
15445,-12.511,12.587
15457,-15.696,10.571
15469,-14.922,13.485
15480,-13.579,16.366
15492,-13.29,14.832
15504,-16.015,13.504
15516,-15.713,12.155
15527,-15.293,11.673
15539,-16.258,10.247
15551,-18.229,12.701
15563,-18.356,17.36
15574,-18.924,16.743
15586,-16.965,10.652
15598,-14.914,10.262
15609,-14.53,9.8794
15621,-15.165,10.755
15633,-13.436,10.488
15645,-12.105,8.1753
15656,-15.29,8.5008
15668,-15.154,12.107
15680,-12.438,13.227
15691,-15.153,14.256
15703,-15.329,15.694
15715,-18.844,14.802
15727,-19.827,11.174
15738,-19.43,12.987
15750,-17.796,12.272
15762,-16.481,12.181
15773,-17.423,13.153
15785,-18.46,13.69
15797,-17.604,16.313
15809,-16.576,16.528
15820,-12.961,15.806
15832,-13.163,15.329
15844,-15.637,13.563
15855,-17.001,14.973
15867,-13.248,14.324
15879,-15.214,14.041
15891,-16.737,11.39
15902,-18.831,13.625
15914,-18.958,12.825
15926,-16.361,14.171
15938,-16.437,12.681
15949,-19.867,10.819
15961,-17.75,12.608
15973,-17.378,14.61
15984,-17.072,14.622
15996,-14.785,14.547
16008,-20.405,12.845
16020,-15.515,13.267
16031,-16.604,13.167
16043,-21.024,12.657
16055,-17.988,11.483
16066,-17.577,12.049
16078,-16.547,11.523
16090,-17.57,11.441
16102,-17.071,11.711
16113,-16.412,11.765
16125,-16.68,13.522
16137,-19.141,14.418
16148,-18.221,14.978
16160,-17.552,13.377
16172,-19.079,13.061
16184,-20.159,13.479
16195,-19.917,13.391
16207,-18.643,13.124
16219,-19.359,10.413
16230,-16.125,9.921
16242,-18.321,13.165
16254,-19.584,14.805
16266,-19.393,12.942
16277,-21.441,9.2171
16289,-17.638,12.876
16301,-16.021,13.033
16313,-16.81,10.13
16324,-18.674,13.566
16336,-19.868,13.297
16348,-22.307,10.088
16359,-18.408,9.3278
16371,-16.94,12.32
16383,-19.956,11.618
16395,-19.615,15.439
16406,-21.565,16.493
16418,-22.416,13.107
16430,-19.94,11.958
16441,-16.205,13.167
16453,-14.41,11.497
16465,-18.379,12.761
16477,-20.997,15.46
16488,-18.813,15.855
16500,-16.693,13.65
16512,-18.845,13.465
16523,-20.439,10.205
16535,-22.946,11.035
16547,-23.4,10.631
16559,-20.165,11.959
16570,-21.605,10.083
16582,-19.852,6.2225
16594,-17.216,11.464
16605,-17.655,12.048
16617,-20.078,12.981
16629,-22.758,15.72
16641,-20.693,15.3
16652,-17.884,13.765
16664,-19.019,13.098
16676,-16.554,12.916
16688,-18.387,12.919
16699,-21.492,12.137
16711,-24.245,10.46
16723,-21.743,13.685
16734,-18.488,11.21
16746,-19.924,13.003
16758,-20.487,14.131
16770,-19.491,14.514
16781,-18.03,10.328
16793,-18.03,11.372
16805,-18.916,9.204
16816,-20.477,8.6112
16828,-19.895,11.367
16840,-20.351,11.367
16852,-21.002,9.7975
16863,-20.637,11.787
16875,-20.815,14.645
16887,-20.823,16.317
16898,-21.245,13.448
16910,-18.175,6.373
16922,-18.588,9.4647
16934,-18.432,10.31
16945,-19.543,11.278
16957,-21.404,12.165
16969,-22.147,10.251
16980,-19.338,11.471
16992,-20.681,11.584
17004,-22.42,13.194
17016,-22.094,12.493
17027,-22.575,12.492
17039,-20.177,12.824
17051,-19.344,11.103
17063,-21.917,11.328
17074,-23.076,12.395
17086,-21.408,11.66
17098,-18.868,13.82
17109,-18.786,12.431
17121,-17.677,11.616
17133,-18.207,11.889
17145,-19.854,8.7242
17156,-21.099,11.821
17168,-21.536,10.829
17180,-20.947,9.4809
17191,-22.321,10.299
17203,-19.645,11.94
17215,-23.133,13.092
17227,-22.182,12.724
17238,-21.591,11.503
17250,-23.116,10.897
17262,-22.886,9.7356
17273,-19.685,10.286
17285,-18.477,10.823
17297,-20.649,8.6881
17309,-20.968,7.6915
17320,-23.062,8.5118
17332,-20.468,9.6617
17344,-19.158,6.0012
17355,-22.377,6.151
17367,-24.027,11.116
17379,-18.346,13.244
17391,-17.785,11.486
17402,-18.987,9.2592
17414,-22.985,8.8117
17426,-23.211,12.119
17438,-21.278,10.538
17449,-20.622,9.2505
17461,-21.505,9.5714
17473,-21.879,11.896
17484,-22.716,13.809
17496,-21.549,10.545
17508,-18.55,10.683
17520,-18.857,10.919
17531,-19.337,9.6837
17543,-18.62,7.7443
17555,-21.595,11.241
17566,-21.863,13.171
17578,-21.408,13.192
17590,-21.167,10.331
17602,-20.196,13.073
17613,-23.501,12.789
17625,-23.473,11.38
17637,-20.927,9.8823
17648,-18.774,11.553
17660,-21.532,12.723
17672,-24.08,10.644
17684,-22.641,12.228
17695,-20.823,13.137
17707,-21.107,14.527
17719,-21.843,14.344
17730,-23.84,13.054
17742,-21.672,9.2466
17754,-21.928,5.6728
17766,-22.302,8.2611
17777,-22.958,10.214
17789,-22.814,13.665
17801,-21.225,13.991
17813,-18.485,12.134
17824,-16.887,11.998
17836,-19.551,11.673
17848,-20.115,10.556
17859,-19.427,8.2504
17871,-21.898,9.8947
17883,-23.235,9.0503
17895,-19.544,7.3148
17906,-15.062,10.263
17918,-17.482,11.209
17930,-17.134,11.079
17941,-18.439,8.6801
17953,-20.706,7.2815
17965,-24.906,9.7014
17977,-20.249,11.143
17988,-18.797,10.532
18000,-21.486,11.37
18012,-20.758,11.962
18023,-21.073,9.4853
18035,-21.18,10.293
18047,-19.551,8.2494
18059,-20.548,12.117
18070,-21.342,13.695
18082,-19.523,8.5124
18094,-24.009,11.297
18105,-24.59,9.6721
18117,-23.858,9.3067
18129,-23.384,8.0703
18141,-20.235,10.327
18152,-20.188,9.4905
18164,-20.17,12.01
18176,-22.719,10.686
18188,-23.357,11.808
18199,-22.313,11.78
18211,-25.085,12.385
18223,-24.418,12.097
18234,-20.951,10.003
18246,-20.949,9.6084
18258,-19.362,11.141
18270,-18.955,10.863
18281,-20.276,9.7989
18293,-20.287,13.971
18305,-24.002,12.581
18316,-24.37,11.134
18328,-20.429,10.482
18340,-21.237,8.6016
18352,-22.455,8.6968
18363,-20.88,10.611
18375,-21.855,9.4594
18387,-22.972,12.011
18398,-22.419,11.937
18410,-24.574,11.863
18422,-23.541,10.776
18434,-22.691,8.6904
18445,-21.766,8.3229
18457,-21.476,7.8309
18469,-20.929,9.4825
18480,-21.121,12.077
18492,-23.781,12.137
18504,-20.115,12.335
18516,-17.921,9.1016
18527,-19.71,10.099
18539,-22.343,11.665
18551,-20.05,8.8972
18563,-21.556,2.8432
18574,-18.72,8.1951
18586,-20.932,10.43
18598,-24.139,10.759
18609,-23.268,11.135
18621,-21.364,9.2096
18633,-23.013,6.8601
18645,-23.782,7.75
18656,-26.343,7.5971
18668,-24.468,8.8698
18680,-24.316,10.093
18691,-22.508,10.059
18703,-20.869,9.274
18715,-19.952,11.776
18727,-18.527,10.777
18738,-20.245,9.7481
18750,-22.065,10.337
18762,-21.972,9.0191
18773,-25.012,7.6383
18785,-22.747,10.009
18797,-20.701,11.065
18809,-21.613,11.988
18820,-25.74,11.3
18832,-21.812,10.376
18844,-20.132,9.0086
18855,-23.713,7.0867
18867,-24.134,8.0448
18879,-21.099,9.9161
18891,-21.252,10.823
18902,-24.46,9.4054
18914,-25.095,7.4842
18926,-23.957,7.5918
18938,-23.746,11.448
18949,-22.447,10.996
18961,-24.778,8.6427
18973,-27.267,11.682
18984,-22.716,12.298
18996,-24.205,10.936
19008,-23.349,8.6438
19020,-22.83,9.2636
19031,-22.243,11.042
19043,-21.752,9.1865
19055,-19.33,8.8214
19066,-20.386,12.439
19078,-25.773,12.527
19090,-22.126,11.052
19102,-20.77,13.464
19113,-22.606,13.295
19125,-21.14,9.5508
19137,-23.65,8.1623
19148,-24.987,8.8178
19160,-22.755,8.9988
19172,-22.756,9.5954
19184,-21.872,9.3901
19195,-20.095,11.129
19207,-23.165,12.519
19219,-22.337,10.528
19230,-21.873,11.658
19242,-24.294,10.629
19254,-23.273,11.782
19266,-24.869,10.965
19277,-24.231,10.406
19289,-23.665,9.3858
19301,-22.618,9.0745
19313,-23.836,8.0481
19324,-22.896,7.0777
19336,-23.669,8.157
19348,-23.96,9.1057
19359,-22.427,9.9985
19371,-23.261,11.597
19383,-22.289,10.354
19395,-23.514,11.93
19406,-23.925,11.085
19418,-20.089,8.4727
19430,-21.036,8.2738
19441,-23.719,7.5272
19453,-25.549,8.1785
19465,-23.301,11.434
19477,-23.077,11.949
19488,-21.35,10.569
19500,-19.149,9.738
19512,-23.131,9.4808
19523,-24.264,8.4098
19535,-21.801,8.5094
19547,-21.749,7.4104
19559,-22.613,7.1326
19570,-20.976,8.4005
19582,-21.988,10.841
19594,-23.732,9.8262
19605,-23.904,8.6496
19617,-25.295,7.4788
19629,-24.207,6.6888
19641,-23.376,8.8341
19652,-24.09,8.9583
19664,-23.487,6.9486
19676,-23.298,7.4843
19688,-25.493,9.2883
19699,-25.348,9.5089
19711,-26.112,8.2891
19723,-25.999,4.7927
19734,-22.973,6.5474
19746,-23.107,8.1248
19758,-22.792,11.437
19770,-25.062,12.006
19781,-24.803,8.8059
19793,-24.109,11.506
19805,-25.036,10.866
19816,-24.744,9.6819
19828,-21.138,9.6808
19840,-21.081,7.8638
19852,-23.141,6.0669
19863,-25.504,6.1176
19875,-26.905,9.5768
19887,-25.465,10.805
19898,-24.291,10.156
19910,-25.115,9.1933
19922,-25.736,8.4198
19934,-25.127,5.8533
19945,-25.426,7.9009
19957,-26.416,11.068
19969,-23.116,7.4446
19980,-22.002,9.9956
19992,-22.437,10.645
20004,-24.543,11.263
20016,-23.118,7.6379
20027,-24.762,9.9704
20039,-24.554,7.9989
20051,-25.081,9.6735
20063,-26.089,8.7526
20074,-28.039,9.1115
20086,-24.047,10.631
20098,-22.42,8.2808
20109,-25.325,7.8198
20121,-24.577,8.0243
20133,-24.087,8.512
20145,-24.991,7.703
20156,-25.673,8.5743
20168,-25.205,7.8729
20180,-27.36,6.6385
20191,-25.826,5.8945
20203,-25.762,7.9653
20215,-26.833,9.2752
20227,-26.672,9.7822
20238,-22.062,5.683
20250,-22.96,7.4123
20262,-23.239,7.7419
20273,-23.863,7.009
20285,-23.247,9.894
20297,-23.761,10.838
20309,-22.325,9.8571
20320,-21.668,8.8711
20332,-22.159,7.8966
20344,-24.163,9.277
20355,-23.15,9.6717
20367,-27.725,9.6679
20379,-27.553,10.282
20391,-28.489,10.052
20402,-24.437,9.3243
20414,-23.213,6.4132
20426,-23.632,6.9034
20438,-22.137,8.4284
20449,-24.149,9.2164
20461,-27.223,8.0992
20473,-24.452,8.1834
20484,-23.559,8.1397
20496,-25.716,5.0022
20508,-24.92,6.4445
20520,-25.076,7.7002
20531,-24.959,7.2518
20543,-23.215,8.6702
20555,-24.89,10.779
20566,-24.943,8.3202
20578,-24.285,4.2791
20590,-23.983,7.8679
20602,-22.304,7.7146
20613,-23.304,6.6918
20625,-23.549,8.9327
20637,-27.222,9.1251
20648,-24.597,3.5624
20660,-22.688,5.3408
20672,-22.71,6.7512
20684,-22.967,6.3133
20695,-26.853,10.674
20707,-27.996,11.641
20719,-27.513,10.726
20730,-26.51,8.865
20742,-23.685,7.8293
20754,-25.033,9.1486
20766,-25.583,8.9314
20777,-24.873,6.6659
20789,-25.962,7.5462
20801,-27.775,9.9488
20813,-27.327,9.8232
20824,-26.319,9.4164
20836,-24.203,10.156
20848,-23.705,8.0269
20859,-23.307,3.6601
20871,-24.849,7.8811
20883,-25.515,11.399
20895,-26.061,9.39
20906,-25.281,7.3404
20918,-25.796,4.9496
20930,-24.475,9.8727
20941,-25.455,10.02
20953,-26.7,7.244
20965,-26.165,8.4877
20977,-23.886,8.5513
20988,-23.162,5.5371
21000,-25.068,7.1885
21012,-25.215,5.2627
21023,-25.406,4.3064
21035,-26.827,5.2422
21047,-26.459,8.6016
21059,-25.86,10.086
21070,-24.887,8.5209
21082,-27.215,5.0197
21094,-26.068,6.9597
21105,-28.101,8.8777
21117,-23.118,9.8
21129,-23.571,5.9491
21141,-25.732,5.5489
21152,-23.481,5.9485
21164,-24.255,7.904
21176,-27.055,9.0963
21188,-25.442,8.1332
21199,-26.675,7.8406
21211,-23.707,9.0816
21223,-22.793,8.6486
21234,-24.396,9.6854
21246,-25.783,9.9349
21258,-24.232,6.2011
21270,-25.605,5.9936
21281,-25.818,9.2095
21293,-24.749,9.0312
21305,-24.167,4.0341
21316,-21.924,5.4908
21328,-22.489,3.3672
21340,-24.998,7.4581
21352,-27.416,10.138
21363,-24.584,8.8762
21375,-24.126,7.2573
21387,-24.721,6.0688
21398,-26.247,7.4833
21410,-24.357,5.4915
21422,-19.565,7.9236
21434,-22.374,9.5712
21445,-26.984,8.6089
21457,-24.836,6.0997
21469,-24.844,7.3259
21480,-23.673,9.1398
21492,-27.113,9.0571
21504,-32.3,8.6292
21516,-27.792,6.0459
21527,-27.616,8.4602
21539,-26.27,4.1861
21551,-23.625,6.9138
21563,-26.848,7.5193
21574,-25.306,5.3495
21586,-23.719,5.5976
21598,-22.648,6.1434
21609,-22.93,6.3399
21621,-26.677,7.5569
21633,-24.727,8.4496
21645,-24.751,7.9316
21656,-25.076,6.8162
21668,-29.252,5.2301
21680,-25.792,7.3227
21691,-25.495,8.0643
21703,-25.355,9.7124
21715,-23.904,8.113
21727,-22.644,4.2761
21738,-25.199,5.5925
21750,-26.843,4.3934
21762,-27.073,3.6741
21773,-24.624,6.604
21785,-23.729,7.8388
21797,-26.076,10.325
21809,-24.766,10.034
21820,-26.163,7.3801
21832,-28.117,6.7306
21844,-26.243,7.6914
21855,-27.785,9.3496
21867,-27.581,9.1106
21879,-30.093,9.7906
21891,-27.109,9.1199
21902,-26.148,4.3442
21914,-26.583,6.9828
21926,-24.054,10.37
21938,-23.089,8.2848
21949,-23.787,8.0575
21961,-24.102,8.3198
21973,-28.09,5.9783
21984,-26.76,8.2858
21996,-26.487,6.9138
22008,-28.5,6.7445
22020,-26.824,7.3794
22031,-27.193,6.2675
22043,-28.103,5.4983
22055,-25.357,5.1154
22066,-25.311,5.7985
22078,-25.568,6.6125
22090,-27.112,9.3267
22102,-27.99,8.9867
22113,-27.119,7.8964
22125,-24.412,7.5232
22137,-23.094,9.8794
22148,-25.936,9.965
22160,-23.853,5.1651
22172,-25.977,7.8
22184,-26.76,8.4788
22195,-25.05,9.1943
22207,-25.181,7.6073
22219,-25.375,3.9183
22230,-24.992,6.7778
22242,-26.011,7.9197
22254,-28.221,6.1637
22266,-28.693,3.0445
22277,-27.884,6.882
22289,-27.995,8.1248
22301,-26.669,6.1918
22313,-25.195,10.224
22324,-24.31,7.6533
22336,-26.031,6.4216
22348,-27.995,10.1
22359,-27.852,9.961
22371,-26.05,5.9206
22383,-26.42,6.0476
22395,-24.774,4.8648
22406,-24.642,4.1581
22418,-28.324,4.3098
22430,-30.545,3.6092
22441,-31.148,4.2115
22453,-30.304,4.6219
22465,-28.616,4.1644
22477,-28.481,6.9187
22488,-25.533,8.9336
22500,-25.762,7.002
22512,-25.99,5.999
22523,-27.167,2.4776
22535,-28.736,3.1093
22547,-28.386,6.1433
22559,-25.1,6.2876
22570,-24.61,3.2362
22582,-26.647,6.6979
22594,-23.246,7.7254
22605,-22.996,4.4285
22617,-27.229,5.5531
22629,-26.943,9.5585
22641,-27.835,6.9474
22652,-25.994,4.7452
22664,-27.571,5.291
22676,-29.051,3.9911
22688,-28.265,5.4045
22699,-27.725,7.1498
22711,-25.44,7.2856
22723,-24.722,6.8024
22734,-25.02,6.3959
22746,-24.619,7.7323
22758,-26.546,8.5693
22770,-27.69,9.464
22781,-27.318,6.3551
22793,-26.489,6.8821
22805,-27.722,4.6624
22816,-27.934,4.1771
22828,-29.546,9.6345
22840,-25.31,8.345
22852,-28.562,5.8557
22863,-29.014,2.019
22875,-27.959,0.93226
22887,-25.552,2.3394
22898,-28.113,4.7262
22910,-28.688,5.3676
22922,-25.834,5.4523
22934,-25.71,3.7251
22945,-27.543,4.4482
22957,-29.77,6.9867
22969,-27.969,7.1997
22980,-28.789,6.351
22992,-28.153,4.728
23004,-27.237,7.8558
23016,-29.596,6.2991
23027,-26.382,3.4582
23039,-25.09,3.9063
23051,-25.281,2.977
23063,-30.111,4.8359
23074,-27.569,5.6981
23086,-24.087,5.403
23098,-25.217,7.4973
23109,-29.499,7.7131
23121,-30.433,5.5105
23133,-31.582,6.4321
23145,-29.688,8.0716
23156,-27.917,6.3062
23168,-30.501,6.6338
23180,-27.95,5.6263
23191,-29,5.077
23203,-28.691,6.604
23215,-26.035,7.8317
23227,-25.055,6.5422
23238,-23.645,2.5137
23250,-26.428,5.8172
23262,-27.775,6.5754
23273,-27.975,4.6859
23285,-29.82,7.151
23297,-26.747,9.7118
23309,-28.619,8.7102
23320,-27.006,4.9657
23332,-26.969,4.833
23344,-28.491,5.5307
23355,-29.081,6.437
23367,-28.434,6.3193
23379,-27.715,5.8286
23391,-29.462,4.9679
23402,-28.437,5.5249
23414,-28.084,6.0683
23426,-27.986,3.9706
23438,-30.069,6.417
23449,-27.645,6.3431
23461,-29.418,2.9922
23473,-30.306,7.954
23484,-28.414,9.9848
23496,-26.239,7.6048
23508,-25.107,6.5394
23520,-26.235,5.0449
23531,-27.492,4.379
23543,-28.721,3.3252
23555,-28.569,5.9304
23566,-25.359,5.6295
23578,-24.331,4.3571
23590,-26.151,5.2988
23602,-25.734,2.6594
23613,-24.666,0.036891
23625,-25.138,4.5796
23637,-25.977,8.608
23648,-30.293,6.0121
23660,-29.562,4.5054
23672,-27.441,5.7201
23684,-27.354,6.5139
23695,-27.165,4.4643
23707,-26.063,5.0192
23719,-23.456,5.8019
23730,-25.74,5.629
23742,-30.937,5.7489
23754,-28.517,4.0495
23766,-28.384,4.3522
23777,-30.167,9.1859
23789,-29.558,10.125
23801,-27.94,6.4945
23813,-28.039,6.6072
23824,-28.895,6.7942
23836,-29.531,7.6445
23848,-30.167,9.3307
23859,-30.352,8.5187
23871,-27.023,6.7838
23883,-28.825,8.7432
23895,-26.904,6.9746
23906,-24.799,2.8165
23918,-29.232,4.5493
23930,-26.111,7.633
23941,-27.124,5.0752
23953,-25.003,4.4338
23965,-25.806,2.9234
23977,-24.684,3.4661
23988,-25.487,5.2502
