FFT,Power Spectrum
Frequency[Hz],Level-L[dB],Level-R[dB]
11.719,-20.419,-15.349
23.438,0.23268,1.7432
35.156,2.1433,9.8495
46.875,3.4246,13.123
58.594,3.8515,18.472
70.313,4.9076,21.175
82.031,3.2806,19.652
93.75,12.636,19.577
105.47,14.616,21.299
117.19,6.5832,20.629
128.91,10.172,21.424
140.63,12.943,23.647
152.34,8.3456,26.455
164.06,3.6448,28.516
175.78,5.1214,29.655
187.5,10.447,28
199.22,11.92,27.836
210.94,6.5265,26.253
222.66,8.301,27.524
234.38,10.134,29.167
246.09,7.5871,29.922
257.81,5.1808,29.058
269.53,4.7936,28.659
281.25,11.299,26.502
292.97,11.943,24.763
304.69,7.5124,28.422
316.41,4.1439,31.212
328.13,5.9018,29.43
339.84,6.0134,29.753
351.56,3.8935,30.594
363.28,3.102,29.35
375,3.8963,26.758
386.72,7.7592,28.577
398.44,9.235,30.507
410.16,7.3526,29.644
421.88,3.5454,27.782
433.59,2.4541,29.72
445.31,4.0727,30.21
457.03,5.1328,28.038
468.75,1.9141,28.67
480.47,2.6907,30.698
492.19,1.6896,29.395
503.91,3.4457,29.132
515.63,4.5432,28.99
527.34,4.5915,30.826
539.06,6.8972,31.101
550.78,5.4179,30.153
562.5,4.6007,32.11
574.22,4.4332,30.732
585.94,3.3636,28.655
597.66,2.4756,30.497
609.38,5.0665,32.4
621.09,2.4439,29.529
632.81,0.27916,28.188
644.53,3.1051,28.227
656.25,5.3831,30.648
667.97,5.9531,28.45
679.69,4.5788,28.357
691.41,1.325,28.662
703.13,2.9288,26.196
714.84,4.2415,29.982
726.56,4.2688,28.794
738.28,3.8396,29.005
750,4.6176,30.278
761.72,4.8865,30.426
773.44,5.0017,29.903
785.16,3.9195,30.207
796.88,3.2636,30.205
808.59,3.9534,29.877
820.31,5.0118,29.156
832.03,3.9483,29.969
843.75,2.4793,26.774
855.47,0.96951,26.023
867.19,4.2429,27.987
878.91,5.0519,27.447
890.63,5.4622,26.792
902.34,5.9825,27.439
914.06,6.1718,25.376
925.78,5.7557,29.03
937.5,5.0572,28.515
949.22,2.9844,27.786
960.94,5.795,25.778
972.66,6.3493,29.634
984.38,7.2237,28.326
996.09,6.6913,26.346
1007.8,5.6797,26.666
1019.5,3.6752,26.56
1031.3,4.5196,29.395
1043,5.0395,28.986
1054.7,4.7462,27.681
1066.4,4.5708,25.992
1078.1,5.1563,25.394
1089.8,7.287,27.006
1101.6,6.5387,29.898
1113.3,5.3657,29.125
1125,5.5885,26.887
1136.7,9.2249,26.898
1148.4,7.6901,29.628
1160.2,7.2552,27.654
1171.9,6.8975,28.507
1183.6,4.618,29.847
1195.3,3.4799,27.058
1207,5.2097,28.719
1218.8,4.8036,30.629
1230.5,4.7804,29.448
1242.2,5.7577,25.524
1253.9,7.1841,24.906
1265.6,3.0554,25.945
1277.3,4.9128,26.458
1289.1,4.3821,26.784
1300.8,2.5946,23.805
1312.5,6.7961,26.236
1324.2,5.4301,25.86
1335.9,4.5133,27.083
1347.7,2.3571,26.412
1359.4,3.9062,27.108
1371.1,4.6987,28.512
1382.8,5.3413,28.935
1394.5,6.025,30.154
1406.3,6.0159,29.874
1418,5.702,29.168
1429.7,5.6689,29.599
1441.4,6.0624,28.009
1453.1,3.5787,24.349
1464.8,0.23975,25.474
1476.6,1.8226,28.898
1488.3,5.38,28.602
1500,7.9456,27.925
1511.7,4.4625,26.232
1523.4,4.7265,27.705
1535.2,5.2991,30.807
1546.9,5.4736,29.229
1558.6,5.1384,27.124
1570.3,4.3302,28.108
1582,4.0254,27.463
1593.8,4.6159,26.139
1605.5,2.7802,27.403
1617.2,2.5865,29.356
1628.9,4.4781,26.829
1640.6,3.6754,27.922
1652.3,3.0456,26.463
1664.1,0.36163,27.073
1675.8,2.7631,29.328
1687.5,2.2758,29.724
1699.2,1.1854,29.546
1710.9,2.9859,29.824
1722.7,4.3966,30.193
1734.4,0.081298,28.874
1746.1,-1.5,27.866
1757.8,4.4366,29.235
1769.5,5.6328,29.618
1781.3,4.4842,25.071
1793,8.535,28.23
1804.7,6.8181,27.532
1816.4,16.004,23.687
1828.1,34.603,29.322
1839.8,45.472,32.596
1851.6,43.553,30.431
1863.3,25.843,26.506
1875,11.458,26.21
1886.7,4.8731,25.131
1898.4,5.571,27.083
1910.2,3.0651,25.923
1921.9,4.0784,26.6
1933.6,1.0273,28.028
1945.3,-0.34562,27.332
1957,0.42627,28.773
1968.8,0.70304,26.648
1980.5,0.89446,28.492
1992.2,4.7747,27.603
2003.9,2.6988,26.013
2015.6,0.92132,27.45
2027.3,2.5221,27.183
2039.1,3.5127,29.478
2050.8,0.78297,28.619
2062.5,3.0946,25.812
2074.2,4.127,24.707
2085.9,2.5952,24.949
2097.7,-0.65967,24.852
2109.4,2.345,23.848
2121.1,1.7539,25.859
2132.8,3.5927,23.258
2144.5,2.7488,21.793
2156.3,1.8096,25.044
2168,0.85352,26.241
2179.7,3.7934,26.184
2191.4,0.86711,26.5
2203.1,0.8776,26.024
2214.8,1.1673,26.67
2226.6,1.1512,27.534
2238.3,3.1929,25.049
2250,5.7917,25.204
2261.7,3.0902,24.178
2273.4,-2.343,24.163
2285.2,0.45672,23.603
2296.9,0.82846,25.645
2308.6,1.3086,25.401
2320.3,2.5673,21.667
2332,0.95693,21.714
2343.8,-1.1727,23.72
2355.5,0.064234,26.175
2367.2,5.695,23.3
2378.9,7.1724,24.571
2390.6,1.7948,25.997
2402.3,1.7845,25.601
2414.1,2.3182,27.351
2425.8,0.43638,26.573
2437.5,1.1953,25.147
2449.2,2.7905,25.987
2460.9,0.05274,25.087
2472.7,0.43552,25.708
2484.4,3.2185,26.861
2496.1,-0.12089,23.408
2507.8,0.98602,24.683
2519.5,3.9454,25.435
2531.3,1.6527,23.3
2543,-1.975,23.322
2554.7,0.43541,23.808
2566.4,1.7435,24.997
2578.1,0.80699,28.743
2589.8,3.022,28.997
2601.6,3.6795,28.025
2613.3,3.5523,25.121
2625,1.8712,26.171
2636.7,1.8673,28.214
2648.4,-0.32841,27.886
2660.2,-3.0201,25.356
2671.9,-1.018,23.068
2683.6,0.0022582,21.981
2695.3,-1.5308,22.623
2707,-0.35451,22.584
2718.8,0.066127,22.553
2730.5,0.31189,23.529
2742.2,-1.3239,25.118
2753.9,-5.0382,26.005
2765.6,-4.2315,26.475
2777.3,-1.1562,25.536
2789.1,1.0462,26.671
2800.8,0.84745,26.714
2812.5,0.41674,24.57
2824.2,0.11122,24.94
2835.9,-3.0204,23.188
2847.7,0.083647,23.368
2859.4,0.69662,24.793
2871.1,-0.94146,28.151
2882.8,0.4947,25.486
2894.5,1.6141,22.138
2906.3,2.2393,24.211
2918,2.4062,25.005
2929.7,0.23011,24.744
2941.4,-1.6381,24.995
2953.1,2.3635,22.724
2964.8,1.8176,23.486
2976.6,-2.6254,23.041
2988.3,0.3145,24.094
3000,0.48582,22.859
3011.7,1.8163,23.107
3023.4,1.467,25.355
3035.2,-1.4777,24.66
3046.9,-2.2025,23.937
3058.6,-1.3312,25.178
3070.3,1.8466,22.106
3082,-1.0549,24.474
3093.8,-1.0327,24.432
3105.5,-0.94615,22.115
3117.2,-1.2977,23.867
3128.9,-2.8613,24.7
3140.6,0.027115,25.627
3152.3,-0.86903,21.425
3164.1,-1.0819,23.603
3175.8,-0.41257,24.907
3187.5,0.79997,21.019
3199.2,1.3711,20.623
3210.9,-1.8684,21.588
3222.7,-2.812,24.292
3234.4,-0.43932,21.523
3246.1,-1.2983,24.706
3257.8,-1.1651,23.561
3269.5,-1.2116,21.376
3281.3,-1.7007,23.889
3293,-1.2418,22.151
3304.7,-1.325,22.888
3316.4,-0.46029,24.157
3328.1,0.22585,24.225
3339.8,-1.6463,26.912
3351.6,-2.1072,28.332
3363.3,-4.5661,24.388
3375,-3.8509,24.711
3386.7,-1.6476,23.968
3398.4,-2.886,23.975
3410.2,-3.6845,25.531
3421.9,-4.1568,27.123
3433.6,-0.83293,26.051
3445.3,-1.0016,23.489
3457,-1.086,21.162
3468.8,-0.32976,20.647
3480.5,2.306,24.174
3492.2,1.7044,23.021
3503.9,-0.15376,19.816
3515.6,-0.59073,21.837
3527.3,-2.1839,21.966
3539.1,-1.2598,20.864
3550.8,-0.84923,25.741
3562.5,-2.9943,24.511
3574.2,-3.2939,23.575
3585.9,-2.4946,20.652
3597.7,-0.73565,18.588
3609.4,-0.31619,22.433
3621.1,0.77671,23.594
3632.8,-2.305,20.627
3644.5,-1.985,19.587
3656.3,-1.5552,18.975
3668,-3.6363,22.401
3679.7,-4.5251,24.774
3691.4,0.95394,22.725
3703.1,1.1666,20.615
3714.8,-2.0105,24.002
3726.6,1.37,23.24
3738.3,-1.237,22.734
3750,-2.7306,24.299
3761.7,-0.8066,20.999
3773.4,-0.71298,22.564
3785.2,-1.6351,25.833
3796.9,-1.0515,25.449
3808.6,-1.6573,23.97
3820.3,-3.0369,22.123
3832,-0.76567,23.018
3843.8,-1.0783,21.527
3855.5,-1.7572,20.071
3867.2,-0.15631,23.205
3878.9,0.030842,22.565
3890.6,-2.5817,20.466
3902.3,-2.9985,18.779
3914.1,-3.4852,20.703
3925.8,0.66895,22.899
3937.5,-0.19223,21.084
3949.2,-3.0399,21.336
3960.9,-1.8969,20.874
3972.7,-1.9175,24.551
3984.4,-3.0603,26.09
3996.1,-0.20486,22.673
4007.8,-0.48586,20.308
4019.5,-0.88687,19.588
4031.3,-1.5701,19.569
4043,-1.1498,21.351
4054.7,-2.7937,22.46
4066.4,-0.64965,22.671
4078.1,-3.0131,20.279
4089.8,-2.3086,21.728
4101.6,-0.81363,21.67
4113.3,0.19746,22.753
4125,-0.96564,22.133
4136.7,-2.361,20.791
4148.4,-3.7274,19.33
4160.2,-3.3256,20.915
4171.9,-1.6226,21.718
4183.6,-2.9934,23.052
4195.3,-2.9147,22.406
4207,-3.6216,22.881
4218.8,-3.4149,22.466
4230.5,-2.4937,20.858
4242.2,-3.7903,20.987
4253.9,-2.3787,23.774
4265.6,-2.1225,23.55
4277.3,-0.57034,21.927
4289.1,-1.538,22.026
4300.8,-0.39044,18.306
4312.5,-1.6501,22.434
4324.2,-3.2308,19.761
4335.9,-4.3385,22.188
4347.7,-3.8022,21.558
4359.4,-2.611,21.909
4371.1,-2.1244,21.434
4382.8,-4.2329,20.755
4394.5,-2.1951,19.39
4406.3,-2.8758,21.468
4418,-4.2051,23.478
4429.7,-3.7336,22.943
4441.4,-2.6317,18.769
4453.1,-1.3324,19.8
4464.8,-1.1854,21.686
4476.6,-3.214,19.739
4488.3,-2.4914,21.115
4500,-0.46751,21.263
4511.7,-0.19913,20.924
4523.4,-2.0768,20.662
4535.2,-3.6865,21.485
4546.9,-3.8474,21.267
4558.6,-2.64,23.133
4570.3,-3.119,22.934
4582,-3.0599,22.3
4593.8,-0.90594,20.332
4605.5,-2.3374,18.775
4617.2,-1.8223,20.771
4628.9,0.078481,22.551
4640.6,-2.3263,18.868
4652.3,-2.5038,18.839
4664.1,-2.1688,21.2
4675.8,0.25496,23.37
4687.5,-0.47677,21.306
4699.2,-3.4604,18.409
4710.9,-3.5068,21.783
4722.7,-3.4252,21.07
4734.4,-2.5233,20.198
4746.1,-4.1004,21.601
4757.8,-4.6,21.87
4769.5,-2.6391,17.435
4781.3,-0.81301,19.568
4793,-2.86,20.27
4804.7,-5.3569,19.669
4816.4,-8.8974,21.582
4828.1,-7.3332,20.857
4839.8,-5.3808,18.252
4851.6,-3.2114,19.256
4863.3,-3.186,21.018
4875,-3.5427,20.506
4886.7,-3.1654,20.087
4898.4,-3.2953,19.26
4910.2,-3.6072,21.044
4921.9,-1.139,21.732
4933.6,-2.2355,18.481
4945.3,-3.2189,21.186
4957,-0.99344,21.368
4968.8,-4.4855,19.093
4980.5,-2.1811,20.485
4992.2,-2.0621,18.303
5003.9,-4.4869,19.742
5015.6,-4.9656,18.952
5027.3,-1.38,17.823
5039.1,-0.76051,16.747
5050.8,-4.3857,17.536
5062.5,-5.9533,18.651
5074.2,-4.8787,19.982
5085.9,-2.2505,22.035
5097.7,-1.8685,20.947
5109.4,-3.5564,19.984
5121.1,-3.7531,16.693
5132.8,-4.138,21.439
5144.5,-4.1864,23.261
5156.3,-5.7563,21.187
5168,-4.0664,16.958
5179.7,-3.7239,18.5
5191.4,-4.0197,20.149
5203.1,-3.8037,20.621
5214.8,-4.4431,21.589
5226.6,-3.5691,21.611
5238.3,-3.4204,18.89
5250,-2.3327,16.307
5261.7,-0.99142,17.292
5273.4,-3.2697,19.258
5285.2,-2.4474,20.568
5296.9,-1.2776,23.005
5308.6,-0.67141,24.403
5320.3,-2.9849,20.632
5332,-2.2229,17.091
5343.8,-2.3614,20.038
5355.5,-5.011,21.108
5367.2,-5.0469,18.228
5378.9,-2.9938,17.138
5390.6,-2.3634,21.455
5402.3,-2.0542,20.57
5414.1,-2.3688,18.543
5425.8,-3.0734,23.263
5437.5,-3.9202,23.691
5449.2,-2.7728,20.335
5460.9,-3.2207,21.944
5472.7,-1.0201,21.805
5484.4,0.087286,18.392
5496.1,-1.9461,18.939
5507.8,-1.8122,20.792
5519.5,3.0074,19.115
5531.3,6.5479,19.946
5543,0.21105,21.893
5554.7,-6.0855,21.246
5566.4,-5.5065,19.182
5578.1,-2.6411,16.466
5589.8,-3.4756,21.28
5601.6,-4.4722,22.573
5613.3,-3.874,20.722
5625,-3.6661,17.185
5636.7,-3.066,17.374
5648.4,-3.9534,17.183
5660.2,-4.539,16.613
5671.9,-5.2799,19.129
5683.6,-5.3561,19.714
5695.3,-5.8045,21.587
5707,-7.9962,19.803
5718.8,-5.5629,18.874
5730.5,-7.469,19.353
5742.2,-3.8262,17.654
5753.9,-4.1042,16.775
5765.6,-4.1252,18.196
5777.3,-3.4866,18.147
5789.1,-2.9755,19.016
5800.8,-3.5518,18.189
5812.5,-5.5547,17.752
5824.2,-4.5018,17.437
5835.9,-4.3048,18.925
5847.7,-4.4152,17.797
5859.4,-4.0177,17.615
5871.1,-4.7858,17.904
5882.8,-5.9517,21.059
5894.5,-3.5059,19.688
5906.3,-6.7458,18.849
5918,-8.1471,19.91
5929.7,-7.3942,21.361
5941.4,-6.2947,20.504
5953.1,-6.1408,18.427
5964.8,-5.9037,20.809
5976.6,-9.1883,20.528
5988.3,-10.103,19.833
6000,-8.2789,20.47
6011.7,-7.1655,19.281
6023.4,-8.9837,18.388
6035.2,-8.2974,17.976
6046.9,-5.1478,19.575
6058.6,-6.4263,18.511
6070.3,-5.5785,18.16
6082,-7.1658,19.184
6093.8,-6.4098,20.612
6105.5,-6.8363,21.831
6117.2,-6.2559,20.518
6128.9,-7.2052,19.734
6140.6,-6.6664,19.644
6152.3,-5.6747,19.646
6164.1,-7.014,18.834
6175.8,-9.4553,19.374
6187.5,-5.1788,18.864
6199.2,-4.8608,20.524
6210.9,-4.3058,18.775
6222.7,-2.6777,16.938
6234.4,-6.3131,17.494
6246.1,-6.5644,19.166
6257.8,-6.8028,19.542
6269.5,-8.1804,18.901
6281.3,-5.4987,17.459
6293,-5.8561,15.679
6304.7,-6.0578,14.708
6316.4,-7.2604,15.646
6328.1,-5.6908,14.968
6339.8,-6.5552,16.16
6351.6,-6.5374,17.368
6363.3,-4.472,18.778
6375,-4.7613,18.068
6386.7,-5.8265,15.927
6398.4,-6.4065,17.927
6410.2,-7.89,17.726
6421.9,-7.663,17.835
6433.6,-4.4142,19.826
6445.3,-5.4002,17.989
6457,-7.4747,19.857
6468.8,-6.8597,17.129
6480.5,-5.1046,18.878
6492.2,-5.47,19.346
6503.9,-6.0843,19.999
6515.6,-7.8425,19.127
6527.3,-8.5403,20.202
6539.1,-6.2354,20.516
6550.8,-6.1417,20.655
6562.5,-6.4512,16.472
6574.2,-7.0057,18.824
6585.9,-3.5458,19.323
6597.7,-5.9165,16.341
6609.4,-7.0014,15.151
6621.1,-7.5835,17.889
6632.8,-7.0018,16.603
6644.5,-5.6306,17.068
6656.3,-6.2139,16.902
6668,-5.8834,18.838
6679.7,-5.4983,20.575
6691.4,-5.545,20.602
6703.1,-4.913,19.773
6714.8,-6.9832,18.768
6726.6,-8.7322,16.486
6738.3,-7.4778,19.649
6750,-7.8173,20.153
6761.7,-10.477,16.488
6773.4,-7.5714,16.947
6785.2,-6.2855,19.586
6796.9,-5.0681,21.377
6808.6,-4.8376,18.797
6820.3,-7.5428,19.151
6832,-7.7025,19.532
6843.8,-7.4284,15.02
6855.5,-9.2245,16.717
6867.2,-9.6162,19.177
6878.9,-9.7395,19.453
6890.6,-6.5226,18.428
6902.3,-7.761,17.328
6914.1,-5.981,20.071
6925.8,-4.528,20.186
6937.5,-7.4682,17.612
6949.2,-7.265,14.088
6960.9,-5.4348,14.718
6972.7,-5.5595,11.712
6984.4,-7.1577,18.666
6996.1,-5.8894,20.096
7007.8,-6.3379,15.282
7019.5,-4.5378,17.584
7031.3,-2.7752,17.657
7043,-5.7381,16.052
7054.7,-7.182,14.137
7066.4,-10.666,17.081
7078.1,-5.4985,18.898
7089.8,-6.471,18.188
7101.6,-7.1871,17.633
7113.3,-6.8218,18.254
7125,-6.8406,19.615
7136.7,-5.7055,19.388
7148.4,-6.6009,18.687
7160.2,-8.7222,17.755
7171.9,-8.3946,15.094
7183.6,-9.7162,18.491
7195.3,-8.9135,16.496
7207,-7.7758,16.24
7218.8,-7.6384,15.844
7230.5,-11.286,16.868
7242.2,-11.007,18.564
7253.9,-8.0488,18.028
7265.6,-7.8452,15.784
7277.3,-7.3046,17.529
7289.1,-5.4324,18.648
7300.8,-8.2492,18.295
7312.5,-6.4638,14.964
7324.2,-9.1406,13.938
7335.9,-5.6718,14.85
7347.7,-4.1534,16.054
7359.4,-5.3546,18.185
7371.1,-6.2562,17.959
7382.8,-7.465,15.382
7394.5,-10.096,13.88
7406.3,-9.4169,15.335
7418,-5.5274,18.868
7429.7,-5.5468,18.699
7441.4,-8.7468,17.597
7453.1,-8.5838,16.936
7464.8,-8.8691,19.186
7476.6,-7.0198,19.856
7488.3,-4.7467,19.825
7500,-9.7926,15.498
7511.7,-4.1161,14.151
7523.4,-4.939,14.549
7535.2,-8.1346,16.422
7546.9,-8.3158,17.914
7558.6,-5.5488,17.807
7570.3,-5.3244,17.963
7582,-6.4502,16.011
7593.8,-6.8339,15.288
7605.5,-7.5031,15.022
7617.2,-5.9136,15.976
7628.9,-6.5722,18.732
7640.6,-8.2207,17.222
7652.3,-5.3964,16.032
7664.1,-8.4641,18.15
7675.8,-8.8455,19.168
7687.5,-4.5125,20.605
7699.2,-5.0276,20.754
7710.9,-7.8718,17.648
7722.7,-7.8797,16.177
7734.4,-8.9764,16.177
7746.1,-8.2459,12.507
7757.8,-7.2642,14.829
7769.5,-6.277,14.937
7781.3,-7.7736,15.257
7793,-9.5373,15.727
7804.7,-12.25,15.382
7816.4,-11.903,14.042
7828.1,-9.6878,15.783
7839.8,-9.1677,17.648
7851.6,-7.7864,18.237
7863.3,-9.2502,15.67
7875,-10.644,13.353
7886.7,-10.02,16.933
7898.4,-9.7164,17.012
7910.2,-11.815,15.345
7921.9,-5.8896,16.85
7933.6,-6.3374,18.803
7945.3,-10.458,19.566
7957,-11.357,19.752
7968.8,-8.3552,16.957
7980.5,-9.0467,15.198
7992.2,-7.5223,16.395
8003.9,-7.8603,17.164
8015.6,-8.5478,15.892
8027.3,-7.5465,16.193
8039.1,-7.2102,16.092
8050.8,-7.7258,14.764
8062.5,-8.7671,13.422
8074.2,-8.8651,14.518
8085.9,-11.52,16.658
8097.7,-11.433,15.631
8109.4,-8.4908,14.474
8121.1,-9.2372,15.856
8132.8,-9.7564,14.925
8144.5,-8.1507,17.714
8156.3,-9.2013,19.935
8168,-7.5707,18.342
8179.7,-6.0198,18.053
8191.4,-6.6966,17.24
8203.1,-8.6991,17.702
8214.8,-9.0933,15.275
8226.6,-9.395,14.942
8238.3,-11.106,15.697
8250,-13.936,20.658
8261.7,-12.695,21.264
8273.4,-10.908,17.269
8285.2,-10.213,14.796
8296.9,-6.7649,11.026
8308.6,-8.4528,15.175
8320.3,-7.8973,15.571
8332,-8.5882,14.332
8343.8,-9.6467,14.708
8355.5,-8.1877,15.263
8367.2,-6.6706,16.166
8378.9,-8.8155,17.019
8390.6,-10.728,17.26
8402.3,-7.9879,16.061
8414.1,-9.3696,14.7
8425.8,-12.419,15.165
8437.5,-9.9675,14.891
8449.2,-7.9731,15.594
8460.9,-8.5484,13.92
8472.7,-10.237,12.425
8484.4,-7.1255,16.16
8496.1,-5.2652,13.297
8507.8,-5.6489,13.879
8519.5,-12.155,16.652
8531.3,-12.432,13.073
8543,-10.835,11.161
8554.7,-8.5721,11.811
8566.4,-8.316,13.662
8578.1,-7.994,15.71
8589.8,-8.4695,17.753
8601.6,-9.6309,16.852
8613.3,-10.667,16.056
8625,-11.534,18.32
8636.7,-13.349,17.811
8648.4,-11.619,16.334
8660.2,-7.5611,14.496
8671.9,-5.673,9.133
8683.6,-7.5156,11.483
8695.3,-11.802,15.367
8707,-13.382,14.819
8718.8,-11.59,12.748
8730.5,-10.841,15.373
8742.2,-8.7553,15.754
8753.9,-10.335,13.665
8765.6,-11.25,15.564
8777.3,-11.05,15.702
8789.1,-10.496,15.793
8800.8,-9.2477,15.679
8812.5,-7.6193,15.884
8824.2,-8.8604,13.354
8835.9,-6.3369,14.4
8847.7,-7.3795,13.256
8859.4,-10.61,12.429
8871.1,-7.4905,13.065
8882.8,-6.6673,15.625
8894.5,-13.019,15.135
8906.3,-8.5444,15.167
8918,-8.4161,13.716
8929.7,-11.724,11.594
8941.4,-9.46,13.599
8953.1,-9.3898,14.023
8964.8,-7.6785,10.764
8976.6,-8.8536,16.553
8988.3,-12.093,19.671
9000,-11.147,15.253
9011.7,-11.479,13.004
9023.4,-12.925,17.022
9035.2,-12.326,16.159
9046.9,-9.2514,17.06
9058.6,-10.952,16.599
9070.3,-13.917,13.675
9082,-11.967,13.441
9093.8,-11.357,13.531
9105.5,-9.7868,14.877
9117.2,-8.7809,15.096
9128.9,-8.4682,11.617
9140.6,-7.4287,13.836
9152.3,-7.9974,13.959
9164.1,-6.7913,15.558
9175.8,-9.0339,13.958
9187.5,-11.12,13.775
9199.2,-12.235,14.152
9210.9,-10.771,16.245
9222.7,-10.893,15.855
9234.4,-11.413,14.21
9246.1,-11.482,12.674
9257.8,-9.6741,14.081
9269.5,-9.526,15.377
9281.3,-9.2336,14.448
9293,-8.6436,14.769
9304.7,-8.5238,12.711
9316.4,-11.796,17.256
9328.1,-13.031,17.698
9339.8,-10.618,14.505
9351.6,-8.2896,13.583
9363.3,-9.3271,12.83
9375,-11.314,13.114
9386.7,-11.462,12.133
9398.4,-11.026,12.17
9410.2,-12.465,10.613
9421.9,-10.107,13.883
9433.6,-10.996,15.634
9445.3,-10.517,13.892
9457,-11.754,12.102
9468.8,-9.8435,13.829
9480.5,-10.81,12.939
9492.2,-11.297,12.703
9503.9,-12.186,16.268
9515.6,-12.272,15.935
9527.3,-12.555,13.014
9539.1,-13.275,10.656
9550.8,-14.612,10.482
9562.5,-14.24,13.235
9574.2,-10.759,14.214
9585.9,-9.2786,12.286
9597.7,-8.5816,12.928
9609.4,-11.481,10.934
9621.1,-11.551,11.908
9632.8,-11.503,13.489
9644.5,-10.448,10.924
9656.3,-10.595,12.239
9668,-10.86,13.694
9679.7,-14.008,16.329
9691.4,-9.8178,13.053
9703.1,-8.1112,13.24
9714.8,-11.509,13.304
9726.6,-14.509,15.45
9738.3,-15.263,14.953
9750,-13.447,9.6373
9761.7,-13.7,14.032
9773.4,-13.207,14.03
9785.2,-10.366,12.47
9796.9,-11.325,16.962
9808.6,-11.118,16.751
9820.3,-10.511,12.881
9832,-11.244,13.344
9843.8,-11.482,13.813
9855.5,-10.82,13.194
9867.2,-9.9474,10.133
9878.9,-8.9048,12.825
9890.6,-10.112,14.586
9902.3,-10.592,14.556
9914.1,-8.624,11.104
9925.8,-8.422,12.103
9937.5,-10.123,10.655
9949.2,-10.361,15.405
9960.9,-8.4906,14.835
9972.7,-10.423,9.4361
9984.4,-11.58,15.037
9996.1,-11.629,14.108
10008,-11.034,11.302
10020,-9.9082,11.285
10031,-9.6815,11.094
10043,-10.355,13.223
10055,-15.157,13.27
10066,-12.706,14.115
10078,-13.554,13.118
10090,-14.005,13.439
10102,-9.8278,14.839
10113,-10.676,14.994
10125,-12.406,12.714
10137,-9.796,10.313
10148,-9.4071,11.796
10160,-10.837,12.055
10172,-9.9078,12.223
10184,-11.459,13.975
10195,-14.099,13.989
10207,-14.622,10.371
10219,-11.385,12.98
10230,-12.009,13.898
10242,-13.028,9.7775
10254,-11.788,13.407
10266,-10.68,15.031
10277,-9.8637,10.991
10289,-9.2311,10.327
10301,-11.493,15.457
10313,-10.552,17.832
10324,-11.807,15.333
10336,-12.687,13.019
10348,-12.084,14.72
10359,-11.88,14.077
10371,-11.802,14.362
10383,-11.941,14.257
10395,-9.7199,12.584
10406,-10.246,14.506
10418,-12.321,14.62
10430,-13.047,12.406
10441,-12.983,11.728
10453,-13.658,9.924
10465,-12.507,14.343
10477,-12.265,15.558
10488,-11.632,14.456
10500,-12.997,14.891
10512,-11.971,15.43
10523,-10.467,13.633
10535,-12.257,13.95
10547,-12.632,14.587
10559,-13.486,14.087
10570,-11.586,16.054
10582,-10.991,14.545
10594,-11.285,13.752
10605,-12.612,13.828
10617,-12.97,10.583
10629,-11.774,11.103
10641,-9.1786,12.732
10652,-8.9553,11.886
10664,-10.986,10.65
10676,-10.639,14.319
10688,-9.3968,14.047
10699,-9.9993,13.136
10711,-13.467,10.675
10723,-14.987,11.512
10734,-11.905,12.56
10746,-12.291,11.822
10758,-14.129,10.182
10770,-11.804,15.356
10781,-11.909,14.237
10793,-15.062,11.786
10805,-14.077,11.254
10816,-11.181,12.357
10828,-11.615,12.035
10840,-12.871,13.293
10852,-13.221,13.489
10863,-12.299,10.363
10875,-11.324,10.436
10887,-13.865,13.076
10898,-14.386,14.714
10910,-13.641,11.666
10922,-11.855,15.026
10934,-12.413,14.604
10945,-11.494,10.22
10957,-11.424,11.126
10969,-12.423,11.885
10980,-9.9997,11.353
10992,-8.319,13.461
11004,-8.1464,13.977
11016,-10.761,13.131
11027,-13.23,13.177
11039,-14.575,13.47
11051,-15.776,13.545
11063,-13.753,12.57
11074,-16.099,13.915
11086,-14.226,15.664
11098,-12.556,13.303
11109,-10.397,13.309
11121,-11.67,12.862
11133,-11.787,10.399
11145,-10.595,11.977
11156,-10.98,12.672
11168,-12.285,13.234
11180,-12.523,14.335
11191,-11.367,16.354
11203,-11.698,13.174
11215,-12.902,11.853
11227,-13.826,14.079
11238,-13.424,13.105
11250,-13.093,10.77
11262,-14.583,11.248
11273,-12.419,10.521
11285,-11.667,9.2952
11297,-14.552,9.1115
11309,-13.146,9.794
11320,-14.849,11.805
11332,-13.109,9.8007
11344,-12.551,8.5649
11355,-10.261,9.9696
11367,-12.388,9.5332
11379,-13.208,9.5497
11391,-12.762,6.6259
11402,-11.017,9.4866
11414,-13.6,12.252
11426,-9.2251,11.167
11438,-10.001,11.504
11449,-12.218,12.114
11461,-9.415,10.08
11473,-8.8768,10.081
11484,-10.112,9.8766
11496,-13.295,14.274
11508,-15.904,13.402
11520,-11.928,9.5138
11531,-9.222,10.066
11543,-9.6944,10.226
11555,-11.839,10.432
11566,-13.274,12.749
11578,-12.032,13.499
11590,-11.832,12.934
11602,-12.027,13.511
11613,-11.917,11.54
11625,-15.246,9.2907
11637,-13.814,9.2128
11648,-13.115,10.549
11660,-12.37,8.303
11672,-13.293,10.871
11684,-15.406,11.872
11695,-15.134,10.205
11707,-13.751,9.8737
11719,-13.228,7.8293
11730,-12.191,5.5396
11742,-12.501,9.3816
11754,-10.282,10.121
11766,-11.481,8.6296
11777,-14.221,11.321
11789,-14.816,11.366
11801,-15.518,12.981
11813,-12.361,12.83
11824,-12.996,12.735
11836,-14.82,7.8265
11848,-13.377,12.136
11859,-11.536,13.719
11871,-10.819,12.907
11883,-12.273,12.609
11895,-12.67,10.684
11906,-12.404,11.448
11918,-11.883,10.577
11930,-12.497,9.736
11941,-10.12,10.101
11953,-10.441,8.1576
11965,-10.546,10.091
11977,-13.728,9.5904
11988,-14.55,7.9561
12000,-12.595,11.428
12012,-12.465,8.1518
12023,-13.386,10.3
12035,-13.702,11.765
12047,-12.884,11.406
12059,-14.491,12.213
12070,-15.475,12.28
12082,-14.165,10.747
12094,-14.564,11.29
12105,-14.676,12.1
12117,-12.003,9.3781
12129,-10.449,9.6873
12141,-12.427,12.939
12152,-15.189,14.869
12164,-12.951,13.273
12176,-14.076,12.737
12188,-14.703,9.392
12199,-14.076,8.8844
12211,-12.446,7.5392
12223,-13.163,7.6252
12234,-13.621,10.067
12246,-13.414,12.275
12258,-13.819,12.253
12270,-13.949,10.694
12281,-14.376,10.691
12293,-15.858,11.041
12305,-15.624,10.553
12316,-16.944,11.356
12328,-12.601,10.87
12340,-12.31,11.021
12352,-12.553,11.399
12363,-10.908,13.468
12375,-11.31,12.254
12387,-11.2,10.085
12398,-14.056,10.231
12410,-12.88,8.548
12422,-12.747,11.582
12434,-14.178,11.23
12445,-11.182,8.9686
12457,-12.669,12.742
12469,-12.951,9.9047
12480,-13.604,8.6048
12492,-13.895,9.3025
12504,-16.124,10.1
12516,-14.154,9.3548
12527,-13.934,9.1754
12539,-12.404,11.585
12551,-10.841,10.851
12563,-12.378,10.877
12574,-15.047,10.145
12586,-13.913,11.796
12598,-13.5,11.452
12609,-13.829,9.8107
12621,-11,7.0066
12633,-9.5298,8.6485
12645,-9.6941,10.744
12656,-13.922,8.812
12668,-10.592,9.7128
12680,-12.368,11.898
12691,-15.364,11.475
12703,-15.568,7.8729
12715,-14.612,11.317
12727,-13.97,11.654
12738,-13.587,9.3335
12750,-16.693,9.4037
12762,-13.843,10.349
12773,-14.265,10.174
12785,-14.535,10.891
12797,-16.296,12.103
12809,-18.248,9.7575
12820,-16.597,7.3067
12832,-14.309,7.8168
12844,-14.804,6.5348
12855,-11.516,10.105
12867,-14.468,9.4543
12879,-12.224,9.7673
12891,-13.792,8.9336
12902,-8.6933,5.3175
12914,-9.0972,8.242
12926,-11.676,12.202
12938,-12.399,12.347
12949,-13.396,10.194
12961,-12.938,9.6472
12973,-15.11,9.5238
12984,-14.976,8.7165
12996,-13.132,11.077
13008,-11.347,11.763
13020,-13.093,10.097
13031,-13.598,9.9283
13043,-14.736,7.7208
13055,-12.658,9.0616
13066,-13.329,10.735
13078,-17.158,11.786
13090,-15.306,9.1545
13102,-14.495,7.3616
13113,-12.637,9.4167
13125,-13.563,12.73
13137,-13.677,13.453
13148,-9.6339,12.133
13160,-11.499,9.0681
13172,-14.292,13.165
13184,-14.538,10.5
13195,-15.635,8.3698
13207,-12.906,9.8634
13219,-10.827,10.797
13230,-11.293,10.905
13242,-14.251,11.227
13254,-14.656,9.3686
13266,-14.14,11.321
13277,-14.335,9.916
13289,-15.743,10.671
13301,-13.113,9.6652
13313,-11.838,7.7746
13324,-14.368,9.4738
13336,-15.354,9.3305
13348,-16.493,5.4106
13359,-14.312,6.3362
13371,-15.154,8.9776
13383,-13.195,10.155
13395,-13.807,10.656
13406,-14.46,11.496
13418,-12.189,9.2068
13430,-11.589,8.0302
13441,-14.419,9.1917
13453,-15.539,9.7142
13465,-15.73,10.447
13477,-14.949,10.211
13488,-13.518,10.923
13500,-13.689,10.803
13512,-14.1,9.7511
13523,-14.251,7.8044
13535,-13.866,6.7206
13547,-12.873,6.0083
13559,-15.608,7.199
13570,-13.674,8.3032
13582,-11.49,8.8155
13594,-12.111,8.1101
13605,-13.437,6.8444
13617,-13.83,6.4829
13629,-17.9,9.599
13641,-16.505,11.506
13652,-13.234,10.138
13664,-13.952,8.1638
13676,-14.019,11.001
13688,-12.128,6.8537
13699,-11.772,8.0546
13711,-12.971,7.0629
13723,-14.731,9.3993
13734,-12.783,8.302
13746,-13.075,6.2698
13758,-15.331,10.233
13770,-14.589,12.403
13781,-14.568,9.7643
13793,-14.857,12.432
13805,-15.989,10.355
13816,-16.532,7.0554
13828,-13.398,8.7867
13840,-13.948,8.9703
13852,-15.805,9.9715
13863,-15.518,7.3696
13875,-16.42,8.4717
13887,-14.8,9.9177
13898,-13.206,10.457
13910,-14.083,7.278
13922,-13.447,6.9857
13934,-14.675,7.5021
13945,-14.848,9.3883
13957,-15.591,8.5054
13969,-17.712,7.5638
13980,-15.192,6.4342
13992,-15.828,6.4169
14004,-17.862,5.0691
14016,-17.578,6.3142
14027,-15.988,6.8859
14039,-14.543,7.3817
14051,-14.083,7.0304
14063,-15.253,4.092
14074,-15.157,5.5261
14086,-13.915,6.5234
14098,-14.392,7.9205
14109,-15.752,9.4091
14121,-16.567,6.6697
14133,-13.855,8.5625
14145,-13.054,8.9619
14156,-12.351,7.6286
14168,-15.339,8.0337
14180,-19.135,3.4354
14191,-17.176,10.031
14203,-18.089,10.18
14215,-17.26,5.5409
14227,-16.514,4.4596
14238,-15.98,5.4746
14250,-15.985,7.3056
14262,-15.515,7.9082
14273,-15.388,9.0405
14285,-15.63,8.1626
14297,-16.946,7.5211
14309,-16.632,5.5969
14320,-19.199,7.4675
14332,-20.179,7.9741
14344,-15.413,8.4286
14355,-13.569,8.1011
14367,-16.413,6.8951
14379,-15.416,6.6889
14391,-19.134,7.2156
14402,-16.125,6.5306
14414,-13.496,6.8295
14426,-12.479,7.1178
14438,-14.836,7.6064
14449,-17.804,7.7958
14461,-17.127,10.172
14473,-16.991,9.2939
14484,-17.226,9.4343
14496,-16.711,8.3725
14508,-19.027,6.7166
14520,-18.79,9.5061
14531,-17.201,11.354
14543,-13.761,9.9707
14555,-12.298,11.029
14566,-16.56,10.395
14578,-17.458,7.8169
14590,-17.053,7.099
14602,-16.973,5.0638
14613,-17.022,6.7116
14625,-16.487,5.9747
14637,-18.349,9.0953
14648,-17.954,9.7101
14660,-18.431,7.1064
14672,-15.5,7.6467
14684,-14.336,7.2216
14695,-15.267,8.5439
14707,-17.743,9.7033
14719,-16.585,10.945
14730,-17.901,10.905
14742,-17.008,10.209
14754,-15.386,10.303
14766,-17.631,7.3186
14777,-15.609,8.0998
14789,-15.418,6.2029
14801,-14.932,4.8863
14813,-14.864,7.3795
14824,-16.864,7.6531
14836,-18.12,8.6952
14848,-18.156,8.9282
14859,-14.998,6.5091
14871,-16.285,6.8773
14883,-17.568,8.6923
14895,-18.508,7.4017
14906,-19.285,6.0264
14918,-17.989,5.9841
14930,-19.003,7.515
14941,-17.614,6.4788
14953,-16.444,7.2313
14965,-15.634,7.602
14977,-15.023,7.201
14988,-15.205,6.5778
15000,-18.991,3.3296
15012,-16.928,6.3514
15023,-17.927,9.2831
15035,-21.066,9.8695
15047,-15.389,8.3857
15059,-17.486,7.3264
15070,-19.639,6.1391
15082,-18.678,6.155
15094,-17.922,5.9272
15105,-17.895,7.6513
15117,-19.258,6.6719
15129,-17.2,3.7395
15141,-18.537,6.5895
15152,-17.07,7.0061
15164,-18.584,4.0718
15176,-17.987,5.6537
15188,-18.372,8.1606
15199,-17.947,8.0471
15211,-16.939,8.5779
15223,-17.827,9.2099
15234,-16.299,6.1236
15246,-19.201,5.7153
15258,-19.159,8.5407
15270,-19.487,7.0019
15281,-16.724,7.7753
15293,-15.462,7.3757
15305,-19.626,6.357
15316,-21.851,7.4894
15328,-17.466,8.6601
15340,-15.71,8.7162
15352,-16.256,7.0706
15363,-16.909,3.3312
15375,-17.461,2.4984
15387,-18.301,3.1129
15398,-17.412,4.7333
15410,-16.682,5.8188
15422,-16.747,7.6481
15434,-19.21,7.2271
15445,-20.517,10.092
15457,-16.057,9.8666
15469,-18.414,10.984
15480,-22.757,7.0513
15492,-19.455,7.0768
15504,-17.728,6.8642
15516,-17.226,5.6379
15527,-20.365,8.6388
15539,-19.196,7.1724
15551,-17.154,6.2203
15563,-19.214,6.3058
15574,-18.93,3.9475
15586,-18.225,5.8542
15598,-17.561,7.9957
15609,-16.981,5.6148
15621,-18.148,4.1232
15633,-20.193,6.413
15645,-19.199,7.1591
15656,-16.658,6.9883
15668,-18.459,8.0879
15680,-19.335,9.0494
15691,-19.828,7.9713
15703,-19.597,5.3694
15715,-19.198,5.3214
15727,-19.749,4.6139
15738,-22.819,3.7294
15750,-16.448,6.8526
15762,-16.624,6.6463
15773,-18.604,8.6232
15785,-17.59,8.2248
15797,-17.402,4.8508
15809,-20.388,8.9483
15820,-19.606,9.6323
15832,-18.844,9.6348
15844,-17.687,8.9685
15855,-19.192,7.5344
15867,-21.403,5.4215
15879,-22.235,7.2564
15891,-20.165,9.8203
15902,-18.817,7.6215
15914,-19.113,8.8392
15926,-22.414,10.133
15938,-21.205,6.622
15949,-21.594,7.0927
15961,-19.911,6.9001
15973,-20.34,5.483
15984,-19.81,8.3548
15996,-20.319,6.9789
16008,-21.807,7.9431
16020,-20.666,10.717
16031,-18.691,10.013
16043,-21.581,7.7211
16055,-20.661,7.2301
16066,-20.793,4.4987
16078,-21.244,4.559
16090,-22.753,2.7087
16102,-23.134,4.8844
16113,-20.687,5.5517
16125,-20.298,6.3891
16137,-23.169,7.2394
16148,-21.432,5.0681
16160,-20.141,3.0892
16172,-18.75,1.6228
16184,-20.123,3.5128
16195,-21.064,4.2737
16207,-19.024,4.0244
16219,-17.627,5.3493
16230,-18.504,5.2628
16242,-18.6,6.1482
16254,-20.361,5.3079
16266,-22.549,3.6779
16277,-21.066,3.0425
16289,-19.792,7.5624
16301,-20.705,8.2784
16313,-20.155,5.6877
16324,-20.386,5.1545
16336,-22.761,5.3547
16348,-22.673,5.9694
16359,-23.337,5.0199
16371,-20.697,6.9776
16383,-21.75,8.1491
16395,-22.859,9.0697
16406,-23.9,7.676
16418,-21.901,6.9903
16430,-17.501,8.6575
16441,-15.5,8.2477
16453,-18.308,8.792
16465,-20.978,10.16
16477,-22.707,8.551
16488,-21.268,5.6963
16500,-18.747,2.6697
16512,-20.228,2.7552
16523,-20.321,3.4929
16535,-21.183,6.0889
16547,-23.859,2.3472
16559,-19.561,5.6292
16570,-20.329,5.4025
16582,-19.459,5.3967
16594,-19.501,6.0995
16605,-19.977,5.4514
16617,-19.335,5.4892
16629,-21.068,5.7555
16641,-21.642,5.039
16652,-19.135,4.0429
16664,-20.379,5.1573
16676,-19.724,5.6191
16688,-21.267,4.9329
16699,-21.211,5.9875
16711,-20.229,5.4438
16723,-20.666,6.7202
16734,-21.785,6.4424
16746,-21.564,4.1438
16758,-20.12,4.6952
16770,-19.359,5.4332
16781,-19.175,5.4508
16793,-20.231,6.485
16805,-19.913,8.8484
16816,-20.297,7.0605
16828,-21.196,5.5123
16840,-22.273,5.0022
16852,-20.376,1.379
16863,-20.774,2.0102
16875,-21.494,6.3266
16887,-22.405,7.8901
16898,-22.598,6.6942
16910,-20.4,6.8995
16922,-19.72,5.6201
16934,-21.178,2.9416
16945,-21.854,4.8975
16957,-20.229,4.9294
16969,-23.916,6.0947
16980,-22.471,5.0026
16992,-24.167,4.6908
17004,-23.414,4.827
17016,-22.627,8.669
17027,-19.728,6.4084
17039,-18.262,3.8048
17051,-20.628,4.7905
17063,-26.647,4.1781
17074,-23.614,2.0709
17086,-22.276,3.6444
17098,-20.595,4.6637
17109,-22.676,5.7139
17121,-18.947,9.3349
17133,-19.865,8.4025
17145,-22.486,4.9989
17156,-21.268,5.6628
17168,-21.284,8.6273
17180,-20.58,9.3128
17191,-22.785,6.685
17203,-24.9,3.1438
17215,-21.845,5.8218
17227,-21.202,2.2349
17238,-20.71,1.1422
17250,-23.515,6.7131
17262,-25.178,7.8884
17273,-20.259,5.3593
17285,-20.298,7.524
17297,-23.325,7.1431
17309,-19.944,2.3131
17320,-19.105,2.5281
17332,-22.439,6.4849
17344,-20.856,5.0599
17355,-20.795,3.6747
17367,-21.178,4.329
17379,-20.785,5.0266
17391,-19.22,3.9225
17402,-18.422,5.9154
17414,-21.736,4.0131
17426,-23.207,1.4334
17438,-24.994,3.8597
17449,-22.913,4.6934
17461,-22.539,4.8029
17473,-21.676,3.3208
17484,-21.814,6.0719
17496,-23.172,4.9306
17508,-22.92,4.228
17520,-20.429,3.0454
17531,-21.738,4.6957
17543,-19.691,5.6017
17555,-18.956,7.8072
17566,-21.508,8.994
17578,-20.698,6.4787
17590,-21.195,5.2549
17602,-24.416,5.1571
17613,-21.15,4.6944
17625,-19.997,4.9047
17637,-22.112,3.1626
17648,-24.614,4.8377
17660,-24.163,4.9717
17672,-20.239,4.8118
17684,-21.62,1.9381
17695,-20.061,2.0634
17707,-20.196,5.417
17719,-22.164,7.02
17730,-23.939,3.9406
17742,-23.124,6.3443
17754,-25.725,2.9045
17766,-22.525,-1.5644
17777,-20.948,4.5662
17789,-23.616,4.8071
17801,-21.845,4.8956
17813,-21.213,5.0623
17824,-21.315,2.4423
17836,-20.977,5.59
17848,-21.231,4.0492
17859,-23.195,5.035
17871,-24.758,5.4089
17883,-22.778,2.5983
17895,-21.265,2.4241
17906,-21.746,3.5248
17918,-21.188,2.766
17930,-20.942,0.17862
17941,-18.701,0.52096
17953,-20.943,2.0051
17965,-25.515,-0.5525
17977,-21.305,-0.85849
17988,-22.791,3.9145
18000,-22.22,5.1992
18012,-20.492,2.8292
18023,-21.401,2.9117
18035,-21.526,1.703
18047,-25.129,2.2728
18059,-23.014,1.0898
18070,-26.193,0.34963
18082,-23.859,1.7182
18094,-22.934,4.9469
18105,-23.78,3.6921
18117,-24.819,2.7611
18129,-23.966,2.5837
18141,-19.593,1.6904
18152,-20.297,3.4161
18164,-25.619,5.4874
18176,-22.739,4.442
18188,-21.765,5.7803
18199,-22.747,5.5841
18211,-21.789,3.0276
18223,-21.272,2.9756
18234,-20.215,3.9382
18246,-19.751,2.4281
18258,-21.662,6.6459
18270,-22.173,7.2265
18281,-25.567,2.0472
18293,-25.119,2.2595
18305,-24.045,5.2231
18316,-22.599,2.2243
18328,-21.495,3.3155
18340,-24.993,5.6319
18352,-24.62,3.428
18363,-23.663,2.4742
18375,-23.308,3.5605
18387,-24.633,3.2985
18398,-26.251,3.5181
18410,-21.823,2.9865
18422,-19.412,2.3673
18434,-22.922,2.5393
18445,-22.868,4.7784
18457,-25.122,6.5098
18469,-25.127,6.1409
18480,-23.623,7.3962
18492,-21.685,7.0532
18504,-23.174,5.4273
18516,-25.273,2.4008
18527,-24.648,-0.40718
18539,-22.28,-0.40723
18551,-21.773,1.4582
18563,-22.867,4.4974
18574,-24.307,4.3592
18586,-19.09,2.4129
18598,-20.018,2.0306
18609,-23.71,5.4268
18621,-23.46,5.9275
18633,-23.901,5.6464
18645,-23.949,2.9195
18656,-22.3,5.8815
18668,-23.866,8.0175
18680,-23.348,3.2312
18691,-21.236,3.0222
18703,-22.249,1.9569
18715,-24.86,3.425
18727,-27.569,6.2264
18738,-25.751,5.1253
18750,-23.768,5.9883
18762,-22.019,7.2921
18773,-23.155,6.7259
18785,-22.404,3.8869
18797,-22.53,1.4226
18809,-23.137,0.76215
18820,-24.103,2.291
18832,-21.568,2.2145
18844,-21.159,3.1958
18855,-22.003,2.9689
18867,-21.29,2.7334
18879,-22.034,3.5749
18891,-24.542,2.6715
18902,-24.223,5.272
18914,-25.102,5.2025
18926,-26.774,2.0402
18938,-29.064,0.9659
18949,-28.012,4.4664
18961,-27.207,3.6052
18973,-25.745,1.6077
18984,-27.147,4.1608
18996,-24.163,6.6803
19008,-20.503,5.6692
19020,-19.964,3.9231
19031,-21.796,2.2416
19043,-23.37,1.6216
19055,-24.255,0.6638
19066,-21.054,0.5621
19078,-24.066,3.4842
19090,-24.105,4.2886
19102,-23.139,3.2389
19113,-21.958,-1.711
19125,-22.34,1.3645
19137,-24.888,2.7566
19148,-25.408,4.0763
19160,-24.451,5.8021
19172,-26.43,3.9908
19184,-23.664,0.58859
19195,-23.717,-1.8812
19207,-24.172,0.37716
19219,-23.456,1.271
19230,-23.556,4.9831
19242,-27.733,6.5673
19254,-23.903,3.7556
19266,-24.616,-0.084677
19277,-22.983,1.7894
19289,-24.869,2.9151
19301,-27.59,-0.041491
19313,-25.288,-0.031929
19324,-23.547,1.9485
19336,-26.726,3.4772
19348,-23.654,4.3244
19359,-24.777,5.6262
19371,-24.082,4.997
19383,-23.975,2.2475
19395,-26.451,2.6188
19406,-27.519,1.3419
19418,-24.692,0.54091
19430,-23.091,0.55167
19441,-26.945,0.14248
19453,-25.382,1.2445
19465,-21.46,1.798
19477,-21.044,-1.1143
19488,-23.083,0.23159
19500,-23.412,1.8482
19512,-24.883,5.1129
19523,-24.587,4.2348
19535,-23.924,3.239
19547,-25.736,1.7513
19559,-26.909,1.5446
19570,-25.265,0.65277
19582,-23.85,4.949
19594,-21.139,5.5331
19605,-20.822,2.1992
19617,-23.609,5.8698
19629,-24.087,5.3241
19641,-24.332,4.265
19652,-23.188,2.2287
19664,-22.445,0.3217
19676,-23.673,4.9578
19688,-24.47,4.6557
19699,-25.401,3.1302
19711,-28.26,3.8835
19723,-26.716,2.2528
19734,-26.241,2.2324
19746,-26.425,-0.36396
19758,-26.493,-2.2124
19770,-27.087,2.4405
19781,-27.755,5.1636
19793,-23.824,4.2152
19805,-21.667,2.6214
19816,-24.559,-2.2684
19828,-25.74,-1.0192
19840,-25.522,-0.25082
19852,-25.297,3.0939
19863,-27.334,3.0541
19875,-28.156,0.79711
19887,-26.109,1.0021
19898,-23.574,4.8097
19910,-22.73,4.961
19922,-22.872,2.962
19934,-23.008,1.7698
19945,-22.901,3.3604
19957,-22.938,2.23
19969,-23.175,4.194
19980,-27.457,3.0724
19992,-24.466,1.437
20004,-27.142,1.8956
20016,-24.457,2.3652
20027,-24.229,2.5012
20039,-24.922,4.5753
20051,-23.232,3.9879
20063,-21.595,5.2328
20074,-20.844,0.69572
20086,-21.291,2.1393
20098,-24.801,0.62928
20109,-25.731,2.1645
20121,-24.134,3.0811
20133,-24.567,-0.72441
20145,-23.319,0.023278
20156,-25.747,2.2384
20168,-24.983,0.34081
20180,-22.739,0.18154
20191,-22.534,-1.6362
20203,-22.337,-0.20309
20215,-21.617,2.262
20227,-22.14,1.8458
20238,-22.543,2.3198
20250,-25.397,1.8257
20262,-26.277,3.8671
20273,-25.073,5.0974
20285,-27.325,3.8307
20297,-24.424,3.9026
20309,-24.42,3.7562
20320,-23.051,2.4601
20332,-22.618,3.7465
20344,-25.959,3.3909
20355,-26.008,0.3276
20367,-26.107,2.4727
20379,-26.056,1.152
20391,-24.486,2.7477
20402,-24.734,3.0034
20414,-24.795,0.73386
20426,-25.109,2.9958
20438,-24.06,3.9856
20449,-24.561,2.565
20461,-24.217,2.9835
20473,-23.968,3.6514
20484,-26.267,1.2324
20496,-26.178,2.7696
20508,-25.08,2.0952
20520,-25.512,0.13049
20531,-26.853,1.1646
20543,-29.383,3.1669
20555,-25.814,2.4474
20566,-22.773,1.8623
20578,-22.921,2.6193
20590,-25.645,2.3673
20602,-25.483,1.3023
20613,-27.855,-0.32306
20625,-27.26,0.86524
20637,-26.333,1.4313
20648,-25.68,2.1743
20660,-26.489,3.5059
20672,-24.783,1.7154
20684,-21.989,1.0357
20695,-22.135,1.0602
20707,-23.188,3.2992
20719,-26.524,4.2102
20730,-27.261,-0.25835
20742,-27.293,0.32294
20754,-24.744,2.1765
20766,-25.251,-1.8969
20777,-25.299,-0.031911
20789,-25.063,2.2764
20801,-22.672,2.2231
20813,-23.197,0.40443
20824,-26.255,0.17378
20836,-26.637,-0.92454
20848,-26.327,2.3319
20859,-25.795,-0.96116
20871,-27.566,0.93433
20883,-26.947,3.0308
20895,-26.792,2.451
20906,-24.392,-0.45644
20918,-26.632,-1.1652
20930,-24.468,0.93156
20941,-25.259,1.5776
20953,-28.773,1.4797
20965,-31.153,1.5462
20977,-28.565,2.2907
20988,-25.269,1.3678
21000,-24.481,0.96529
21012,-25.153,3.4468
21023,-27.303,5.9879
21035,-24.83,4.9265
21047,-23.244,3.2581
21059,-23.808,2.2557
21070,-28.765,0.20395
21082,-26.647,-1.2239
21094,-27.187,-1.4904
21105,-25.406,0.69502
21117,-24.778,2.8713
21129,-23.96,3.5226
21141,-25.719,3.5005
21152,-25.547,1.7343
21164,-27.245,0.33149
21176,-26.759,-0.47793
21188,-26.561,-1.4645
21199,-26.961,-0.35285
21211,-26.285,0.25566
21223,-27.272,2.1495
21234,-27.266,2.0853
21246,-26.689,3.0679
21258,-24.441,2.5509
21270,-24.458,4.8248
21281,-24.676,1.9872
21293,-23.387,1.8078
21305,-23.352,1.4724
21316,-25.123,1.8501
21328,-22.7,0.41468
21340,-21.903,2.8908
21352,-24.856,4.7216
21363,-27.654,1.0731
21375,-26.444,0.63923
21387,-26.606,3.5988
21398,-26.584,-1.2154
21410,-26.075,1.334
21422,-27.797,0.51674
21434,-26.405,-1.0291
21445,-27.518,-2.0908
21457,-26.484,-1.7715
21469,-24.118,0.29454
21480,-26.035,2.4434
21492,-27.022,-0.49745
21504,-28.972,0.071288
21516,-26.864,-2.7814
21527,-25.805,-0.68522
21539,-25.461,0.11341
21551,-24.86,-1.215
21563,-24.872,1.6486
21574,-27.329,2.1748
21586,-28.455,1.0645
21598,-26.669,1.9887
21609,-26.079,2.28
21621,-26.784,-2.6984
21633,-28.101,-4.4733
21645,-24.389,-1.679
21656,-24.2,-0.96075
21668,-26.535,-0.51574
21680,-27.127,0.39858
21691,-26.033,0.34645
21703,-25.241,-0.28903
21715,-27.343,0.69658
21727,-23.599,0.72573
21738,-27.859,2.4142
21750,-30.196,2.1275
21762,-26.64,0.96574
21773,-26.365,-0.65308
21785,-25.247,0.98855
21797,-25.198,1.2702
21809,-29.489,1.4384
21820,-29.08,-1.1517
21832,-26.64,1.0495
21844,-26.906,-0.020323
21855,-30.719,-0.31246
21867,-25.784,-2.0435
21879,-24.101,1.2845
21891,-25.473,2.2599
21902,-28.411,2.726
21914,-26.18,1.0221
21926,-24.834,1.5635
21938,-27.82,1.4113
21949,-29.617,2.0076
21961,-26.663,1.1623
21973,-26.97,-0.67417
21984,-25.941,-1.6544
21996,-26.763,0.61956
22008,-27.709,1.2199
22020,-27.534,-0.5606
22031,-28.756,0.36837
22043,-26.963,3.1351
22055,-28.072,-0.36321
22066,-27.021,-0.43003
22078,-27.868,1.511
22090,-26.598,1.771
22102,-25.362,0.53808
22113,-24.516,-1.8622
22125,-25.78,-0.6069
22137,-27.29,0.43737
22148,-27.257,2.2995
22160,-28.199,2.5969
22172,-28.714,-0.85682
22184,-26.91,1.3041
22195,-26.713,1.417
22207,-26.166,0.84388
22219,-26.512,3.9028
22230,-23.801,4.6071
22242,-23.461,2.6271
22254,-29.001,1.4354
22266,-26.755,-0.75248
22277,-26.601,-1.8196
22289,-28.091,-2.0655
22301,-26.414,-1.795
22313,-27.809,-0.74047
22324,-28.945,-1.2553
22336,-28.472,1.2654
22348,-26.223,3.6427
22359,-26.015,0.36467
22371,-26.722,-2.7481
22383,-27.074,-2.0436
22395,-30.711,-3.254
22406,-28.812,-2.5335
22418,-28.17,-0.30605
22430,-27.407,1.7932
22441,-26.776,0.49229
22453,-26.232,-4.4578
22465,-26.923,-2.2789
22477,-28.817,2.4686
22488,-30.001,3.5016
22500,-27.776,1.2148
22512,-27.303,-0.70283
22523,-28.634,-1.9385
22535,-26.315,-3.9381
22547,-25.807,-1.0551
22559,-25.847,0.032418
22570,-25.398,-0.001005
22582,-29.668,-1.7966
22594,-29.217,-2.4504
22605,-26.953,2.7776
22617,-26.563,2.7598
22629,-27.484,0.29609
22641,-28.449,1.6027
22652,-25.983,-2.2104
22664,-26.199,-1.533
22676,-26.808,0.98074
22688,-26.276,0.78479
22699,-28.909,1.055
22711,-27.803,2.5905
22723,-24.783,1.7799
22734,-26.777,-1.6052
22746,-25.915,-0.69709
22758,-26.496,0.14904
22770,-29.984,1.9693
22781,-24.08,1.752
22793,-23.504,-0.23962
22805,-26.55,-1.3639
22816,-28.347,-1.5199
22828,-29.83,0.083871
22840,-29.663,-2.8461
22852,-32.553,2.1477
22863,-28.751,2.527
22875,-25.122,2.2888
22887,-24.658,-0.96712
22898,-26.338,0.63725
22910,-27.78,-0.46213
22922,-29.141,1.8969
22934,-29.487,2.8322
22945,-28.241,1.17
22957,-28.616,0.40119
22969,-26.629,-1.1438
22980,-27.331,-3.5442
22992,-30.691,-3.0332
23004,-28.021,-2.1351
23016,-26.641,-0.54865
23027,-26.302,1.3872
23039,-23.863,-1.1409
23051,-26.895,-0.34503
23063,-29.377,-3.0705
23074,-27.226,-1.3539
23086,-28.203,0.19121
23098,-27.49,-1.6091
23109,-27.705,-3.1737
23121,-26.874,-0.40855
23133,-25.838,-0.71417
23145,-26.712,-2.9176
23156,-29.746,-0.32009
23168,-28.647,1.7749
23180,-25.149,2.628
23191,-26.275,1.9426
23203,-29.795,0.40681
23215,-31.814,-2.5267
23227,-24.693,-0.38483
23238,-26.318,2.1353
23250,-28.551,-0.15704
23262,-28.731,1.2206
23273,-28.735,3.4355
23285,-30.598,-1.7928
23297,-28.162,-1.834
23309,-27.654,-0.67803
23320,-27.948,2.3845
23332,-25.831,0.52756
23344,-28.13,-1.4008
23355,-30.274,-2.1095
23367,-30.583,-3.7497
23379,-31.181,1.3163
23391,-28.44,2.2249
23402,-31.079,0.72447
23414,-25.917,0.14659
23426,-26.85,-1.5712
23438,-28.645,-1.3952
23449,-25.878,-0.46911
23461,-24.861,0.40692
23473,-27.215,1.0368
23484,-27.434,-0.62981
23496,-30.408,-1.8262
23508,-30.732,-2.4035
23520,-31.711,-2.2807
23531,-28.265,-0.19116
23543,-27.119,-1.588
23555,-30.473,-1.938
23566,-27.921,-1.2604
23578,-26.715,-1.38
23590,-28.898,-4.4111
23602,-30.055,-4.2862
23613,-29.18,-1.0662
23625,-27.932,-0.67
23637,-26.965,-0.14235
23648,-30.695,-2.7759
23660,-25.495,-0.71901
23672,-26.849,1.3984
23684,-27.615,3.4254
23695,-29.936,3.1921
23707,-29.424,-1.3819
23719,-29.246,-2.5448
23730,-25.584,0.16582
23742,-27.661,0.67689
23754,-26.826,-1.1339
23766,-24.139,-3.8558
23777,-25.218,-4.7375
23789,-26.62,-0.99008
23801,-30.575,1.9651
23813,-29.278,0.010661
23824,-27.901,1.4219
23836,-30.842,0.18918
23848,-32.773,-2.5781
23859,-31.237,-3.1839
23871,-30.113,-2.096
23883,-28.864,0.55236
23895,-28.163,0.55413
23906,-30.816,-2.6757
23918,-28.181,-1.9975
23930,-28.972,-2.2323
23941,-30.58,1.5199
23953,-27.703,-0.87904
23965,-28.206,-3.6294
23977,-27.369,-0.91926
23988,-25.552,-0.21467
