FFT,Power Spectrum
Frequency[Hz],Level-L[dB],Level-R[dB]
11.719,-22.592,-15.602
23.438,-2.7012,-3.9253
35.156,-3.4466,4.9338
46.875,-0.80071,11.407
58.594,3.4246,15.275
70.313,7.4918,19.532
82.031,9.0377,20.414
93.75,16.069,20.858
105.47,15.508,20.351
117.19,3.939,16.648
128.91,9.3954,19.611
140.63,13.583,22.08
152.34,8.9871,22.361
164.06,6.0321,22.022
175.78,4.9542,22.5
187.5,7.1354,23.861
199.22,8.6861,25.466
210.94,5.2908,23.603
222.66,5.2538,24.373
234.38,8.31,24.057
246.09,5.8188,23.408
257.81,5.0194,25.038
269.53,5.1157,26.525
281.25,11.329,25.496
292.97,10.56,27.394
304.69,8.7961,23.824
316.41,6.1042,27.238
328.13,8.2197,27.389
339.84,8.9853,26.865
351.56,4.684,26.865
363.28,6.0007,28.551
375,5.9101,28.129
386.72,5.6855,28.337
398.44,6.481,26.37
410.16,6.8773,27.892
421.88,6.374,25.906
433.59,6.0557,26.565
445.31,4.8991,25.218
457.03,4.2144,25.997
468.75,1.8182,26.942
480.47,2.8212,25.889
492.19,1.9852,25.619
503.91,3.2951,27.882
515.63,4.881,26.766
527.34,2.8665,24.386
539.06,1.6574,27.273
550.78,2.2681,26.971
562.5,3.8955,25.882
574.22,3.6245,26.753
585.94,4.9834,24.846
597.66,3.86,26.734
609.38,5.0503,26.329
621.09,4.7179,25.715
632.81,5.3738,27.009
644.53,4.4505,26.058
656.25,4.5684,24.177
667.97,5.6884,24.242
679.69,8.5361,28.093
691.41,7.6185,28.933
703.13,4.7082,28.068
714.84,3.4884,30.134
726.56,2.9629,28.617
738.28,5.2597,27.737
750,7.8167,27.111
761.72,6.1453,26.459
773.44,4.6621,26.442
785.16,8.1863,26.263
796.88,9.4159,28.823
808.59,6.7313,28.225
820.31,3.8564,24.169
832.03,4.4217,23.584
843.75,5.1477,22.826
855.47,4.597,26.134
867.19,6.2272,27.47
878.91,9.6527,24.876
890.63,9.4165,24.912
902.34,7.4079,26.533
914.06,5.8893,28.661
925.78,3.3076,26.867
937.5,1.7596,25.239
949.22,-0.57083,27.395
960.94,2.4705,26.62
972.66,5.2349,27.077
984.38,9.2422,27.643
996.09,6.4708,27.457
1007.8,4.3819,24.551
1019.5,3.3978,25.674
1031.3,2.3763,26.074
1043,0.77883,26.562
1054.7,3.4574,26.911
1066.4,5.5228,28.173
1078.1,4.5154,27.437
1089.8,3.9404,27.577
1101.6,4.2028,28.149
1113.3,6.0183,25.456
1125,7.3305,23.421
1136.7,6.4486,22.387
1148.4,6.5907,23.171
1160.2,1.8282,25.974
1171.9,1.7817,28.768
1183.6,2.983,28.866
1195.3,4.0353,28.912
1207,2.6102,28.342
1218.8,1.6375,27.155
1230.5,3.334,25.611
1242.2,1.7377,25.93
1253.9,2.3997,26.097
1265.6,1.8782,26.202
1277.3,6.7385,27.071
1289.1,8.0939,24.998
1300.8,7.2417,26.018
1312.5,5.5494,27.679
1324.2,4.7266,27.049
1335.9,5.076,25.755
1347.7,3.3441,26.717
1359.4,3.6329,25.457
1371.1,3.9564,25.16
1382.8,5.5999,25.554
1394.5,4.8492,26.974
1406.3,2.0162,27.08
1418,6.3646,24.88
1429.7,9.3934,23.821
1441.4,7.4265,24.863
1453.1,4.9367,24.676
1464.8,2.5696,22.756
1476.6,4.6023,25.171
1488.3,4.6339,25.178
1500,3.8858,25.061
1511.7,3.8184,26.634
1523.4,3.3352,26.969
1535.2,4.5396,25.99
1546.9,5.0946,25.212
1558.6,2.7546,24.719
1570.3,2.2388,27.093
1582,6.0347,27.021
1593.8,5.3166,26.519
1605.5,-0.33265,27.818
1617.2,4.4526,27.168
1628.9,3.5979,25.896
1640.6,3.116,27.649
1652.3,6.3236,25.911
1664.1,3.8874,25.909
1675.8,1.7774,25.673
1687.5,-0.11666,26.501
1699.2,1.2456,27.179
1710.9,4.4766,26.628
1722.7,3.939,24.73
1734.4,2.9211,24.735
1746.1,0.12426,25.009
1757.8,1.0409,24.41
1769.5,4.5759,26.027
1781.3,3.4328,26.263
1793,8.6913,25.236
1804.7,11.678,26.375
1816.4,18.183,26.587
1828.1,42.423,32.294
1839.8,51.715,39.961
1851.6,48.689,36.742
1863.3,27.425,22.143
1875,15.154,24.598
1886.7,7.0264,27.693
1898.4,8.289,26.973
1910.2,3.4964,25.272
1921.9,2.5391,24.838
1933.6,2.1159,24.411
1945.3,3.1803,22.225
1957,3.924,23.731
1968.8,2.2737,21.602
1980.5,2.5029,24.117
1992.2,2.1714,26.045
2003.9,1.3379,26.702
2015.6,1.7307,25.299
2027.3,2.7919,22.848
2039.1,4.0514,19.771
2050.8,0.07787,24.139
2062.5,2.6645,25.031
2074.2,3.296,24.473
2085.9,4.7196,24.45
2097.7,3.6205,25.565
2109.4,2.1674,24.286
2121.1,-0.17473,22.015
2132.8,1.2716,22.695
2144.5,2.5609,23.291
2156.3,3.8805,25.217
2168,2.8885,24.948
2179.7,2.846,22.563
2191.4,5.0156,23.447
2203.1,3.6847,23.898
2214.8,-0.18932,23.203
2226.6,-2.1774,21.123
2238.3,0.77864,23.56
2250,2.7182,24.816
2261.7,2.8424,25.214
2273.4,2.394,26.392
2285.2,-0.76506,22.676
2296.9,0.54545,22.86
2308.6,1.5864,25.829
2320.3,2.0698,26.2
2332,2.7291,24.274
2343.8,1.454,25.242
2355.5,-0.10697,24.074
2367.2,-0.85402,23.443
2378.9,1.7499,20.545
2390.6,2.3287,21.857
2402.3,2.3115,23.821
2414.1,1.1166,22.803
2425.8,-2.3634,24.122
2437.5,0.29614,25.826
2449.2,2.4756,25.138
2460.9,3.5223,24.897
2472.7,2.1236,24.721
2484.4,0.50885,24.582
2496.1,1.2842,24.651
2507.8,1.907,23.179
2519.5,1.5323,23.008
2531.3,2.3143,23.018
2543,0.058713,22.285
2554.7,-1.9754,20.283
2566.4,-2.125,22.84
2578.1,-1.1943,17.075
2589.8,-0.25766,23.135
2601.6,-2.0412,22.821
2613.3,-0.76562,21.786
2625,1.3713,22.981
2636.7,1.0854,20.363
2648.4,-0.1393,21.169
2660.2,0.62899,23.796
2671.9,-1.3325,23.762
2683.6,-0.18451,22.353
2695.3,0.16822,22.098
2707,2.0328,23.062
2718.8,0.26455,25.251
2730.5,-3.8163,23.646
2742.2,-1.355,21.756
2753.9,-1.5007,22.707
2765.6,-0.22359,23.584
2777.3,0.24978,22.768
2789.1,0.90053,19.499
2800.8,1.2709,23.339
2812.5,1.4877,23.435
2824.2,0.97371,22.271
2835.9,-1.9204,23.444
2847.7,-2.7552,22.365
2859.4,-0.2949,22.865
2871.1,0.39713,23.648
2882.8,-1.7764,20.84
2894.5,-2.1278,24.558
2906.3,-2.0015,24.817
2918,-1.1828,22.116
2929.7,-0.70687,21.58
2941.4,0.87703,24.218
2953.1,-1.607,24.804
2964.8,0.43068,23.373
2976.6,-1.76,22.925
2988.3,-0.7998,22.595
3000,-0.61366,23.194
3011.7,-0.31414,24.161
3023.4,1.366,21.102
3035.2,2.45,20.306
3046.9,-0.25054,20.489
3058.6,0.19008,23.152
3070.3,-0.93654,22.365
3082,-2.6184,23.275
3093.8,-1.5082,22.096
3105.5,-1.1678,24.455
3117.2,-0.27568,22.893
3128.9,0.64328,21.549
3140.6,1.0258,20.513
3152.3,0.035247,21.45
3164.1,-2.1129,23.517
3175.8,0.0083308,23.793
3187.5,-0.82172,22.585
3199.2,1.6643,21.785
3210.9,0.92706,24.186
3222.7,0.019414,22.621
3234.4,-0.95898,21.515
3246.1,1.1853,23.158
3257.8,0.43816,22.916
3269.5,-3.0045,22.382
3281.3,-6.5319,21.472
3293,-5.2952,17.455
3304.7,-5.9587,18.172
3316.4,-4.2823,21.926
3328.1,-3.5755,23.117
3339.8,-2.4867,24.153
3351.6,-1.4659,23.345
3363.3,-1.5299,21.042
3375,-1.1631,20.203
3386.7,-0.87865,20.885
3398.4,-1.117,19.955
3410.2,0.21208,22.623
3421.9,-4.4978,22.102
3433.6,-0.57826,20.539
3445.3,1.4993,22.735
3457,-2.1922,24.051
3468.8,-1.2858,22.29
3480.5,-0.07452,21.406
3492.2,-0.76583,21.037
3503.9,-2.0861,20.078
3515.6,-4.9026,22.492
3527.3,-1.8787,21.699
3539.1,-1.0502,20.488
3550.8,-2.1941,18.835
3562.5,-1.6963,19.726
3574.2,0.21986,22.364
3585.9,0.67316,23.104
3597.7,-0.28729,23.187
3609.4,-2.1148,23.068
3621.1,-0.45762,22.148
3632.8,-0.96144,20.898
3644.5,-0.92405,21.979
3656.3,-2.7732,21.957
3668,-3.2749,22.012
3679.7,-1.2205,24.797
3691.4,0.48161,21.346
3703.1,-3.0675,19.816
3714.8,-1.6556,18.515
3726.6,-2.8592,19.469
3738.3,-4.738,21.505
3750,-2.9549,20.673
3761.7,-0.39167,18.61
3773.4,-1.5297,20.109
3785.2,-2.0969,20.394
3796.9,-2.8562,20.311
3808.6,-1.3484,21.437
3820.3,-2.561,22.278
3832,-2.5994,21.016
3843.8,-2.6427,19.593
3855.5,-1.5569,21.077
3867.2,1.017,23.174
3878.9,2.211,23.244
3890.6,-0.083177,21.537
3902.3,-0.67567,20.244
3914.1,-1.2736,21.088
3925.8,-0.27326,22.631
3937.5,-3.5209,22.563
3949.2,-1.3964,21.633
3960.9,-1.2208,19.758
3972.7,-2.4833,22.133
3984.4,-2.4907,23.276
3996.1,-3.0528,20.633
4007.8,-4.4763,19.998
4019.5,-2.2623,18.686
4031.3,-1.5037,19.955
4043,-5.162,19.453
4054.7,-2.3125,19.73
4066.4,-0.76975,19.684
4078.1,-0.81839,20.228
4089.8,-3.6294,17.627
4101.6,-2.8654,14.714
4113.3,-0.80203,18.186
4125,-0.18559,19.873
4136.7,-3.9575,19.387
4148.4,-2.0948,20.906
4160.2,-0.48923,19.095
4171.9,-2.4091,20.084
4183.6,-6.5509,21.168
4195.3,-3.5154,18.833
4207,-4.0076,18.471
4218.8,-5.7497,19.454
4230.5,-0.61046,21.147
4242.2,-1.873,20.769
4253.9,-2.1139,19.451
4265.6,-0.92211,19.16
4277.3,-1.2706,19.274
4289.1,-2.9045,20.281
4300.8,-5.5598,19.036
4312.5,-0.44361,19.297
4324.2,-1.925,18.767
4335.9,-3.6794,18.14
4347.7,-2.4963,21.947
4359.4,-2.4064,22.127
4371.1,-5.7603,20.578
4382.8,-4.8121,21.639
4394.5,-5.4405,19.765
4406.3,-6.2398,19.664
4418,-1.4576,20.597
4429.7,-1.4597,20.035
4441.4,-1.1816,19.106
4453.1,-1.293,21.302
4464.8,-1.8542,19.609
4476.6,-1.2985,17.701
4488.3,-0.10895,21.868
4500,-1.949,21.81
4511.7,-1.0955,18.651
4523.4,-2.0589,20.682
4535.2,-1.6717,20.562
4546.9,-3.4069,17.352
4558.6,-6.1559,17.471
4570.3,-7.5671,17.93
4582,-5.1672,18.509
4593.8,-3.8922,19.027
4605.5,-3.1208,17.431
4617.2,-3.0212,16.511
4628.9,-4.5977,16.963
4640.6,-3.4698,18.164
4652.3,-2.9699,17.798
4664.1,-1.0538,18.997
4675.8,-0.63171,19.492
4687.5,-3.0122,16.949
4699.2,-5.1038,14.899
4710.9,-2.3165,18.623
4722.7,-3.7543,19.7
4734.4,-2.8886,19.391
4746.1,-5.2822,20.795
4757.8,-5.2236,20.158
4769.5,-5.5199,18.752
4781.3,-1.8484,19.31
4793,-2.344,21.691
4804.7,-3.0641,19.866
4816.4,-4.6841,19.031
4828.1,-0.92252,19.161
4839.8,-4.0605,16.723
4851.6,-4.6481,19.661
4863.3,-4.952,17.688
4875,-2.0221,17.467
4886.7,-0.038791,17.468
4898.4,-1.3617,17.69
4910.2,-3.9912,15.985
4921.9,-2.907,15.748
4933.6,-1.5133,16.975
4945.3,-2.0794,16.751
4957,-3.7411,16.932
4968.8,-4.529,19.084
4980.5,-6.4054,19.125
4992.2,-5.7043,20.347
5003.9,-4.1394,22.3
5015.6,-5.8859,20.537
5027.3,-6.3198,18.601
5039.1,-3.9679,18.35
5050.8,-1.0014,19.562
5062.5,-1.0282,18.567
5074.2,-1.4612,17.457
5085.9,-1.6903,19.35
5097.7,-2.6341,19.459
5109.4,-5.164,19.38
5121.1,-3.7017,16.611
5132.8,-3.0024,18.465
5144.5,-4.0232,19.669
5156.3,-7.9345,19.472
5168,-3.5507,15.719
5179.7,-5.3184,19.243
5191.4,-6.6574,17.679
5203.1,-6.7564,18.66
5214.8,-3.9532,19.791
5226.6,-3.9063,20.174
5238.3,-1.8747,20.622
5250,-2.5669,21.954
5261.7,-5.653,22.563
5273.4,-3.3711,20.458
5285.2,-3.5931,18.37
5296.9,-4.3006,17.342
5308.6,-3.4249,15.831
5320.3,-3.9935,19.661
5332,-2.4173,19.251
5343.8,-1.8053,16.768
5355.5,-4.5595,17.465
5367.2,-9.2543,17.079
5378.9,-7.1981,15.39
5390.6,-2.7543,17.667
5402.3,-1.6348,18.857
5414.1,-1.6364,17.414
5425.8,-2.5118,18.265
5437.5,-2.8729,18.427
5449.2,-6.8521,17.208
5460.9,-2.8464,18.775
5472.7,-2.7411,18.001
5484.4,-3.7711,17.811
5496.1,-3.4731,18.211
5507.8,-0.74606,17.051
5519.5,7.2708,18.48
5531.3,8.7944,15.278
5543,0.46781,16.146
5554.7,-5.8822,18.116
5566.4,-6.3207,16.203
5578.1,-7.779,18.947
5589.8,-5.7779,19.619
5601.6,-4.9144,18.914
5613.3,-4.639,17.371
5625,-5.6534,14.622
5636.7,-5.1557,16.81
5648.4,-4.4741,17.131
5660.2,-5.1352,16.14
5671.9,-4.4257,19.091
5683.6,-8.4831,19.262
5695.3,-6.5419,17.72
5707,-3.668,17.577
5718.8,-4.9613,18.594
5730.5,-6.9903,18.661
5742.2,-5.9112,17.636
5753.9,-4.1908,15.713
5765.6,-5.9428,16.929
5777.3,-6.4083,18.361
5789.1,-7.3372,18.498
5800.8,-4.2328,18.002
5812.5,-5.8496,19.351
5824.2,-6.2472,18.565
5835.9,-2.9477,17.71
5847.7,-2.8774,16.854
5859.4,-3.9604,19.608
5871.1,-6.1395,19.62
5882.8,-6.6893,18.29
5894.5,-4.9079,16.938
5906.3,-7.4647,14.735
5918,-7.1762,15.929
5929.7,-6.2145,17.252
5941.4,-6.8942,17.046
5953.1,-5.4049,16.421
5964.8,-3.5374,16.547
5976.6,-3.1537,17.707
5988.3,-2.6191,17.411
6000,-3.2167,17.776
6011.7,-6.0267,19.581
6023.4,-8.2677,19.174
6035.2,-8.2117,17.809
6046.9,-5.4571,18.258
6058.6,-4.7966,16.465
6070.3,-8.1725,14.02
6082,-9.4986,15.43
6093.8,-8.0004,15.799
6105.5,-6.6575,15.485
6117.2,-4.0832,14.755
6128.9,-3.97,15.21
6140.6,-2.4941,18.813
6152.3,-3.2723,18.081
6164.1,-4.5123,18.171
6175.8,-8.7483,18.407
6187.5,-6.6197,17.674
6199.2,-4.0673,17.84
6210.9,-5.541,17.293
6222.7,-7.7345,16.938
6234.4,-6.2919,17.026
6246.1,-7.465,15.479
6257.8,-7.5776,16.41
6269.5,-6.0944,17.046
6281.3,-6.1053,16.45
6293,-6.235,14.768
6304.7,-7.4316,12.938
6316.4,-7.6569,15.135
6328.1,-4.991,17.607
6339.8,-5.849,17.651
6351.6,-4.5299,14.882
6363.3,-5.8441,16.593
6375,-8.2317,16.348
6386.7,-7.7025,15.595
6398.4,-7.1312,13.374
6410.2,-7.3392,13.493
6421.9,-6.7338,14.587
6433.6,-5.5545,16.784
6445.3,-6.4775,17.453
6457,-7.5376,15.757
6468.8,-6.6007,15.777
6480.5,-7.4465,15.162
6492.2,-6.1533,17.387
6503.9,-4.7849,18.031
6515.6,-5.7719,16.583
6527.3,-5.2139,17.619
6539.1,-8.8399,16.455
6550.8,-7.2477,16.707
6562.5,-8.8898,17.606
6574.2,-6.6524,14.601
6585.9,-2.243,15.238
6597.7,-3.3145,14.756
6609.4,-6.8522,17.229
6621.1,-5.8537,17.071
6632.8,-3.607,17.854
6644.5,-7.8823,17.1
6656.3,-7.266,16.311
6668,-5.2205,16.448
6679.7,-4.6126,17.211
6691.4,-7.6046,17.009
6703.1,-7.1244,16.766
6714.8,-6.4539,17.046
6726.6,-6.004,15.828
6738.3,-8.3457,16.562
6750,-7.3338,18.118
6761.7,-4.9292,16.701
6773.4,-5.6886,17.908
6785.2,-7.2693,18.488
6796.9,-6.0148,16.347
6808.6,-7.0658,13.375
6820.3,-10.496,14.524
6832,-7.564,17.772
6843.8,-6.6927,15.565
6855.5,-5.0594,16.437
6867.2,-4.6891,17.309
6878.9,-5.2765,17.247
6890.6,-6.588,17.122
6902.3,-8.3069,18.141
6914.1,-10.38,16.794
6925.8,-10.895,17.708
6937.5,-6.7011,15.73
6949.2,-7.0906,16.306
6960.9,-5.6081,15.603
6972.7,-6.3648,17.334
6984.4,-6.3758,18.159
6996.1,-5.8237,16.902
7007.8,-3.7341,13.657
7019.5,-5.5954,13.977
7031.3,-7.0419,14.222
7043,-6.7847,15.004
7054.7,-6.9071,15.666
7066.4,-7.2344,17.801
7078.1,-5.9589,16.487
7089.8,-7.9538,13.223
7101.6,-7.927,14.32
7113.3,-6.3156,16.653
7125,-7.2123,15.757
7136.7,-10.158,15.415
7148.4,-9.5155,15.652
7160.2,-7.7612,17.621
7171.9,-7.6835,18.709
7183.6,-8.5393,18.903
7195.3,-8.0886,16.159
7207,-8.8516,13.819
7218.8,-9.2357,12.194
7230.5,-4.4885,15.803
7242.2,-4.9018,15.252
7253.9,-7.4685,15.127
7265.6,-6.8298,15.276
7277.3,-10.079,15.482
7289.1,-10.979,14.968
7300.8,-8.8828,16.207
7312.5,-7.4799,14.311
7324.2,-4.9636,14.57
7335.9,-5.4037,15.19
7347.7,-7.7275,16.85
7359.4,-6.8075,19.408
7371.1,-4.9428,17.466
7382.8,-6.1531,15.864
7394.5,-6.3201,17.206
7406.3,-8.1156,16.998
7418,-8.0462,15.606
7429.7,-9.6546,17.066
7441.4,-4.9078,16.006
7453.1,-4.1652,15.152
7464.8,-4.6852,15.922
7476.6,-7.0162,15.648
7488.3,-9.29,14.147
7500,-6.6382,13.627
7511.7,-7.7986,13.304
7523.4,-9.2907,15.858
7535.2,-7.5068,14.938
7546.9,-7.5246,16.657
7558.6,-7.1912,17.533
7570.3,-6.8822,16.838
7582,-9.4839,18.461
7593.8,-7.5333,18.351
7605.5,-7.5426,16.826
7617.2,-8.7885,16.48
7628.9,-7.8491,16.299
7640.6,-6.8488,17.042
7652.3,-8.711,15.047
7664.1,-9.8841,14.943
7675.8,-8.9887,15.798
7687.5,-7.0517,18.302
7699.2,-6.9496,19.038
7710.9,-7.6197,17.946
7722.7,-5.5707,15.732
7734.4,-5.181,16.706
7746.1,-8.0124,17.813
7757.8,-7.5636,16.983
7769.5,-7.0707,15.668
7781.3,-7.0991,12.27
7793,-6.8286,15.228
7804.7,-10.555,14.804
7816.4,-10.999,15.168
7828.1,-10.709,14.438
7839.8,-9.1229,12.898
7851.6,-8.0584,15.141
7863.3,-9.8384,14.344
7875,-6.3111,15.903
7886.7,-6.8911,17.373
7898.4,-7.7665,16.888
7910.2,-5.4952,17.355
7921.9,-5.6126,15.377
7933.6,-9.1966,13.373
7945.3,-10.884,12.757
7957,-10.126,13.54
7968.8,-11.435,14.955
7980.5,-11.53,12.646
7992.2,-11.381,12.321
8003.9,-13.398,15.426
8015.6,-13.904,16.065
8027.3,-10.387,15.297
8039.1,-10.074,12.609
8050.8,-6.5372,12.862
8062.5,-7.0185,12.763
8074.2,-7.7501,11.288
8085.9,-7.9104,14.564
8097.7,-7.1905,14.426
8109.4,-7.7973,14.36
8121.1,-10.012,15.004
8132.8,-10.237,14.089
8144.5,-8.9278,14.825
8156.3,-9.2478,15.207
8168,-9.6653,15.26
8179.7,-9.2064,15.983
8191.4,-9.7846,16.776
8203.1,-7.7489,13.929
8214.8,-7.0031,12.355
8226.6,-6.434,16.916
8238.3,-7.9899,16.754
8250,-7.2993,13.562
8261.7,-9.2579,12.944
8273.4,-8.7,13.738
8285.2,-7.6979,14.796
8296.9,-7.5265,13.449
8308.6,-7.0192,14.74
8320.3,-6.6924,15.704
8332,-9.9824,16.188
8343.8,-10.801,16.821
8355.5,-10.917,16.621
8367.2,-8.302,15.169
8378.9,-8.5992,13.067
8390.6,-10.074,14.487
8402.3,-8.5227,15.612
8414.1,-9.3514,14.324
8425.8,-10.098,13.766
8437.5,-11.003,13.245
8449.2,-11.007,14.654
8460.9,-10.032,14.266
8472.7,-14.025,10.12
8484.4,-11.051,13.082
8496.1,-9.4574,14.812
8507.8,-7.2111,14.557
8519.5,-9.6693,13.237
8531.3,-11.459,11.92
8543,-7.7289,11.345
8554.7,-7.9662,11.877
8566.4,-11.238,11.177
8578.1,-8.3736,11.87
8589.8,-6.8113,12.578
8601.6,-7.1278,12.862
8613.3,-9.7293,14.779
8625,-11.727,14.442
8636.7,-13.981,13.717
8648.4,-12.024,12.678
8660.2,-10.889,12.811
8671.9,-9.4956,15.757
8683.6,-7.3442,17.39
8695.3,-8.0825,16.555
8707,-9.5881,15.171
8718.8,-7.9267,14.715
8730.5,-12.011,15.442
8742.2,-11.077,16.066
8753.9,-12.289,13.949
8765.6,-10.334,15.284
8777.3,-8.4995,15.581
8789.1,-8.7905,15.812
8800.8,-10.327,14.755
8812.5,-13.58,14.709
8824.2,-7.9354,15.482
8835.9,-6.4099,16.356
8847.7,-9.0356,15.407
8859.4,-9.0818,13.297
8871.1,-11.287,14.801
8882.8,-8.4381,15.545
8894.5,-8.1341,14.224
8906.3,-14.764,13.666
8918,-10.039,13.903
8929.7,-11.606,12.003
8941.4,-12.978,11.656
8953.1,-9.8056,13.429
8964.8,-8.9077,12.652
8976.6,-8.0786,13.489
8988.3,-7.2139,12.003
9000,-9.9269,12.349
9011.7,-10.458,12.339
9023.4,-10.732,11.887
9035.2,-9.421,11.967
9046.9,-10.316,12.085
9058.6,-10.271,14.219
9070.3,-11.546,14.703
9082,-8.808,13.294
9093.8,-9.8273,11.429
9105.5,-10.666,10.689
9117.2,-10.036,10.385
9128.9,-8.3819,12.298
9140.6,-9.8912,13.666
9152.3,-11.392,14.696
9164.1,-10.75,13.837
9175.8,-10.645,13.501
9187.5,-12.879,13.391
9199.2,-12.039,12.385
9210.9,-14.314,13.668
9222.7,-11.441,13.52
9234.4,-7.4014,15.016
9246.1,-6.4209,14.024
9257.8,-8.9901,10.579
9269.5,-11.679,11.1
9281.3,-13.905,13.924
9293,-14.414,14.654
9304.7,-13.108,16.755
9316.4,-11.953,16.162
9328.1,-12.55,15.305
9339.8,-11.322,13.006
9351.6,-10.999,13.99
9363.3,-9.1086,14.937
9375,-8.3458,12.989
9386.7,-9.6194,13.418
9398.4,-13.509,12.036
9410.2,-11.806,13.094
9421.9,-12.049,11.289
9433.6,-12.494,10.524
9445.3,-10.712,11.295
9457,-11.205,12.172
9468.8,-10.181,11.763
9480.5,-11.431,10.672
9492.2,-11.916,10.824
9503.9,-9.6905,12.612
9515.6,-8.2608,11.87
9527.3,-10.037,12.207
9539.1,-9.78,14.566
9550.8,-11.413,12.86
9562.5,-13.379,12.462
9574.2,-11.871,14.66
9585.9,-9.8478,13.757
9597.7,-9.8328,10.249
9609.4,-10.509,10.135
9621.1,-12.311,10.548
9632.8,-10.017,11.61
9644.5,-8.9454,13.214
9656.3,-9.4365,14.341
9668,-13.282,13.142
9679.7,-11.218,13.009
9691.4,-14.16,13.332
9703.1,-11.449,13.386
9714.8,-9.575,12.289
9726.6,-6.7356,11.202
9738.3,-7.4251,12.675
9750,-8.9436,12.309
9761.7,-9.4117,9.6527
9773.4,-11.284,12.279
9785.2,-11.087,12.497
9796.9,-9.0979,6.837
9808.6,-8.6437,12.084
9820.3,-9.4018,13.411
9832,-7.5928,14.156
9843.8,-6.7703,14.977
9855.5,-7.4273,13.576
9867.2,-10.361,11.142
9878.9,-15.122,11.827
9890.6,-9.81,9.9213
9902.3,-10.046,12.439
9914.1,-10.97,10.25
9925.8,-9.7433,8.046
9937.5,-11.451,8.5082
9949.2,-11.776,11.394
9960.9,-10.783,13.162
9972.7,-10.411,14.335
9984.4,-11.9,11.765
9996.1,-11.708,11.734
10008,-12.153,12.138
10020,-8.2428,9.235
10031,-9.2222,8.0192
10043,-11.199,8.8472
10055,-13.122,9.7935
10066,-11.429,9.0204
10078,-9.1998,10.283
10090,-9.5696,10.247
10102,-11.732,13.201
10113,-11.809,13.665
10125,-10.603,11.898
10137,-9.4422,13.189
10148,-12.398,12.585
10160,-12.306,12.299
10172,-12.722,12.824
10184,-12.537,12.19
10195,-11.936,9.2947
10207,-10.131,12.787
10219,-9.0887,11.831
10230,-11.679,9.4079
10242,-11.153,10.56
10254,-12.038,10.328
10266,-12.817,8.3137
10277,-11.241,10.827
10289,-12.487,10.616
10301,-14.577,7.7511
10313,-13.214,6.9939
10324,-12.192,9.8547
10336,-7.899,12.615
10348,-10.654,14.142
10359,-10.363,12.95
10371,-8.9269,12.297
10383,-9.399,10.959
10395,-12.017,10.227
10406,-15.398,13.271
10418,-13.408,12.494
10430,-14.148,11.591
10441,-17.165,11.894
10453,-13.794,10.008
10465,-11.912,7.8543
10477,-12.488,8.2952
10488,-12.413,12.644
10500,-11.463,14.109
10512,-12.409,14.494
10523,-7.8196,13.604
10535,-11.712,13.843
10547,-12.08,10.437
10559,-11.721,11.322
10570,-12.885,9.5045
10582,-12.572,10.546
10594,-12.955,12.026
10605,-14.943,13.874
10617,-12.46,11.485
10629,-11.349,8.4777
10641,-11.53,12.019
10652,-10.181,13.792
10664,-10.053,10.62
10676,-12.68,9.0335
10688,-15.641,8.6394
10699,-13.488,11.361
10711,-11.484,12.241
10723,-10.752,13.17
10734,-12.367,14.451
10746,-16.721,14.959
10758,-13.997,12.305
10770,-12.434,10.019
10781,-12.22,9.1808
10793,-9.7968,11.819
10805,-10.71,11.161
10816,-13.08,10.918
10828,-12.365,10.149
10840,-10.173,7.8879
10852,-9.2389,9.2264
10863,-12.832,13.49
10875,-13.242,12.218
10887,-10.45,10.371
10898,-11.78,10.682
10910,-12.269,10.385
10922,-11.31,13.278
10934,-11.731,13.001
10945,-13.287,10.323
10957,-12.838,9.1782
10969,-10.351,9.3601
10980,-11.301,10.021
10992,-14.786,10.26
11004,-13.087,9.2312
11016,-12.221,13.868
11027,-12.814,13.991
11039,-12.63,12.069
11051,-12.909,9.6792
11063,-12.452,8.0893
11074,-12.783,10.118
11086,-11.327,10.227
11098,-14.217,9.9662
11109,-14.935,10.607
11121,-12.154,11.28
11133,-15.686,10.608
11145,-14.12,9.6886
11156,-11.347,10.248
11168,-13.006,8.0128
11180,-11.335,10.547
11191,-13.334,12.06
11203,-13.71,12.17
11215,-12.622,9.911
11227,-11.59,9.1382
11238,-13.34,11.143
11250,-10.878,8.4229
11262,-12.311,8.3612
11273,-12.812,8.8316
11285,-12.806,7.9731
11297,-11.827,10.146
11309,-11.801,11.08
11320,-14.884,11.39
11332,-14.798,9.8976
11344,-16.1,9.8085
11355,-14.998,9.2451
11367,-16.213,9.3141
11379,-16.355,11.289
11391,-11.965,11.104
11402,-11.475,12.154
11414,-11.34,12.702
11426,-11.475,11.582
11438,-12.403,9.9897
11449,-13.013,10.025
11461,-11.988,10.608
11473,-11.73,7.0816
11484,-11.722,9.9982
11496,-14.435,10.654
11508,-16.177,9.725
11520,-15.15,12.286
11531,-14.216,12.231
11543,-13.178,9.9862
11555,-13.857,9.6184
11566,-12.705,10.395
11578,-11.538,12.28
11590,-13.893,11.621
11602,-12.561,8.4047
11613,-10.113,9.3218
11625,-10.878,10.605
11637,-12.216,10.312
11648,-11.808,10.53
11660,-9.7382,10.612
11672,-13.193,10.392
11684,-13.47,8.9341
11695,-11.783,10.42
11707,-12.735,12.202
11719,-15.06,10.65
11730,-15.417,10.136
11742,-14.353,8.9049
11754,-14.764,9.5734
11766,-14.234,9.2678
11777,-11.677,9.9998
11789,-15.284,8.3297
11801,-15.935,8.8533
11813,-13.96,9.6532
11824,-11.632,10.142
11836,-11.125,9.7523
11848,-12.651,9.5853
11859,-14.214,11.72
11871,-14.4,10.595
11883,-12.034,10.321
11895,-13.439,7.6046
11906,-13.136,9.5822
11918,-13.902,8.9826
11930,-15.362,7.8225
11941,-12.012,10.71
11953,-10.901,11.665
11965,-12.209,11.54
11977,-13.707,10.573
11988,-11.824,10.061
12000,-9.425,8.9294
12012,-11.511,13.021
12023,-14.049,14.436
12035,-11.727,9.8676
12047,-12.736,9.1492
12059,-14.077,8.2079
12070,-12.397,7.9628
12082,-11.506,7.3763
12094,-12.703,6.9398
12105,-14.388,9.6685
12117,-13.636,11.919
12129,-13.022,9.0188
12141,-12.853,8.3607
12152,-12.549,8.7981
12164,-13.555,6.7166
12176,-16.384,10.065
12188,-14.448,10.229
12199,-13.053,8.9097
12211,-12.007,10.972
12223,-13.837,9.9782
12234,-13.815,9.1096
12246,-14.67,10.9
12258,-17.276,10.786
12270,-14.088,8.7981
12281,-11.372,10.262
12293,-14.03,9.9841
12305,-15.584,8.8347
12316,-14.787,10.525
12328,-13.832,7.9052
12340,-16.652,10.133
12352,-15.98,11.767
12363,-14.728,11.658
12375,-15.565,10.44
12387,-15.692,9.6914
12398,-16.141,7.0906
12410,-13.767,9.3923
12422,-9.6549,10.975
12434,-11.167,9.4895
12445,-14.975,7.7579
12457,-15.764,10.173
12469,-14.632,9.8481
12480,-14.451,9.8021
12492,-11.145,9.356
12504,-12.623,9.6057
12516,-17.93,7.8262
12527,-19.655,6.7872
12539,-16.882,7.2864
12551,-12.752,6.4789
12563,-12.592,6.6716
12574,-14.786,8.4538
12586,-12.821,8.1377
12598,-9.938,8.5175
12609,-10.452,7.8753
12621,-11.645,9.18
12633,-12.621,10.162
12645,-14.104,9.7577
12656,-15.568,11.196
12668,-14.512,8.1119
12680,-12.191,8.5996
12691,-11.492,10.965
12703,-13.618,7.1358
12715,-13.141,6.7005
12727,-14.32,6.3009
12738,-12.542,7.9844
12750,-12.944,5.2723
12762,-13.784,4.8313
12773,-12.409,7.4735
12785,-11.914,9.3399
12797,-12.372,10.399
12809,-11.83,10.619
12820,-11.348,9.197
12832,-13.154,10.406
12844,-14.34,10.086
12855,-15.218,8.0629
12867,-13.767,6.0428
12879,-13.665,8.1775
12891,-11.731,7.5156
12902,-13.395,9.592
12914,-14.764,9.9439
12926,-13.305,8.3101
12938,-12.072,8.0126
12949,-11.512,7.4781
12961,-12.904,7.1565
12973,-14.854,8.4304
12984,-12.477,8.2964
12996,-12.68,9.2863
13008,-11.559,9.8205
13020,-10.086,9.0209
13031,-11.052,10.786
13043,-15.376,9.8175
13055,-12.649,5.6425
13066,-12.897,6.2488
13078,-14.438,9.6458
13090,-16.141,8.3464
13102,-16.045,6.3795
13113,-15.69,5.5221
13125,-13.563,7.1691
13137,-13.227,8.5699
13148,-14.239,7.219
13160,-15.66,7.8898
13172,-15.274,8.7826
13184,-14.077,7.2767
13195,-12.668,6.3116
13207,-11.986,5.4534
13219,-15.368,5.3077
13230,-14.586,6.5128
13242,-15.149,6.0996
13254,-14.047,6.0448
13266,-12.511,9.4399
13277,-13.298,7.9025
13289,-12.255,7.4106
13301,-13.655,8.3053
13313,-15.561,7.0651
13324,-15.375,8.5731
13336,-12.126,7.7838
13348,-14.285,7.3601
13359,-13.547,6.835
13371,-14.907,9.6767
13383,-17.042,9.7382
13395,-16.131,9.1375
13406,-14.536,10.755
13418,-13.967,6.7649
13430,-15.787,6.4198
13441,-15.767,6.724
13453,-14.52,7.754
13465,-14.949,9.3243
13477,-14.499,10.853
13488,-14.284,8.2354
13500,-16.379,6.242
13512,-14.328,6.3057
13523,-14.433,8.2393
13535,-16.754,5.6154
13547,-15.71,7.118
13559,-15.146,8.3453
13570,-16.008,7.4116
13582,-16.246,5.9089
13594,-17.127,4.5596
13605,-14.493,6.6233
13617,-13.244,7.4945
13629,-14.131,7.9757
13641,-14.782,9.1793
13652,-16.56,9.9712
13664,-19.188,9.3932
13676,-18.094,8.5512
13688,-17.008,6.1217
13699,-15.481,7.0088
13711,-14.712,6.4953
13723,-14.349,6.8084
13734,-13.105,6.4315
13746,-13.687,7.7345
13758,-11.933,9.4441
13770,-12.55,9.5288
13781,-15.301,6.9664
13793,-13.93,7.0854
13805,-15.52,7.3268
13816,-16.59,6.1248
13828,-19.827,5.5094
13840,-18.565,7.5925
13852,-15.779,6.304
13863,-15.165,8.3288
13875,-16.084,7.2637
13887,-15.668,8.698
13898,-13.279,9.7015
13910,-13.378,9.3176
13922,-12.959,7.6482
13934,-13.755,7.2082
13945,-15.243,6.3413
13957,-16.74,4.0594
13969,-16.985,7.2028
13980,-14.564,10.528
13992,-14.865,9.73
14004,-14.015,7.1974
14016,-15.378,8.0863
14027,-16.134,8.3219
14039,-14.229,8.6717
14051,-15.397,7.8539
14063,-15.872,7.4983
14074,-14.277,8.6695
14086,-14.861,7.5055
14098,-15.411,6.9589
14109,-18.095,9.5361
14121,-14.696,9.662
14133,-12.621,9.9388
14145,-12.37,9.7057
14156,-13.936,7.5097
14168,-15.324,4.6896
14180,-15.185,4.8368
14191,-15.038,5.2184
14203,-13.404,7.1353
14215,-15.442,7.3226
14227,-13.342,7.06
14238,-13.065,6.7964
14250,-16.694,5.0033
14262,-14.921,2.4554
14273,-15.249,5.7968
14285,-15.192,5.2706
14297,-13.469,2.965
14309,-19.44,7.998
14320,-17.766,9.2425
14332,-15.491,7.5125
14344,-14.007,9.0695
14355,-13.917,10.157
14367,-14.555,8.6837
14379,-17.94,4.9959
14391,-15.946,6.9522
14402,-14.03,6.6066
14414,-15.013,9.1796
14426,-19.561,3.9119
14438,-18.288,3.017
14449,-16.503,6.0079
14461,-15.625,3.5114
14473,-14.383,6.2514
14484,-12.635,7.4312
14496,-14.388,7.7094
14508,-17.901,7.9016
14520,-18.729,5.6329
14531,-13.866,5.3719
14543,-11.301,6.5178
14555,-13.596,3.821
14566,-16.715,5.7792
14578,-17.064,6.0026
14590,-17.279,5.2714
14602,-18.535,6.1455
14613,-18.422,6.5865
14625,-17.62,5.481
14637,-17.075,4.6248
14648,-16.178,4.8783
14660,-14.315,6.2137
14672,-17.426,3.419
14684,-19.145,3.6533
14695,-20.053,4.4355
14707,-19.156,4.8876
14719,-19.262,5.8899
14730,-17.329,5.0321
14742,-16.651,5.557
14754,-18.031,5.8305
14766,-17.778,8.9063
14777,-15.665,9.4287
14789,-16.789,5.8203
14801,-18.944,6.2045
14813,-16.354,8.9815
14824,-13.085,8.6344
14836,-15.975,6.7389
14848,-17.862,6.2279
14859,-20.343,8.3065
14871,-15.738,7.6308
14883,-16.05,5.6492
14895,-14.933,7.0612
14906,-14.245,6.8449
14918,-14.492,5.929
14930,-16.137,7.5704
14941,-18.606,6.4714
14953,-16.64,4.6187
14965,-16.437,4.9359
14977,-16.348,5.9746
14988,-17.264,6.2248
15000,-14.92,5.7348
15012,-14.977,4.5993
15023,-16.092,5.2622
15035,-17.352,7.0467
15047,-19.891,5.4553
15059,-21.339,5.8148
15070,-16.117,8.4632
15082,-15.437,5.9313
15094,-17.305,4.8472
15105,-19.578,5.9197
15117,-19.083,7.0102
15129,-21.735,8.5759
15141,-16.808,8.9056
15152,-16.486,6.596
15164,-19.943,5.3048
15176,-20.181,4.7667
15188,-18.999,6.1787
15199,-20.505,6.3653
15211,-22.706,6.3668
15223,-20.751,5.5772
15234,-19.225,5.076
15246,-21.454,4.731
15258,-21.444,7.0185
15270,-16.73,6.6006
15281,-16.227,7.427
15293,-18.329,9.2043
15305,-19.19,7.7655
15316,-20.936,7.1193
15328,-21.94,5.5458
15340,-19.539,6.9922
15352,-15.184,5.8547
15363,-15.412,6.5219
15375,-19.039,5.4368
15387,-14.047,4.9215
15398,-16.996,6.7997
15410,-18.64,6.2625
15422,-17.208,4.7107
15434,-16.363,3.1182
15445,-16.352,3.7128
15457,-18.369,7.3561
15469,-19.41,7.5051
15480,-19.597,4.8495
15492,-18.481,7.3248
15504,-20.561,6.2812
15516,-18.111,3.8745
15527,-17.47,4.5087
15539,-20.163,5.8487
15551,-18.731,6.5026
15563,-18.796,5.7488
15574,-18.744,7.2242
15586,-20.015,9.0479
15598,-18.654,6.7418
15609,-16.058,5.4871
15621,-16.395,3.9907
15633,-18.748,4.0043
15645,-17.96,5.9535
15656,-17.309,4.8228
15668,-20.648,3.511
15680,-20.015,4.3816
15691,-19.215,6.2473
15703,-15.482,8.4185
15715,-15.269,8.4579
15727,-15.55,7.4845
15738,-15.573,5.4877
15750,-16.972,4.4875
15762,-21.108,6.2499
15773,-18.939,6.1019
15785,-20.332,5.1182
15797,-20.843,5.2809
15809,-19.409,6.0908
15820,-21.537,6.4707
15832,-19.221,6.2321
15844,-19.196,3.8958
15855,-20.493,2.9751
15867,-21.308,3.1663
15879,-17.541,5.9035
15891,-20.054,5.2656
15902,-23.339,5.2115
15914,-21.962,5.6077
15926,-22.142,7.4123
15938,-22.562,6.399
15949,-21.033,5.2985
15961,-21.097,5.305
15973,-21.614,5.0266
15984,-18.647,5.0645
15996,-20.622,6.3914
16008,-20.96,2.6664
16020,-18.996,4.3986
16031,-19.228,4.41
16043,-21.482,1.9745
16055,-24.774,1.5969
16066,-24.629,2.5099
16078,-20.204,2.8739
16090,-17.798,4.764
16102,-16.765,6.2346
16113,-17.069,5.0837
16125,-20.427,3.239
16137,-21.811,2.6487
16148,-16.799,2.7759
16160,-16.771,3.7991
16172,-20.346,6.4281
16184,-22.3,5.4751
16195,-21.552,4.6802
16207,-20.963,6.4061
16219,-19.907,6.2155
16230,-19.61,5.2555
16242,-22.294,6.5521
16254,-20.706,7.1867
16266,-16.754,5.4281
16277,-15.153,4.6879
16289,-20.459,3.9259
16301,-22.448,4.6006
16313,-21.402,3.9373
16324,-18.743,5.6377
16336,-21.091,6.7115
16348,-22.016,7.2678
16359,-20.546,5.4693
16371,-17.82,7.8734
16383,-18.088,8.4522
16395,-20.672,8.05
16406,-19.55,4.8146
16418,-19.256,4.8018
16430,-20.63,5.0471
16441,-21.763,5.763
16453,-20.807,5.8286
16465,-21.355,6.4614
16477,-17.862,6.4631
16488,-19.518,4.4265
16500,-21.312,4.5889
16512,-20.05,5.8695
16523,-18.956,4.1051
16535,-20.213,4.8013
16547,-19.498,4.681
16559,-17.282,4.279
16570,-19.313,6.1694
16582,-20.73,5.3625
16594,-20.375,6.1914
16605,-19.294,6.5295
16617,-18.829,6.0382
16629,-17.476,5.9456
16641,-18.795,3.9336
16652,-19.021,3.8894
16664,-19.567,4.6229
16676,-20.335,4.8569
16688,-19.722,6.2019
16699,-17.285,6.3002
16711,-16.306,6.7324
16723,-18.525,5.2179
16734,-25.137,6.5459
16746,-21.477,6.2506
16758,-19.575,5.2639
16770,-19.476,5.2638
16781,-21.383,4.231
16793,-23.842,3.952
16805,-20.764,3.0459
16816,-18.528,4.9924
16828,-19.612,5.6671
16840,-22.604,5.6595
16852,-23.184,4.2616
16863,-21.205,4.1333
16875,-20.271,4.4178
16887,-20.418,4.4187
16898,-21.976,2.8551
16910,-23.277,3.4188
16922,-21.55,4.3964
16934,-20.501,2.0986
16945,-22.07,0.44711
16957,-18.944,1.6092
16969,-19.357,2.6821
16980,-24.335,5.2854
16992,-24.392,8.0881
17004,-23.436,5.2303
17016,-21.365,2.4612
17027,-22.027,3.1379
17039,-24.154,2.3363
17051,-23.069,2.1894
17063,-22.864,4.1755
17074,-19.274,4.0471
17086,-19.992,6.4894
17098,-23.012,6.127
17109,-22.854,5.0463
17121,-21.923,3.5132
17133,-21.371,4.7576
17145,-22.693,4.1037
17156,-21.279,4.2198
17168,-21.135,5.5721
17180,-20.063,6.4317
17191,-20.953,2.211
17203,-16.513,5.988
17215,-19.779,6.7523
17227,-19.259,6.3531
17238,-20.047,5.5962
17250,-21.94,2.7458
17262,-21.378,3.4679
17273,-20.196,4.1887
17285,-19.898,4.2467
17297,-19.733,4.5846
17309,-20.497,5.1918
17320,-22.464,4.8996
17332,-22.905,2.5269
17344,-21.721,2.9761
17355,-20.686,2.3976
17367,-20.279,0.14524
17379,-22.097,5.0928
17391,-22.981,4.6221
17402,-22.729,3.2583
17414,-23.855,3.4251
17426,-24.172,4.3279
17438,-20.889,2.9008
17449,-18.434,0.15722
17461,-19.233,3.6948
17473,-22.079,3.6559
17484,-23.752,3.1355
17496,-20.651,2.5696
17508,-21.925,4.3375
17520,-23.707,2.5779
17531,-25.628,0.42486
17543,-24.262,2.9907
17555,-22.248,5.8984
17566,-21.018,3.8248
17578,-22.805,2.4922
17590,-22.276,-0.55037
17602,-18.653,1.2764
17613,-20.022,4.1918
17625,-24.207,4.2826
17637,-24.511,4.3706
17648,-22.849,3.2967
17660,-20.562,3.6281
17672,-21.414,2.9028
17684,-21.635,5.4266
17695,-23.546,2.8121
17707,-24.735,3.8524
17719,-20.69,4.1774
17730,-19.711,2.7522
17742,-20.32,1.882
17754,-20.086,2.9625
17766,-19.711,4.8264
17777,-20.974,4.8624
17789,-19.282,3.9538
17801,-19.685,2.4521
17813,-21.849,1.9809
17824,-23.809,4.4172
17836,-20.665,1.9556
17848,-21.826,2.8449
17859,-23.192,3.9051
17871,-22.533,2.0634
17883,-20.599,2.4359
17895,-17.641,2.974
17906,-17.106,4.458
17918,-19.373,5.1664
17930,-24.262,4.1129
17941,-25.846,6.8156
17953,-25.396,6.1514
17965,-23.742,4.3208
17977,-22.507,3.1691
17988,-21.93,3.423
18000,-24.077,2.2417
18012,-23.546,3.8332
18023,-22.44,4.1824
18035,-23.171,2.2269
18047,-23.876,3.8102
18059,-21.15,4.5649
18070,-23.535,4.3912
18082,-23.119,5.372
18094,-23.299,5.0302
18105,-22.304,3.0167
18117,-21.725,0.64857
18129,-21.103,0.60481
18141,-21.528,0.80354
18152,-23.914,-0.38212
18164,-25.466,0.44749
18176,-23.703,-2.2294
18188,-21.313,-0.49339
18199,-21.727,1.0771
18211,-25.351,3.712
18223,-25.515,4.5648
18234,-23.928,5.5695
18246,-22.088,4.419
18258,-22.47,0.79416
18270,-24.148,2.684
18281,-22.259,1.6185
18293,-22.439,-1.0563
18305,-21.03,-0.3699
18316,-21.293,0.50727
18328,-23.615,4.1887
18340,-25.168,5.1481
18352,-23.473,4.0065
18363,-24.549,3.7693
18375,-24.315,3.4811
18387,-22.204,4.3503
18398,-23.256,2.7029
18410,-24.883,3.013
18422,-24.302,2.4292
18434,-23.169,3.8072
18445,-26.535,5.9688
18457,-23.565,2.0482
18469,-24.15,3.066
18480,-24.443,2.974
18492,-25.141,3.3883
18504,-23.028,0.75955
18516,-23.627,2.0652
18527,-21.674,1.2325
18539,-22.443,2.494
18551,-24.597,4.691
18563,-23.258,3.5386
18574,-23.303,2.4672
18586,-25.171,4.166
18598,-26.234,3.3346
18609,-26.567,3.5159
18621,-22.385,1.7213
18633,-22.965,4.2413
18645,-23.979,5.1592
18656,-22.267,2.0397
18668,-22.52,0.97726
18680,-22.965,2.1381
18691,-24.765,2.3336
18703,-23.01,2.0537
18715,-23.148,1.2471
18727,-19.738,0.17973
18738,-19.474,1.6574
18750,-21.266,3.9221
18762,-21.898,1.6411
18773,-22.692,0.81099
18785,-24.932,3.7899
18797,-24.26,4.9248
18809,-23.968,1.1534
18820,-22.951,1.6004
18832,-20.859,2.8236
18844,-21.548,1.2227
18855,-25.545,2.2821
18867,-22.775,3.7114
18879,-23.391,0.34815
18891,-23.56,1.9506
18902,-23.494,3.7219
18914,-19.795,5.0355
18926,-23.26,2.8688
18938,-21.557,1.4111
18949,-21.779,1.5267
18961,-23.263,3.2624
18973,-22.875,3.4334
18984,-21.316,2.8553
18996,-24.989,3.3213
19008,-29.35,-0.26898
19020,-24.809,-0.46528
19031,-24.964,1.3222
19043,-26.084,1.9171
19055,-23.405,2.8433
19066,-23.115,3.2684
19078,-24.633,0.70664
19090,-27.028,0.86495
19102,-24.594,2.1921
19113,-23.784,2.9216
19125,-24.619,3.5971
19137,-23.9,3.1105
19148,-21.858,0.62163
19160,-20.715,1.9415
19172,-26.133,3.1417
19184,-22.583,1.3702
19195,-23.775,1.5375
19207,-26.027,3.8947
19219,-25.538,1.4206
19230,-24.4,-0.18681
19242,-25.039,2.9006
19254,-21.331,2.6902
19266,-24.349,-0.004346
19277,-22.141,-0.3086
19289,-23.025,1.1731
19301,-26.385,1.4289
19313,-24.868,2.5439
19324,-22.648,2.9587
19336,-22.643,3.4706
19348,-22.956,3.1842
19359,-23.871,0.067109
19371,-26.514,-0.33325
19383,-23.037,-0.011524
19395,-23.726,1.9933
19406,-25.369,2.2461
19418,-22.646,-0.027058
19430,-23.852,0.41528
19441,-25.721,3.0054
19453,-22.717,3.0935
19465,-21.465,2.4241
19477,-21.077,1.6894
19488,-27.093,2.8331
19500,-21.67,1.5072
19512,-19.985,0.81937
19523,-25.049,2.4886
19535,-25.574,1.726
19547,-21.277,1.9366
19559,-22.271,3.1868
19570,-25.564,3.7175
19582,-23.735,3.954
19594,-22.878,2.8269
19605,-27.975,1.9641
19617,-29.207,3.3505
19629,-25.244,-0.97777
19641,-21.304,-1.8737
19652,-21.742,0.8391
19664,-22.554,2.2139
19676,-23.979,1.068
19688,-28.157,-1.1339
19699,-26.8,3.0292
19711,-22.083,2.0791
19723,-23.628,2.1395
19734,-23.469,2.7185
19746,-22.17,2.405
19758,-21.888,3.6136
19770,-22.238,3.0813
19781,-23.019,1.9106
19793,-23.818,0.77447
19805,-28.172,-0.96782
19816,-28.598,-1.1008
19828,-28.257,-2.3876
19840,-26.984,0.4884
19852,-25.493,0.18595
19863,-21.28,1.5611
19875,-22.476,2.6666
19887,-24.473,-0.017931
19898,-23.46,1.1972
19910,-21.77,3.0553
19922,-25.507,4.6328
19934,-25.775,3.1197
19945,-25.64,2.1332
19957,-27.82,1.8391
19969,-26.373,2.2333
19980,-23.696,2.1498
19992,-20.556,1.8379
20004,-20.614,1.644
20016,-26.364,0.17875
20027,-25.537,-0.30791
20039,-25.913,1.5676
20051,-24.237,-0.091417
20063,-23.839,0.55282
20074,-23.643,3.1228
20086,-25.719,4.1062
20098,-23.614,1.5452
20109,-22.31,-1.7943
20121,-23.225,-1.0839
20133,-23.334,-1.0467
20145,-26.918,2.407
20156,-26.907,3.5166
20168,-25.677,-0.65797
20180,-26.996,2.6825
20191,-24.855,2.9679
20203,-25.424,0.69742
20215,-26.144,-1.5909
20227,-25.558,-0.80799
20238,-23.82,1.6297
20250,-25.897,1.3292
20262,-26.144,0.053122
20273,-27.057,1.4944
20285,-25.647,1.5288
20297,-24.786,1.0232
20309,-24.886,-2.1588
20320,-25.064,0.68709
20332,-23.786,1.5515
20344,-25.686,2.1299
20355,-28.61,3.0215
20367,-25.912,0.36924
20379,-24.902,-0.3682
20391,-25.377,-0.40558
20402,-26.568,0.47334
20414,-29.694,1.3603
20426,-25.889,1.914
20438,-22.518,2.7406
20449,-22.139,1.3832
20461,-25.03,2.8892
20473,-26.308,2.2347
20484,-25.113,2.7044
20496,-24.614,-0.28107
20508,-23.627,1.7719
20520,-22.66,2.2765
20531,-25.434,1.3918
20543,-26.836,2.3367
20555,-26.586,1.8028
20566,-25.681,-1.3574
20578,-23.009,0.78858
20590,-21.865,1.4464
20602,-24.333,-0.52149
20613,-24.373,-0.84262
20625,-25.987,-0.43937
20637,-26.298,-3.3583
20648,-24.671,-3.7318
20660,-24.228,-2.6609
20672,-24.441,0.039104
20684,-23.892,-0.18361
20695,-25.893,-2.1395
20707,-25.529,-1.23
20719,-23.313,0.14096
20730,-21.908,2.7303
20742,-23.79,2.1635
20754,-24.969,1.6445
20766,-24.335,0.40734
20777,-24.531,0.062737
20789,-24.866,-2.8652
20801,-24.132,-2.1176
20813,-27.054,1.0287
20824,-26.939,-0.43458
20836,-26.655,-1.6329
20848,-24.65,0.96179
20859,-24.456,3.2709
20871,-23.082,2.9126
20883,-23.043,0.6466
20895,-24.99,0.29902
20906,-26.739,-3.3805
20918,-29.71,-1.4166
20930,-27.903,-0.073738
20941,-26.679,0.62117
20953,-27.801,0.47058
20965,-28.289,0.40634
20977,-24.725,-0.80469
20988,-24.608,-0.89223
21000,-25.81,-2.3187
21012,-25.446,-0.18076
21023,-25.338,1.0979
21035,-29.64,1.6333
21047,-25.92,1.5384
21059,-24.028,-0.38984
21070,-28.292,-2.2838
21082,-28.974,-1.08
21094,-25.611,-0.11128
21105,-27.084,-2.415
21117,-25.958,-2.1172
21129,-24.714,0.1472
21141,-28.732,-0.18041
21152,-26.873,0.16764
21164,-29.505,-0.60275
21176,-26.919,-3.5782
21188,-24.294,-2.0653
21199,-25.798,1.0887
21211,-24.607,-0.40686
21223,-22.999,-0.66168
21234,-24.106,0.7161
21246,-27.978,2.3951
21258,-26.881,3.3718
21270,-25.11,2.258
21281,-27.489,1.5721
21293,-25.483,1.1711
21305,-24.077,-1.1739
21316,-24.792,-1.2421
21328,-28.831,-0.62724
21340,-26.499,0.10837
21352,-24.964,-0.054677
21363,-26.165,0.306
21375,-24.449,-0.03325
21387,-23.201,0.048922
21398,-26.418,-2.1058
21410,-26.45,-1.861
21422,-26.325,-1.5192
21434,-26.162,-4.0338
21445,-25.793,-3.2559
21457,-25.515,-2.0574
21469,-24.436,-0.61034
21480,-26.307,-2.4194
21492,-26.027,0.14519
21504,-25.491,-0.81348
21516,-24.213,-3.3182
21527,-25.068,-1.9019
21539,-27.138,-0.77947
21551,-25.751,-0.8978
21563,-23.413,1.4696
21574,-22.264,0.078484
21586,-24.467,0.074067
21598,-25.685,-1.8633
21609,-27.693,-0.46641
21621,-27.344,1.4855
21633,-25.167,-0.39206
21645,-27.698,-4.3262
21656,-25.458,-1.0941
21668,-23.454,-0.31585
21680,-26.356,-0.84301
21691,-28.7,-0.28223
21703,-28.667,-1.1335
21715,-25.517,-1.8023
21727,-24.553,-1.7015
21738,-26.201,-0.59648
21750,-25.089,-1.5266
21762,-27.583,0.5754
21773,-26.329,0.80788
21785,-24.858,-1.1665
21797,-24.215,-1.7963
21809,-22.674,0.55467
21820,-23.784,-0.165
21832,-25.52,-1.8585
21844,-26.894,-2.6942
21855,-25.633,-2.3531
21867,-23.769,-0.71136
21879,-26.973,-0.34706
21891,-30.125,-2.6269
21902,-27.1,-1.3684
21914,-28.499,0.11024
21926,-27.882,1.9413
21938,-25.894,2.5252
21949,-25.419,1.5719
21961,-26.37,-0.22423
21973,-23.422,-2.1187
21984,-25.632,-2.8254
21996,-26.571,-3.1478
22008,-27.652,-3.6613
22020,-27.191,-0.33905
22031,-28.672,1.611
22043,-27.015,-0.70613
22055,-24.423,-0.53942
22066,-23.992,1.0455
22078,-25.028,-0.13923
22090,-25.461,-1.4092
22102,-34.095,-0.88521
22113,-26.682,-0.95026
22125,-26.887,-3.4247
22137,-29.4,-0.8757
22148,-28.32,2.7759
22160,-28.618,-2.0082
22172,-30.142,-4.7592
22184,-27.493,-3.9984
22195,-27.398,-2.9579
22207,-28.462,-2.2673
22219,-25.471,-2.9878
22230,-24.987,-3.796
22242,-26.167,-1.8637
22254,-26.728,0.56164
22266,-27.524,2.0357
22277,-27.566,2.3745
22289,-30.618,0.15889
22301,-30.379,0.58558
22313,-27.008,-0.61049
22324,-30.306,-2.9458
22336,-27.282,-1.613
22348,-26.078,-1.2441
22359,-25.315,-2.9529
22371,-26.192,-0.76869
22383,-26.658,1.6536
22395,-26.98,-0.15895
22406,-24.897,-1.1568
22418,-23.934,-0.3345
22430,-26.529,-2.5262
22441,-24.909,-2.9659
22453,-25.023,-1.9403
22465,-25.486,0.81644
22477,-27.221,0.34803
22488,-28.131,0.31658
22500,-27.908,0.39945
22512,-30.362,0.07867
22523,-30.826,0.98004
22535,-28.668,1.5322
22547,-27.257,1.1052
22559,-27.189,-0.066651
22570,-26.922,-1.9939
22582,-27.152,-3.2262
22594,-27.993,-0.67267
22605,-27.917,0.048532
22617,-27.643,-2.0232
22629,-26.435,-1.2819
22641,-25.423,1.1296
22652,-25.27,1.1398
22664,-27.135,-1.2667
22676,-28.393,-0.42534
22688,-28.14,-1.0542
22699,-27.304,-3.3065
22711,-25.825,1.2653
22723,-24.92,2.2553
22734,-23.119,2.4876
22746,-28.805,1.8513
22758,-27.663,0.034623
22770,-28.533,0.19806
22781,-30.242,1.1755
22793,-29.081,0.14737
22805,-29.636,0.23004
22816,-26.693,-2.0009
22828,-25.461,0.39506
22840,-28.235,1.4024
22852,-27.869,-1.3261
22863,-27.687,-0.75982
22875,-29.017,1.2701
22887,-26.79,-0.26918
22898,-26.97,-2.2615
22910,-30.193,-1.117
22922,-26.961,-0.94705
22934,-28.255,-3.3535
22945,-27.296,-1.5174
22957,-26.01,-0.64395
22969,-28.06,-0.53764
22980,-27.904,-1.0331
22992,-28.63,-2.7273
23004,-25.535,-1.0768
23016,-24.323,0.98905
23027,-27.46,-0.55025
23039,-29.983,-0.90531
23051,-28.767,-1.8217
23063,-29.621,-4.2149
23074,-31.072,-1.4905
23086,-28.761,-2.4479
23098,-28.774,-3.6752
23109,-28.161,-3.0486
23121,-27.387,-0.98067
23133,-26.213,-0.86596
23145,-24.946,-1.9046
23156,-26.855,-3.4733
23168,-28.394,-5.1793
23180,-27.508,-4.9241
23191,-26.504,-3.3866
23203,-24.912,-2.8652
23215,-24.905,-1.6808
23227,-25.393,0.020754
23238,-25.221,-0.39135
23250,-23.505,-3.4064
23262,-23.946,-2.7183
23273,-24.923,-3.4179
23285,-26.444,-2.8673
23297,-26.401,-3.0103
23309,-28.67,-3.4856
23320,-25.58,-2.3005
23332,-27.108,-5.2986
23344,-29.712,-3.6627
23355,-26.527,-4.1221
23367,-28.496,-2.4269
23379,-29.384,-0.075789
23391,-28.724,-2.5526
23402,-30.637,-4.0499
23414,-29.279,-2.4603
23426,-25.75,-1.7804
23438,-27.775,-1.0291
23449,-30.471,-2.3269
23461,-28.628,-3.3621
23473,-27.867,0.077671
23484,-26.714,-0.13561
23496,-26.845,-2.0375
23508,-26.78,-2.8455
23520,-26.851,-1.103
23531,-29.812,-1.1953
23543,-28.872,-3.7476
23555,-30.89,-1.6036
23566,-28.881,0.50098
23578,-29.283,0.079461
23590,-31.645,-3.4294
23602,-28.825,-0.40337
23613,-26.251,-1.6446
23625,-27.262,-2.2995
23637,-30.435,-1.8468
23648,-31.05,0.41089
23660,-27.188,0.099591
23672,-25.896,-1.4525
23684,-28.584,-2.746
23695,-28.778,-1.9737
23707,-28.124,-1.0219
23719,-28.119,-0.4569
23730,-27.692,-1.2934
23742,-26.401,-3.5917
23754,-25.008,-2.1356
23766,-23.869,-0.94987
23777,-25.608,-0.65553
23789,-26.71,-3.4192
23801,-29.377,-1.9073
23813,-30.575,-2.2096
23824,-30.544,-3.8816
23836,-27.656,-5.2339
23848,-27.67,-3.9602
23859,-30.828,-2.0744
23871,-28.587,-3.2402
23883,-28.522,-2.9071
23895,-32.293,-0.7146
23906,-31.688,-2.1912
23918,-28.81,-4.1801
23930,-26.576,-2.322
23941,-23.944,-1.5659
23953,-26.857,-2.7645
23965,-30.591,-3.1284
23977,-30.613,-2.3938
23988,-26.643,-1.0885
