FFT,Power Spectrum
Frequency[Hz],Level-L[dB],Level-R[dB]
11.719,-19.892,-21.181
23.438,0.15848,-2.0965
35.156,0.63619,5.673
46.875,1.8584,12.857
58.594,3.43,16.78
70.313,5.0029,18.24
82.031,3.8556,18.746
93.75,11.321,19.447
105.47,12.089,21.066
117.19,8.8702,22.683
128.91,11.563,22.662
140.63,12.997,21.55
152.34,8.5305,19.486
164.06,3.4854,21.908
175.78,7.0886,21.386
187.5,10.008,22.649
199.22,10.972,22.549
210.94,7.76,24.794
222.66,5.0412,25.939
234.38,6.802,23.873
246.09,6.7544,24.067
257.81,5.9005,26.776
269.53,5.8858,26.201
281.25,8.4541,22.93
292.97,9.2445,23.968
304.69,9.4468,25.488
316.41,6.9771,25.093
328.13,6.6683,25.772
339.84,6.8561,26.088
351.56,5.5381,25.225
363.28,4.0061,20.886
375,4.5164,23.483
386.72,7.6365,26.363
398.44,5.7467,24.334
410.16,6.9677,23.092
421.88,7.7375,24.766
433.59,8.0074,26.405
445.31,4.6064,27.973
457.03,6.0414,27.656
468.75,4.9269,28.743
480.47,4.2057,26.662
492.19,3.6589,25.89
503.91,2.5709,26.36
515.63,5.6737,27.917
527.34,4.7537,28.566
539.06,7.4809,30.08
550.78,8.2879,29.047
562.5,8.4184,28.649
574.22,1.6131,29.951
585.94,3.4325,29.966
597.66,5.7111,27.307
609.38,5.5511,27.074
621.09,7.0534,27.714
632.81,6.2793,27.888
644.53,5.9295,28.89
656.25,9.2871,28.852
667.97,9.8586,27.646
679.69,8.0566,25.685
691.41,7.2333,25.159
703.13,8.6817,25.236
714.84,5.6351,25.594
726.56,2.2419,28.132
738.28,0.98223,29.392
750,4.4357,28.745
761.72,4.9876,27.636
773.44,5.0808,28.92
785.16,6.6154,29.799
796.88,8.2193,29.961
808.59,8.1655,30.221
820.31,6.7734,31.495
832.03,5.538,28.456
843.75,2.1339,29.473
855.47,3.3396,29.4
867.19,5.0598,29.254
878.91,4.9922,29.327
890.63,4.924,30.712
902.34,5.9534,28.052
914.06,3.966,25.22
925.78,3.3364,25.903
937.5,4.4457,26.665
949.22,5.2963,28.157
960.94,6.6195,27.465
972.66,3.9975,27.458
984.38,7.8797,27.312
996.09,8.8297,25.891
1007.8,5.7999,25.711
1019.5,3.6293,27.106
1031.3,6.1197,28.154
1043,4.2964,27.709
1054.7,5.4129,26.633
1066.4,4.093,26.298
1078.1,5.5128,26.295
1089.8,6.2855,27.472
1101.6,6.8814,28.573
1113.3,9.8143,28.43
1125,11.479,28.886
1136.7,7.6496,28.288
1148.4,4.912,25.02
1160.2,7.7166,27.845
1171.9,5.4282,26.124
1183.6,2.68,29.135
1195.3,1.1594,29.987
1207,6.5238,29.094
1218.8,7.9557,29.004
1230.5,5.3668,27.995
1242.2,3.7513,27.826
1253.9,3.6243,30.27
1265.6,3.918,29.659
1277.3,5.1861,28.546
1289.1,4.8764,29.613
1300.8,3.3962,30.431
1312.5,3.1197,29.645
1324.2,3.0761,29.233
1335.9,4.7541,29.7
1347.7,6.8804,29.002
1359.4,7.1274,28.417
1371.1,6.1292,28.342
1382.8,4.0599,28.138
1394.5,5.1662,27.509
1406.3,8.373,25.498
1418,6.929,26.045
1429.7,10.044,28.796
1441.4,11.392,27.306
1453.1,7.9073,23.438
1464.8,5.7343,24.081
1476.6,8.5452,23.933
1488.3,9.3288,23.697
1500,12.018,27.903
1511.7,11.056,27.884
1523.4,10.391,26.437
1535.2,9.7993,26.732
1546.9,9.0608,23.428
1558.6,6.9533,24.897
1570.3,8.7319,27.478
1582,8.5378,25.253
1593.8,5.3892,21.518
1605.5,6.3279,25.155
1617.2,7.5881,23.265
1628.9,7.8906,22.135
1640.6,7.494,25.534
1652.3,4.7264,26.932
1664.1,2.6216,26.08
1675.8,7.4373,25.056
1687.5,7.8336,27.147
1699.2,8.4405,26.705
1710.9,10.961,25.747
1722.7,7.3184,25.162
1734.4,5.4814,26.927
1746.1,5.8494,24.907
1757.8,3.1113,22.137
1769.5,4.245,25.44
1781.3,9.3639,26.829
1793,11.176,25.598
1804.7,18.175,24.983
1816.4,27.447,26.812
1828.1,46.002,34.468
1839.8,57.341,44.818
1851.6,55.71,43.439
1863.3,38.619,29.787
1875,22.879,24.822
1886.7,15.327,23.643
1898.4,11.018,21.951
1910.2,11.546,21.996
1921.9,4.1264,24.256
1933.6,3.3388,23.821
1945.3,2.1953,24.197
1957,3.4349,24.248
1968.8,4.3473,26.792
1980.5,4.2086,27.469
1992.2,1.2261,28.317
2003.9,0.19933,28.078
2015.6,3.562,26.985
2027.3,4.1745,27.164
2039.1,2.4921,26.852
2050.8,3.6954,24.368
2062.5,3.0673,23.625
2074.2,1.1291,23.774
2085.9,4.8844,24.072
2097.7,6.4578,25.022
2109.4,8.1132,25.702
2121.1,8.6067,24.766
2132.8,7.83,21.777
2144.5,8.5795,22.602
2156.3,9.4046,26.331
2168,9.188,27.547
2179.7,9.2346,26.019
2191.4,10.314,24.854
2203.1,10.951,23.648
2214.8,8.4636,23.873
2226.6,4.1519,24.981
2238.3,4.4227,24.701
2250,5.4816,24.309
2261.7,5.1138,23.808
2273.4,1.9517,24.844
2285.2,3.5178,25.877
2296.9,4.011,24.026
2308.6,5.5496,26.5
2320.3,2.6656,26.779
2332,1.0432,28.116
2343.8,-0.60392,27.281
2355.5,-0.3943,25.887
2367.2,1.7643,25.524
2378.9,3.8014,24.419
2390.6,3.876,26.219
2402.3,3.823,25.954
2414.1,-0.2652,25.457
2425.8,-2.1102,28.216
2437.5,2.2275,27.839
2449.2,1.731,28.096
2460.9,1.5008,27.545
2472.7,1.2572,25.635
2484.4,3.17,24.413
2496.1,1.261,25.088
2507.8,0.22087,23.598
2519.5,-0.11783,22.809
2531.3,0.39061,24.223
2543,1.3562,24.992
2554.7,-1.1793,25.098
2566.4,-2.7531,25.017
2578.1,0.59061,21.914
2589.8,4.2069,25.974
2601.6,2.616,25.122
2613.3,-0.11825,23.571
2625,-0.98651,24.922
2636.7,0.15399,24.282
2648.4,0.11469,24.553
2660.2,1.3992,24.731
2671.9,2.0478,23.85
2683.6,0.45675,26.552
2695.3,-0.62914,25.92
2707,0.04845,23.143
2718.8,-1.0118,20.41
2730.5,-0.76079,20.027
2742.2,0.48095,23.535
2753.9,0.74403,25.141
2765.6,-5.2568,25.065
2777.3,-1.2479,25.182
2789.1,-0.40787,24.718
2800.8,-0.42001,23.284
2812.5,-1.3799,23.896
2824.2,-2.2078,23.451
2835.9,-1.2723,20.766
2847.7,-0.3428,21.071
2859.4,1.9301,22.035
2871.1,2.488,23.452
2882.8,2.2392,24.378
2894.5,2.194,26.681
2906.3,1.6678,28.076
2918,-0.50238,26.869
2929.7,1.6835,25.371
2941.4,2.7629,23.899
2953.1,0.56163,21.192
2964.8,0.42506,19.529
2976.6,-0.43325,20.247
2988.3,0.9812,21.741
3000,2.7815,22.426
3011.7,1.7309,22.854
3023.4,-0.70224,22.997
3035.2,-0.23866,23.861
3046.9,-0.32029,25.713
3058.6,-0.02923,25.182
3070.3,-5.7146,22.78
3082,1.0664,20.974
3093.8,-2.4589,23.333
3105.5,-0.25185,23.695
3117.2,-0.38131,21.489
3128.9,-1.4127,22.121
3140.6,-0.91783,24.31
3152.3,-0.6809,23.701
3164.1,-0.34182,23.506
3175.8,0.28663,23.63
3187.5,1.0681,23.672
3199.2,-1.0829,22.195
3210.9,1.9509,22.854
3222.7,3.3588,21.191
3234.4,2.7605,20.593
3246.1,2.9921,23.957
3257.8,2.3268,25.199
3269.5,0.41067,24.602
3281.3,-1.0634,24.445
3293,-0.47616,23.754
3304.7,0.71361,22.349
3316.4,-1.286,21.49
3328.1,-0.30238,23.329
3339.8,-1.1835,23.951
3351.6,-1.3177,25.883
3363.3,-1.3783,26.613
3375,-0.78436,24.518
3386.7,-1.9283,20.509
3398.4,0.14768,19.122
3410.2,2.6878,19.994
3421.9,2.5048,23.039
3433.6,1.5921,23.475
3445.3,2.1782,25.53
3457,1.2476,24.572
3468.8,1.5464,23.931
3480.5,2.4576,22.799
3492.2,1.5159,20.868
3503.9,0.10174,21.013
3515.6,2.452,21.705
3527.3,2.3194,21.911
3539.1,1.4803,20.066
3550.8,0.91439,19.192
3562.5,1.9011,18.322
3574.2,1.2705,22.565
3585.9,-0.34979,25.401
3597.7,-0.77885,24.2
3609.4,-2.2393,24.4
3621.1,-0.52177,23.357
3632.8,1.4084,21.292
3644.5,3.1218,21.24
3656.3,1.1142,22.566
3668,-0.41281,22.99
3679.7,-0.4843,21.561
3691.4,0.074793,22.498
3703.1,-1.8915,23.662
3714.8,-1.8797,23.199
3726.6,0.75207,22.864
3738.3,-3.0901,22.731
3750,2.1439,22.821
3761.7,2.1536,23.304
3773.4,-0.26824,24.07
3785.2,-0.53856,22.659
3796.9,1.0651,22.381
3808.6,-0.37845,24.454
3820.3,-1.255,22.349
3832,-2.035,19.808
3843.8,-0.35792,21.03
3855.5,0.80952,21.752
3867.2,0.30352,22.164
3878.9,0.071526,21.322
3890.6,0.98197,19.794
3902.3,-0.52262,19.521
3914.1,-0.45253,18.266
3925.8,-0.55074,20.002
3937.5,-2.1341,22.565
3949.2,0.47095,23.545
3960.9,-0.45494,23.568
3972.7,-2.2228,24.276
3984.4,-1.9177,25.504
3996.1,-1.6775,25.56
4007.8,-4.4876,23.437
4019.5,-4.006,25.398
4031.3,-1.8443,25.014
4043,-2.2228,21.27
4054.7,-4.4644,22.083
4066.4,-4.0432,22.11
4078.1,-2.5725,21.235
4089.8,-2.3921,20.288
4101.6,-4.1189,23.341
4113.3,-4.7388,20.541
4125,-4.2982,20.253
4136.7,-3.3616,20.958
4148.4,-4.462,23.025
4160.2,-4.51,22.634
4171.9,-4.7668,21.929
4183.6,-1.4809,21.771
4195.3,-0.29782,22.17
4207,-1.8556,19.248
4218.8,-2.2631,18.249
4230.5,-4.7369,18.76
4242.2,-1.1703,22.524
4253.9,-1.7347,23.933
4265.6,-5.253,22.972
4277.3,-2.6431,23.892
4289.1,-1.2246,23.014
4300.8,-1.1501,22.498
4312.5,-4.1426,22.802
4324.2,-5.7436,21.771
4335.9,-5.5332,20.748
4347.7,-3.5534,17.053
4359.4,-2.2725,19.427
4371.1,-2.4635,19.126
4382.8,-4.333,21.708
4394.5,-2.5715,22.84
4406.3,0.86581,22.066
4418,-1.2293,20.694
4429.7,-2.4375,19.709
4441.4,-2.0402,20.109
4453.1,-1.7236,20.617
4464.8,-2.3236,21.428
4476.6,-1.3803,20.216
4488.3,-4.3305,17.312
4500,-5.4436,20.166
4511.7,-3.0819,20.754
4523.4,-5.1933,22.26
4535.2,-3.0215,22.566
4546.9,-4.7101,22.329
4558.6,-4.4761,24.204
4570.3,-4.9259,24.807
4582,-0.97522,23.988
4593.8,0.51967,23.14
4605.5,-0.97982,21.545
4617.2,-1.562,20.73
4628.9,-5.1474,21.77
4640.6,-2.7284,20.351
4652.3,-3.5774,17.608
4664.1,-1.7804,18.564
4675.8,-1.6586,19.943
4687.5,-2.6192,21.27
4699.2,-3.8744,22.562
4710.9,-2.8067,21.439
4722.7,-0.61256,19.755
4734.4,-1.4687,20.432
4746.1,-1.6562,22.008
4757.8,-2.9308,21.481
4769.5,-3.7171,21.638
4781.3,-6.5884,21.58
4793,-7.0744,18.214
4804.7,-2.7974,16.89
4816.4,-3.7444,16.873
4828.1,-4.3789,18.218
4839.8,-3.1122,21.259
4851.6,-4.3863,21.33
4863.3,-2.7193,18.795
4875,-1.9371,21.786
4886.7,-4.2402,23.25
4898.4,-1.8887,24.172
4910.2,-2.7039,23.291
4921.9,-3.7967,22.279
4933.6,-3.1524,21.294
4945.3,-3.8898,19.928
4957,-6.3317,21.298
4968.8,-4.3113,22.438
4980.5,-3.3896,21.867
4992.2,-0.36031,21.048
5003.9,-1.7688,19.608
5015.6,-5.0716,17.867
5027.3,-7.3332,19.519
5039.1,-8.8641,21.241
5050.8,-4.9449,20.093
5062.5,-5.5119,18.767
5074.2,-2.2366,19.462
5085.9,1.4824,16.307
5097.7,-3.5086,18.937
5109.4,-6.0661,21.746
5121.1,-2.566,22.81
5132.8,-2.7035,21.572
5144.5,-2.2842,21.802
5156.3,-5.7788,20.582
5168,-6.7577,18.973
5179.7,-3.3546,21.122
5191.4,-2.9236,19.174
5203.1,-4.9406,16.838
5214.8,-4.3942,17.466
5226.6,-3.1563,19.193
5238.3,-2.9539,19.24
5250,-2.6783,18.55
5261.7,-4.7855,22.223
5273.4,-6.4093,21.93
5285.2,-3.3641,20.616
5296.9,-4.4279,20.908
5308.6,-4.4684,19.378
5320.3,-2.7129,20.349
5332,-0.724,20
5343.8,-3.1525,18.366
5355.5,-3.7041,17.379
5367.2,-5.1649,18.359
5378.9,-7.1144,20.739
5390.6,-6.4658,20.397
5402.3,-5.2219,20.756
5414.1,-5.7998,18.748
5425.8,-2.8466,19.168
5437.5,-2.7573,21.657
5449.2,-1.3676,20.859
5460.9,-4.2101,16.321
5472.7,-4.7148,20.659
5484.4,-4.4586,22.624
5496.1,-5.708,21.37
5507.8,-7.5604,19.905
5519.5,0.78274,19.541
5531.3,7.0755,18.914
5543,2.3323,20.641
5554.7,-4.6122,21.695
5566.4,-2.1501,21.026
5578.1,-2.6537,22.622
5589.8,-3.1633,23.684
5601.6,-1.2632,23.187
5613.3,-2.8479,22.728
5625,-4.2793,20.188
5636.7,-4.6801,19.795
5648.4,-2.407,20.758
5660.2,-4.5781,21.285
5671.9,-5.2472,18.021
5683.6,-4.8756,16.739
5695.3,-4.0726,18.444
5707,-4.3479,18.719
5718.8,-3.3098,19.367
5730.5,-3.6448,18.569
5742.2,-6.2395,20.675
5753.9,-7.3388,21.326
5765.6,-6.2594,20.142
5777.3,-6.8835,20.566
5789.1,-6.6865,21.225
5800.8,-6.0895,20.141
5812.5,-6.317,18.643
5824.2,-5.2504,17.728
5835.9,-4.4088,17.688
5847.7,-1.8891,13.99
5859.4,-3.7929,15.779
5871.1,-2.9624,17.984
5882.8,-3.0074,18.396
5894.5,-3.6591,19.398
5906.3,-3.1058,18.664
5918,-2.7592,19.772
5929.7,-3.4766,19.288
5941.4,-4.1723,19.419
5953.1,-3.0922,18.271
5964.8,-4.6966,17.88
5976.6,-5.3787,18.576
5988.3,-5.7903,17.433
6000,-8.6701,16.899
6011.7,-5.7731,15.949
6023.4,-7.1836,18.216
6035.2,-6.0905,20.815
6046.9,-7.0457,19.417
6058.6,-5.5139,16.483
6070.3,-5.589,17.823
6082,-2.1484,19.294
6093.8,-3.4298,19.898
6105.5,-2.8264,18.55
6117.2,-3.2952,15.068
6128.9,-3.7308,16.117
6140.6,-6.5363,16.108
6152.3,-6.5077,16.838
6164.1,-5.7296,17.406
6175.8,-4.0728,17.465
6187.5,-3.6989,18.121
6199.2,-4.6664,18.319
6210.9,-3.7512,17.941
6222.7,-7.1462,16.295
6234.4,-8.5759,17.241
6246.1,-7.4613,19.43
6257.8,-7.0582,19.764
6269.5,-7.1919,16.9
6281.3,-7.771,17.599
6293,-7.6301,17.32
6304.7,-5.5699,19.519
6316.4,-5.4257,19.389
6328.1,-6.7951,17.738
6339.8,-8.5606,18.814
6351.6,-6.9948,19.639
6363.3,-5.0731,17.809
6375,-5.1311,19.531
6386.7,-8.0188,20.244
6398.4,-8.6126,19.578
6410.2,-3.2627,17.651
6421.9,-3.8155,14.631
6433.6,-5.456,17.793
6445.3,-6.2751,20.063
6457,-6.3937,21.757
6468.8,-7.8348,20.49
6480.5,-7.2968,20.734
6492.2,-7.4492,21.425
6503.9,-7.3929,20.3
6515.6,-5.0982,18.478
6527.3,-3.6063,16.823
6539.1,-3.544,15.504
6550.8,-1.9083,14.538
6562.5,-3.2249,15.659
6574.2,-8.0251,16.268
6585.9,-5.7838,16.558
6597.7,-5.3819,16.815
6609.4,-4.6733,15.658
6621.1,-4.5265,17.052
6632.8,-6.2864,18.324
6644.5,-5.7473,18.675
6656.3,-8.702,18.604
6668,-5.7905,19.057
6679.7,-5.2746,18.983
6691.4,-7.1798,17.369
6703.1,-8.8526,17.889
6714.8,-7.4799,17.162
6726.6,-6.1415,17.255
6738.3,-6.9802,15.505
6750,-6.0024,15.173
6761.7,-4.1744,16.247
6773.4,-5.522,18.353
6785.2,-7.9309,18.278
6796.9,-6.0218,17.819
6808.6,-4.1848,18.696
6820.3,-5.1932,17.941
6832,-6.0236,19.324
6843.8,-3.3898,18.845
6855.5,-4.8824,18.272
6867.2,-6.8763,17.824
6878.9,-5.4989,16.96
6890.6,-5.0023,15.211
6902.3,-6.2337,14.366
6914.1,-5.4876,15.41
6925.8,-7.5598,15.405
6937.5,-7.5038,16.294
6949.2,-5.9102,16.76
6960.9,-8.5961,15.946
6972.7,-4.2749,17.495
6984.4,-5.5257,18.181
6996.1,-6.2716,19.377
7007.8,-6.8716,17.316
7019.5,-8.6614,18.124
7031.3,-10.273,19.417
7043,-9.3448,19.789
7054.7,-9.0458,21.191
7066.4,-8.092,20.387
7078.1,-6.795,18.539
7089.8,-4.3534,17.889
7101.6,-4.0362,15.44
7113.3,-5.3047,16.404
7125,-5.4647,18.873
7136.7,-6.3323,16.495
7148.4,-8.0183,14.474
7160.2,-7.637,16.383
7171.9,-6.6208,15.622
7183.6,-6.1057,13.724
7195.3,-8.5754,15.825
7207,-7.5522,16.625
7218.8,-7.7017,14.425
7230.5,-8.2991,13.759
7242.2,-7.2374,13.612
7253.9,-6.6041,15.246
7265.6,-6.2667,18.387
7277.3,-7.0219,18.971
7289.1,-7.9352,21.206
7300.8,-5.6286,20.54
7312.5,-4.9345,17.026
7324.2,-7.4229,19.443
7335.9,-4.9172,18.026
7347.7,-6.3844,16.999
7359.4,-9.422,18.849
7371.1,-7.5493,15.272
7382.8,-5.4491,14.143
7394.5,-7.0363,15.468
7406.3,-6.3806,16.225
7418,-7.0532,17.425
7429.7,-8.286,18.129
7441.4,-10.949,18.791
7453.1,-8.908,16.876
7464.8,-6.4712,13.861
7476.6,-9.5444,16.461
7488.3,-10.179,18.496
7500,-10.251,19.345
7511.7,-11.947,17.09
7523.4,-10.825,16.139
7535.2,-8.3645,16.178
7546.9,-6.8965,15.4
7558.6,-5.1849,15.988
7570.3,-5.6228,15.294
7582,-9.2278,15.874
7593.8,-5.9029,14.921
7605.5,-9.3798,17.068
7617.2,-7.8061,18.314
7628.9,-11.288,17.444
7640.6,-9.2231,18.8
7652.3,-8.3471,18.505
7664.1,-12.174,15.397
7675.8,-8.6167,16.889
7687.5,-7.4937,19.494
7699.2,-9.4983,19.181
7710.9,-8.517,18.843
7722.7,-7.3967,18.857
7734.4,-7.084,19.176
7746.1,-7.9471,18.638
7757.8,-6.47,17.154
7769.5,-8.5772,16.306
7781.3,-7.0778,17.553
7793,-7.3179,15.182
7804.7,-11.417,13.236
7816.4,-10.016,15.98
7828.1,-7.26,12.315
7839.8,-7.847,12.73
7851.6,-9.9549,13.929
7863.3,-8.4555,15.874
7875,-8.6306,17.16
7886.7,-8.4552,20.015
7898.4,-6.7312,19.513
7910.2,-6.9993,17.769
7921.9,-7.2828,17.594
7933.6,-6.844,17.356
7945.3,-9.1842,17.726
7957,-8.7226,17.749
7968.8,-8.3014,17.419
7980.5,-7.9012,18.001
7992.2,-8.2981,16.301
8003.9,-8.4236,15.782
8015.6,-7.5317,15.934
8027.3,-9.7723,17.871
8039.1,-11.478,17.365
8050.8,-8.7522,17.256
8062.5,-9.4254,18.019
8074.2,-11.504,17.692
8085.9,-8.4323,16.756
8097.7,-7.8515,16.005
8109.4,-9.0422,15.979
8121.1,-8.4618,14.297
8132.8,-8.3356,14.005
8144.5,-7.6963,15.521
8156.3,-7.0636,17.952
8168,-7.1747,18.872
8179.7,-10.215,17.386
8191.4,-10.688,15.066
8203.1,-8.726,12.945
8214.8,-10.662,15.541
8226.6,-11.221,18.715
8238.3,-8.4781,17.28
8250,-9.0763,15.449
8261.7,-8.4649,14.948
8273.4,-9.1442,17.112
8285.2,-10.182,17.036
8296.9,-7.3888,16.482
8308.6,-7.9696,14.262
8320.3,-9.4519,16.957
8332,-8.4194,19.997
8343.8,-9.2547,19.128
8355.5,-10.453,16.183
8367.2,-10.946,15.622
8378.9,-10.578,15.354
8390.6,-8.3066,16.306
8402.3,-9.2497,14.854
8414.1,-12.192,14.891
8425.8,-9.3999,16.154
8437.5,-7.9062,15.444
8449.2,-8.0982,15.375
8460.9,-13.133,16.438
8472.7,-10.594,16.194
8484.4,-10.397,14.614
8496.1,-9.014,14.886
8507.8,-8.582,15.555
8519.5,-8.8761,15.222
8531.3,-9.1684,14.06
8543,-8.7884,13.71
8554.7,-10.744,13.125
8566.4,-9.9661,11.988
8578.1,-10.309,11.797
8589.8,-10.578,13.798
8601.6,-8.394,17.055
8613.3,-9.2203,16.828
8625,-8.8493,15.416
8636.7,-9.4579,14.581
8648.4,-8.4937,14.042
8660.2,-7.2039,14.324
8671.9,-9.3112,15.783
8683.6,-8.9521,15.41
8695.3,-8.0806,14.066
8707,-8.8216,13.257
8718.8,-9.7713,14.664
8730.5,-10.906,14.691
8742.2,-9.0861,13.564
8753.9,-9.9588,13.571
8765.6,-9.9203,13.48
8777.3,-11.59,12.449
8789.1,-10.469,13.939
8800.8,-11.661,14.46
8812.5,-12.332,14.375
8824.2,-9.9869,16.077
8835.9,-8.2606,13.818
8847.7,-9.7268,11.219
8859.4,-12.483,13.845
8871.1,-9.8847,11.897
8882.8,-11.167,13.98
8894.5,-11.85,14.682
8906.3,-8.4163,14.266
8918,-9.7326,14.415
8929.7,-15.386,14.97
8941.4,-12.191,15.084
8953.1,-9.2976,14.923
8964.8,-9.6639,11.631
8976.6,-9.5611,13.708
8988.3,-12.063,12.695
9000,-13.913,12.376
9011.7,-10.762,15.91
9023.4,-10.54,18.332
9035.2,-9.6407,18.101
9046.9,-10.638,18.183
9058.6,-9.4807,17.87
9070.3,-10.126,16.459
9082,-13.578,17.492
9093.8,-11.724,17.221
9105.5,-10.915,17.366
9117.2,-11.478,13.87
9128.9,-11.278,13.31
9140.6,-13.368,13.356
9152.3,-11.704,11.288
9164.1,-10.701,13.033
9175.8,-10.295,14.817
9187.5,-12.11,15.859
9199.2,-11.166,16.051
9210.9,-7.0857,15.272
9222.7,-4.6396,16.94
9234.4,-7.6575,17.095
9246.1,-9.0823,15.734
9257.8,-11.195,16.168
9269.5,-11.683,15.816
9281.3,-12.124,16.001
9293,-9.9268,15.593
9304.7,-8.7492,15.524
9316.4,-7.109,16.342
9328.1,-6.4995,14.24
9339.8,-7.6738,11.191
9351.6,-12.028,13.814
9363.3,-10.164,12.703
9375,-7.826,14.014
9386.7,-11.634,14.553
9398.4,-14.293,16.365
9410.2,-12.611,14.238
9421.9,-10.019,14.547
9433.6,-8.5388,15.168
9445.3,-8.3774,12.006
9457,-6.5622,13.908
9468.8,-5.9819,13.31
9480.5,-9.1711,11.151
9492.2,-11.781,11.057
9503.9,-11.433,10.9
9515.6,-11.491,16.378
9527.3,-9.1353,14.353
9539.1,-10.686,17.308
9550.8,-11.254,18.049
9562.5,-8.8147,14.853
9574.2,-9.9608,14.431
9585.9,-11.152,15.799
9597.7,-8.5294,12.18
9609.4,-9.9279,14.258
9621.1,-8.9994,14.13
9632.8,-7.8088,10.833
9644.5,-9.3141,13.466
9656.3,-11.171,12.005
9668,-9.263,13.451
9679.7,-8.1775,16.77
9691.4,-6.682,16.294
9703.1,-8.9921,14.674
9714.8,-10.208,13.029
9726.6,-8.5162,15.5
9738.3,-7.7833,16.626
9750,-9.2705,14.87
9761.7,-11.268,15.937
9773.4,-10.059,14.816
9785.2,-11.14,13.06
9796.9,-10.445,12.098
9808.6,-10.888,12.79
9820.3,-12.131,12.389
9832,-10.694,15.456
9843.8,-11.592,14.299
9855.5,-11.6,11.488
9867.2,-12.099,15.157
9878.9,-12.382,14.066
9890.6,-10.379,12.867
9902.3,-9.6433,13.825
9914.1,-10.088,11.825
9925.8,-11.191,12.741
9937.5,-9.5854,12.161
9949.2,-9.1385,14.75
9960.9,-9.6683,15.347
9972.7,-11.569,10.474
9984.4,-10.127,10.981
9996.1,-9.8241,11.373
10008,-11.664,12.328
10020,-13.407,13.685
10031,-9.9466,14.195
10043,-11.155,13.327
10055,-9.3552,14.162
10066,-11.813,11.113
10078,-9.5157,11.675
10090,-9.4552,10.253
10102,-10.337,10.677
10113,-9.5877,10.362
10125,-10.487,9.3705
10137,-12.402,11.686
10148,-14.971,12.819
10160,-13.327,13.902
10172,-13.741,12.263
10184,-14.969,11.659
10195,-15.31,10.879
10207,-12.718,12.907
10219,-9.9267,12.501
10230,-11.384,10.46
10242,-14.651,14.117
10254,-12.74,14.554
10266,-13.99,10.966
10277,-11.773,15.428
10289,-12.311,17.209
10301,-7.4279,16.585
10313,-10.601,15.11
10324,-11.96,15.124
10336,-13.677,15.335
10348,-15.161,13.481
10359,-10.835,13.196
10371,-8.7491,13.921
10383,-11.432,11.464
10395,-14.431,13.485
10406,-11.488,14.489
10418,-9.2431,13.806
10430,-8.8089,11.908
10441,-12.493,9.7806
10453,-11.985,12.76
10465,-10.997,13.354
10477,-10.835,13.78
10488,-10.554,14.651
10500,-13.181,15.47
10512,-11.502,14.324
10523,-9.5239,15.416
10535,-12.002,14.234
10547,-13.174,13.791
10559,-9.4098,13.973
10570,-10.08,14.138
10582,-12.632,14.315
10594,-11.18,14.109
10605,-11.077,12.073
10617,-11.214,13.682
10629,-9.1517,11.106
10641,-10.59,11.684
10652,-12.153,13.85
10664,-13.129,14.332
10676,-13.469,14.785
10688,-13.53,14.444
10699,-16.115,10.751
10711,-12.314,13.539
10723,-12.124,14.845
10734,-12.064,12.329
10746,-11.614,14.734
10758,-12.326,14.995
10770,-13.899,14
10781,-13.683,15.443
10793,-11.737,14.629
10805,-10.624,11.834
10816,-14.362,11.293
10828,-14.883,11.689
10840,-13.749,12.973
10852,-15.562,12.226
10863,-11.669,12.059
10875,-12.494,10.543
10887,-12.562,10.517
10898,-10.206,11.077
10910,-11.875,15.18
10922,-13.636,14.245
10934,-15.371,14.036
10945,-14.459,12.983
10957,-12.678,13.758
10969,-13.418,16.543
10980,-13.684,16.906
10992,-11.376,15.611
11004,-11.484,13.674
11016,-12.145,14.275
11027,-11.558,13.38
11039,-11.443,14.217
11051,-11.455,13.236
11063,-12.618,13.556
11074,-12.138,14.563
11086,-9.8894,13.933
11098,-11.728,13.399
11109,-12.382,12.453
11121,-14.933,10.81
11133,-14.58,10.299
11145,-11.745,10.686
11156,-11.074,12.956
11168,-12.407,13.864
11180,-13.852,13.46
11191,-13.608,12.403
11203,-10.884,10.76
11215,-10.488,8.9257
11227,-10.029,11.982
11238,-11.47,11.632
11250,-12.228,12.975
11262,-9.2859,11.155
11273,-10.39,11.174
11285,-13.97,13.011
11297,-11.397,13.462
11309,-9.6627,11.738
11320,-11.063,11.475
11332,-14.829,11.477
11344,-13.575,10.353
11355,-10.542,11.646
11367,-8.6056,12.725
11379,-7.616,12.597
11391,-9.8066,13.304
11402,-14.821,14.606
11414,-12.254,14.735
11426,-11.698,14.244
11438,-13.239,14.998
11449,-13.803,12.613
11461,-15.512,10.955
11473,-15.18,12.408
11484,-13.572,12.476
11496,-13.957,11.795
11508,-10.857,10.509
11520,-11.247,11.46
11531,-13.116,12.929
11543,-14.203,12.473
11555,-12.793,12.693
11566,-15.494,10.889
11578,-11.842,10.539
11590,-11.565,10.8
11602,-11.109,10.329
11613,-11.369,10.752
11625,-16.083,11.827
11637,-15.018,13.644
11648,-12.562,12.742
11660,-12.249,13.312
11672,-10.809,12.75
11684,-10.914,13.226
11695,-12.254,14.061
11707,-13.396,13.404
11719,-13.672,11.967
11730,-9.7761,9.4194
11742,-11.81,9.5412
11754,-13.651,8.0527
11766,-14.289,10.173
11777,-13.277,12.319
11789,-14.115,13.591
11801,-12.969,11.868
11813,-11.628,8.9465
11824,-13.719,11.651
11836,-14.269,13.14
11848,-14.444,11.033
11859,-11.752,9.7384
11871,-9.2919,10.291
11883,-9.3234,9.2353
11895,-13.182,10.946
11906,-15.563,12.365
11918,-16.195,13.301
11930,-14.659,12.848
11941,-14.688,12.828
11953,-15.296,10.38
11965,-13.808,8.8149
11977,-10.468,12.19
11988,-9.8247,12.436
12000,-11.1,11.561
12012,-10.891,12.889
12023,-12.056,11.991
12035,-13.015,12.913
12047,-13.344,12.455
12059,-13.758,13.416
12070,-13.066,12.62
12082,-14.022,10.727
12094,-11.048,11.364
12105,-11.868,12.837
12117,-12.942,9.3957
12129,-14.147,8.1979
12141,-12.552,8.8919
12152,-12.515,7.2955
12164,-12.066,7.7193
12176,-11.075,12.725
12188,-12.392,12.143
12199,-14.615,14.85
12211,-16.83,13.479
12223,-12.741,11.09
12234,-11.858,8.6624
12246,-12.242,10.148
12258,-13.817,10.301
12270,-14.508,12.504
12281,-13.935,11.513
12293,-11.58,9.1269
12305,-10.455,11.74
12316,-13.615,8.1058
12328,-15.741,9.7128
12340,-14.075,10.78
12352,-13.028,8.4062
12363,-12.735,6.7245
12375,-13.283,8.5723
12387,-11.9,9.7952
12398,-13.145,11.587
12410,-14.698,11.088
12422,-11.582,9.301
12434,-11.745,9.7926
12445,-15.635,12.112
12457,-14.098,12.135
12469,-12.176,12.413
12480,-15.394,10.465
12492,-11.163,11.923
12504,-12.347,11.533
12516,-14.459,9.954
12527,-15.621,8.7802
12539,-14.082,11.603
12551,-13.305,10.982
12563,-11.731,9.949
12574,-12.134,10.675
12586,-12.556,9.2037
12598,-14.34,11.163
12609,-18.012,10.016
12621,-14.505,10.647
12633,-12.963,12.434
12645,-13.683,10.855
12656,-11.592,7.9596
12668,-11.127,8.8491
12680,-10.826,9.7268
12691,-13.671,10.955
12703,-13.026,10.087
12715,-11.885,10.807
12727,-12.633,11.357
12738,-14.387,10.926
12750,-15.229,8.9165
12762,-13.348,9.941
12773,-16.895,9.0822
12785,-14.913,10.246
12797,-12.139,10.44
12809,-13.774,9.3635
12820,-13.707,9.471
12832,-12.084,10.176
12844,-12.063,11.37
12855,-14.321,9.5298
12867,-15.459,8.7476
12879,-15.985,7.0893
12891,-14.723,8.8008
12902,-10.99,9.8818
12914,-10.926,8.3892
12926,-13.852,7.8678
12938,-14.103,10.615
12949,-14.265,9.3374
12961,-15.563,8.6994
12973,-16.508,10.128
12984,-15.423,10.408
12996,-12.938,10.563
13008,-14.95,8.2011
13020,-15.761,8.1626
13031,-14.064,9.7709
13043,-11.02,8.4669
13055,-11.015,7.273
13066,-12.824,10.693
13078,-17.619,12.545
13090,-12.841,11.844
13102,-13.471,11.076
13113,-17.644,9.9902
13125,-16.141,7.4557
13137,-12.258,5.2079
13148,-8.946,6.1763
13160,-10.574,8.4426
13172,-12.644,10.149
13184,-11.788,11.386
13195,-11.607,10.192
13207,-15.533,9.263
13219,-13.291,9.8775
13230,-14.041,9.7095
13242,-11.412,9.2893
13254,-11.658,8.4616
13266,-13.439,9.2162
13277,-12.253,10.502
13289,-11.996,7.93
13301,-12.107,10.04
13313,-13.644,10.707
13324,-14.316,11.446
13336,-12.18,11.87
13348,-12.626,10.328
13359,-15.731,10.225
13371,-13.659,10.273
13383,-11.48,11.205
13395,-12.857,8.4623
13406,-12.375,7.0739
13418,-12.291,8.7752
13430,-12.942,8.8995
13441,-12.386,7.6792
13453,-14.018,9.174
13465,-14.371,8.311
13477,-15.851,10.589
13488,-14.129,8.3402
13500,-12.154,11.721
13512,-13.631,10.86
13523,-17.756,10.886
13535,-17.557,9.5864
13547,-15.563,11.027
13559,-15.152,8.672
13570,-15.311,8.3322
13582,-13.943,10.043
13594,-12.616,6.9931
13605,-11.486,7.9631
13617,-13.856,8.1176
13629,-14.303,6.7014
13641,-13.379,5.9439
13652,-16.033,9.2205
13664,-16.161,10.494
13676,-13.626,10.973
13688,-13.309,10.614
13699,-14.043,7.8965
13711,-14.622,10.409
13723,-15.593,9.3588
13734,-11.738,9.6214
13746,-10.819,10.489
13758,-16.269,8.6989
13770,-17.519,9.9392
13781,-16.454,8.5652
13793,-15.785,8.8316
13805,-16.495,5.8639
13816,-18.52,5.8126
13828,-14.045,6.489
13840,-14.152,9.047
13852,-16.578,6.8152
13863,-15.786,9.6236
13875,-14.432,7.9291
13887,-16.97,3.4363
13898,-14.737,7.3912
13910,-15.033,9.5927
13922,-13.975,9.9873
13934,-11.526,10.098
13945,-15.803,10.241
13957,-16.754,11.17
13969,-16.803,9.3335
13980,-14.893,9.2445
13992,-13.045,9.3413
14004,-14.947,10.985
14016,-16.508,9.3822
14027,-13.48,6.1867
14039,-12.244,7.3387
14051,-13.474,9.3118
14063,-17.107,10.06
14074,-14.691,10.596
14086,-14.844,7.8803
14098,-13.6,6.1727
14109,-16.057,8.5898
14121,-15.969,10.235
14133,-16.192,11.76
14145,-15.273,10.158
14156,-14.282,8.2084
14168,-12.727,7.959
14180,-12.737,7.641
14191,-14.246,8.092
14203,-15.038,7.9254
14215,-15.769,7.857
14227,-15.311,7.3617
14238,-13.821,6.2461
14250,-14.029,7.8752
14262,-12.475,9.1238
14273,-13.601,9.2251
14285,-14.5,9.6368
14297,-13.79,7.6424
14309,-13.308,9.0889
14320,-12.239,8.6166
14332,-15.081,9.5551
14344,-15.425,7.0015
14355,-14.259,7.8723
14367,-14.658,8.9794
14379,-18.225,8.6697
14391,-17.4,9.9672
14402,-16.157,6.858
14414,-17.125,8.352
14426,-18.944,8.9827
14438,-15.901,8.2881
14449,-13.126,8.9564
14461,-13.975,10.667
14473,-15.101,7.7106
14484,-21.187,7.0993
14496,-18.079,8.1769
14508,-18.396,7.7278
14520,-15.785,7.8282
14531,-17.131,9.9479
14543,-18.633,9.7873
14555,-13.13,12.198
14566,-12.987,11.75
14578,-15.393,7.2891
14590,-15.363,8.4102
14602,-15.91,7.8762
14613,-19.743,8.4594
14625,-17.821,7.2475
14637,-17.21,6.928
14648,-17.378,8.6683
14660,-17.349,10.243
14672,-16.882,9.4105
14684,-16.346,8.5158
14695,-18.788,8.906
14707,-16.901,8.9674
14719,-15.312,9.6234
14730,-15.907,8.5452
14742,-17.889,7.893
14754,-17.233,8.262
14766,-15.945,8.8123
14777,-17.766,8.0833
14789,-18.272,7.1347
14801,-15.921,7.0883
14813,-18.773,8.2897
14824,-19.763,9.3587
14836,-17.359,9.9352
14848,-16.757,8.7187
14859,-16.902,8.0602
14871,-19.392,5.7937
14883,-17.897,8.214
14895,-17.03,8.4379
14906,-17.091,7.8357
14918,-16.341,9.2924
14930,-18.819,11.584
14941,-14.708,10.341
14953,-13.443,5.5044
14965,-15.337,4.7781
14977,-17.189,6.3722
14988,-19.599,7.3922
15000,-17.021,4.325
15012,-15.108,7.4771
15023,-17.159,9.2424
15035,-18.299,8.6011
15047,-17.189,6.9404
15059,-17.582,6.5783
15070,-17.22,8.8943
15082,-17.35,8.8882
15094,-18.817,9.0665
15105,-15.328,7.4218
15117,-11.439,7.5593
15129,-13.539,6.0649
15141,-16.618,7.5019
15152,-18.308,10.137
15164,-18.051,9.139
15176,-21.287,10.425
15188,-17.277,10.345
15199,-17.81,9.1695
15211,-16.908,6.7494
15223,-17.64,8.7082
15234,-18.549,7.4231
15246,-17.278,6.7155
15258,-19.39,8.5466
15270,-18.715,7.1833
15281,-18.418,7.2217
15293,-14.918,6.5204
15305,-18.063,5.6884
15316,-19.156,5.8832
15328,-16.519,6.4834
15340,-16.132,8.5529
15352,-18.506,7.9185
15363,-19.942,8.0287
15375,-18.489,6.9121
15387,-20.688,6.9932
15398,-20.461,7.2422
15410,-20.292,7.6646
15422,-20.619,3.1456
15434,-19.469,5.552
15445,-18.514,7.3835
15457,-18.989,8.7232
15469,-17.789,7.7839
15480,-15.518,8.4035
15492,-18.808,10.217
15504,-18.759,8.6154
15516,-19.095,7.0154
15527,-20.242,6.9759
15539,-16.8,8.009
15551,-19.554,8.7746
15563,-19.025,6.9404
15574,-17.766,5.5651
15586,-18.285,8.654
15598,-14.738,9.3858
15609,-15.621,8.7001
15621,-16.354,7.2557
15633,-16.309,8.0904
15645,-17.902,5.5731
15656,-16.607,9.4786
15668,-17.962,8.8299
15680,-19.171,7.755
15691,-15.89,5.13
15703,-17.713,5.3985
15715,-16.301,4.994
15727,-19.59,7.7733
15738,-19.397,9.8058
15750,-16.821,6.7083
15762,-20.301,3.2847
15773,-18.903,8.3738
15785,-19.125,7.8435
15797,-20.199,4.0954
15809,-20.305,3.835
15820,-18.666,4.7932
15832,-19.372,5.5659
15844,-20.067,6.8556
15855,-17.847,7.0064
15867,-18.278,7.6556
15879,-16.767,3.5394
15891,-17.872,6.7556
15902,-19.273,8.109
15914,-19.949,6.7704
15926,-21.195,3.0623
15938,-17.246,5.5623
15949,-15.333,5.5134
15961,-16.938,4.5284
15973,-19.549,2.7487
15984,-19.162,3.1009
15996,-15.676,3.4779
16008,-18.678,7.0437
16020,-20.482,6.2114
16031,-21.272,6.8396
16043,-18.317,6.4385
16055,-17,8.681
16066,-19.142,7.7579
16078,-19.344,7.2647
16090,-20.698,9.911
16102,-19.707,9.6154
16113,-20.264,8.5107
16125,-18.862,7.3528
16137,-18.259,6.4349
16148,-20.799,4.8931
16160,-20.604,6.6839
16172,-18.775,7.1816
16184,-19.169,3.5654
16195,-19.341,3.1908
16207,-22.245,4.2343
16219,-23.992,3.4966
16230,-20.477,6.3154
16242,-18.656,6.1505
16254,-17.761,2.0795
16266,-19.331,6.3016
16277,-17.934,4.9733
16289,-19.722,6.4331
16301,-21.335,7.6104
16313,-20.623,4.0906
16324,-19.197,6.1738
16336,-19.941,6.0086
16348,-20.29,6.267
16359,-20.633,6.8515
16371,-19.795,5.1968
16383,-18.647,2.5241
16395,-19.007,4.4105
16406,-19.741,2.0825
16418,-18.687,8.084
16430,-19.665,9.0381
16441,-19.543,6.9683
16453,-19.132,7.921
16465,-18.211,6.5057
16477,-20.395,5.6583
16488,-22.757,4.9414
16500,-21.626,6.3126
16512,-19.326,4.6461
16523,-21.595,2.7075
16535,-20.251,6.843
16547,-19.555,3.8009
16559,-20.162,7.1856
16570,-21.358,7.1856
16582,-21.75,5.5272
16594,-18.12,5.1947
16605,-19.285,2.5491
16617,-21.335,5.6208
16629,-20.911,7.3092
16641,-20.739,7.0832
16652,-20.112,6.506
16664,-20.402,4.8615
16676,-18.97,4.5582
16688,-19.84,8.5607
16699,-19.2,7.0092
16711,-24.483,4.6456
16723,-24.184,8.2978
16734,-22.15,6.5075
16746,-19.639,5.5628
16758,-21.266,5.4808
16770,-20.564,7.7522
16781,-19.514,7.1009
16793,-19.919,6.5987
16805,-17.552,6.7952
16816,-17.702,7.6238
16828,-24.6,7.4021
16840,-22.673,6.499
16852,-20.645,5.7259
16863,-19.883,5.6533
16875,-21.156,4.5766
16887,-21.959,4.5777
16898,-23.238,4.5734
16910,-22.347,3.0337
16922,-22.383,3.1271
16934,-22.265,3.8174
16945,-22.965,4.4836
16957,-19.783,5.0532
16969,-19.038,5.8721
16980,-19.833,4.5243
16992,-22.165,4.3509
17004,-21.676,2.3808
17016,-20.698,3.4414
17027,-20.98,4.2693
17039,-21.619,4.1819
17051,-23.466,1.9526
17063,-24.271,4.7321
17074,-23.5,5.8051
17086,-23.109,6.2979
17098,-20.804,6.3576
17109,-20.989,3.3317
17121,-19.632,6.0044
17133,-20.284,6.2155
17145,-21.174,4.0629
17156,-23.549,3.2083
17168,-21.727,5.1437
17180,-23.241,5.9487
17191,-21.711,6.3877
17203,-21.569,6.494
17215,-22.588,5.3224
17227,-20.459,4.3013
17238,-22.58,7.1958
17250,-22.859,7.2629
17262,-21,6.0704
17273,-21.844,5.7841
17285,-23.601,7.1717
17297,-23.44,6.1056
17309,-21.99,4.6292
17320,-23.756,4.2988
17332,-19.729,4.809
17344,-20.901,5.4454
17355,-23.43,6.1367
17367,-22.22,7.8059
17379,-19.393,7.3652
17391,-21.38,4.2298
17402,-20.067,3.7345
17414,-21.755,5.3364
17426,-22.264,5.0826
17438,-24.206,6.8248
17449,-26.199,6.9229
17461,-23.671,5.6091
17473,-21.204,3.9467
17484,-22.914,5.7241
17496,-24.276,3.6141
17508,-24.441,6.1966
17520,-20.843,5.5037
17531,-20.593,4.8876
17543,-22.045,5.8231
17555,-24.158,2.4381
17566,-24.346,5.346
17578,-20.695,4.6709
17590,-22.731,6.8669
17602,-21.461,6.6944
17613,-22.028,7.9486
17625,-23.386,6.234
17637,-25.945,4.5069
17648,-26.549,4.2098
17660,-22.659,2.4212
17672,-22.317,5.3395
17684,-22.617,4.8926
17695,-23.522,5.6319
17707,-20.893,6.5944
17719,-21.544,5.4207
17730,-22.045,5.6331
17742,-19.445,5.5701
17754,-17.735,3.7309
17766,-20.28,3.2693
17777,-23.81,2.9237
17789,-19.681,2.6455
17801,-19.419,3.8387
17813,-24.168,3.029
17824,-24.819,0.68167
17836,-21.796,2.1279
17848,-22.943,6.6257
17859,-23.738,3.5889
17871,-25.269,5.4204
17883,-23.48,5.802
17895,-24.947,5.0211
17906,-21.451,3.8617
17918,-21.064,2.2592
17930,-21.722,1.7926
17941,-23.634,3.4752
17953,-21.714,5.5783
17965,-22.108,6.4448
17977,-23.395,4.2103
17988,-18.8,4.8837
18000,-18.237,7.4808
18012,-19.214,4.9572
18023,-22.934,3.7601
18035,-21.188,3.7381
18047,-21.702,5.9975
18059,-21.087,7.7567
18070,-23.179,7.6862
18082,-22.76,6.4866
18094,-20.873,1.7884
18105,-21.902,4.7484
18117,-21.928,4.3275
18129,-21.089,4.9791
18141,-20.974,2.7691
18152,-20.998,3.4054
18164,-22.593,3.9228
18176,-24.63,3.6829
18188,-23.861,6.7742
18199,-21.453,4.8805
18211,-20.264,3.8453
18223,-20.628,4.8261
18234,-22.254,3.8346
18246,-23.509,1.1304
18258,-22.412,2.208
18270,-21.664,1.8811
18281,-20.764,1.7093
18293,-22.954,5.2454
18305,-21.799,5.9557
18316,-24.897,4.366
18328,-23.736,5.6698
18340,-22.429,5.5895
18352,-23.542,6.5603
18363,-21.508,3.8644
18375,-20.63,4.3384
18387,-22.918,0.45207
18398,-22.017,5.0339
18410,-22.269,6.1342
18422,-21.744,4.0414
18434,-23.637,3.9755
18445,-22.751,3.1177
18457,-24.65,5.3438
18469,-24.951,5.5103
18480,-22.93,3.8618
18492,-24.405,3.9939
18504,-24.341,3.5977
18516,-22.228,3.1645
18527,-21.694,3.1059
18539,-23.786,3.1684
18551,-22.638,2.7791
18563,-21.62,5.793
18574,-21.604,6.0456
18586,-21.49,6.1191
18598,-20.776,4.065
18609,-22.302,2.5773
18621,-21.434,4.1519
18633,-21.224,4.1051
18645,-21.77,3.787
18656,-24.229,2.6486
18668,-25.885,5.0745
18680,-25.369,5.5667
18691,-24.55,3.6075
18703,-21.352,3.0246
18715,-21.812,4.8305
18727,-24.767,4.3888
18738,-22.849,4.3781
18750,-25.061,3.8171
18762,-25.21,2.3683
18773,-23.167,4.0958
18785,-23.368,5.4356
18797,-25.347,3.847
18809,-26.717,3.0968
18820,-24.456,4.9184
18832,-24.004,4.5795
18844,-25.585,1.9522
18855,-23.266,3.265
18867,-22.636,4.9715
18879,-23.224,5.0161
18891,-22.564,5.2799
18902,-22.119,4.9571
18914,-20.191,2.3042
18926,-21.677,3.7672
18938,-25.108,4.2505
18949,-23.777,4.1815
18961,-21.979,3.0136
18973,-22.408,-0.41204
18984,-20.049,2.4592
18996,-19.096,5.5665
19008,-23.617,5.9409
19020,-24.901,3.1788
19031,-23.008,2.6824
19043,-21.07,3.9067
19055,-20.334,2.9743
19066,-20.235,-1.0021
19078,-23.661,1.2798
19090,-26.067,2.685
19102,-24.428,2.6579
19113,-26.034,5.6726
19125,-24.705,6.2462
19137,-20.669,5.0001
19148,-20.094,3.7827
19160,-23.746,1.3764
19172,-23.746,1.0903
19184,-22.041,2.7759
19195,-25.617,1.9663
19207,-25.618,4.4598
19219,-25.649,5.1161
19230,-24.329,2.7916
19242,-24.94,1.4618
19254,-23.767,0.12985
19266,-20.727,3.7288
19277,-23.279,5.6264
19289,-23.672,5.3005
19301,-26.101,4.0772
19313,-24.009,2.4194
19324,-25.464,0.16815
19336,-24.883,2.0323
19348,-25.262,3.9834
19359,-23.135,4.8731
19371,-24.382,3.8193
19383,-25.21,1.7642
19395,-24.306,2.8748
19406,-23.962,4.3245
19418,-24.707,4.0476
19430,-24.044,2.7799
19441,-23.108,2.1898
19453,-23.033,0.66319
19465,-23.616,1.504
19477,-25.633,1.863
19488,-27.36,2.6989
19500,-26.068,2.7244
19512,-23.485,0.39698
19523,-23.651,2.5592
19535,-25.431,2.0195
19547,-26.731,3.6193
19559,-24.054,3.4021
19570,-26.291,4.1906
19582,-25.847,2.8488
19594,-24.428,2.6303
19605,-24.46,2.0128
19617,-24.314,2.2354
19629,-27.272,2.3666
19641,-26.531,3.7375
19652,-26.983,5.425
19664,-26.452,4.8832
19676,-25.998,6.0288
19688,-26.499,5.7646
19699,-25.493,2.3533
19711,-24.569,0.87904
19723,-21.618,4.5199
19734,-24.008,5.1471
19746,-27.29,2.4356
19758,-23.966,2.2772
19770,-22.281,4.4009
19781,-27.249,4.1992
19793,-23.782,3.3825
19805,-23.605,2.019
19816,-25.133,0.66518
19828,-20.99,3.2291
19840,-22.048,2.128
19852,-27.185,2.9557
19863,-28.009,3.2537
19875,-24.678,3.5431
19887,-23.961,0.23777
19898,-26.791,-0.22
19910,-27.083,2.3537
19922,-25.356,4.1836
19934,-25.718,5.3554
19945,-27.334,4.8272
19957,-25.541,2.9677
19969,-26.637,1.636
19980,-23.473,2.2673
19992,-22.999,4.8458
20004,-23.071,4.1879
20016,-25.021,0.95108
20027,-22.733,2.0987
20039,-23.316,0.85675
20051,-25.148,0.24029
20063,-24.958,0.58688
20074,-23.291,4.0298
20086,-23.859,2.3709
20098,-25.602,3.3697
20109,-27.236,5.2274
20121,-27.282,2.8825
20133,-25.28,2.9447
20145,-23.365,2.076
20156,-22.873,4.1765
20168,-25.863,3.0277
20180,-25.707,0.03534
20191,-23.847,3.6396
20203,-23.644,2.5216
20215,-24.186,3.4885
20227,-27.015,4.0594
20238,-24.639,4.606
20250,-25.515,5.0611
20262,-26.09,3.8987
20273,-25.982,2.0328
20285,-23.302,1.8202
20297,-23.719,2.2507
20309,-25.899,4.453
20320,-27.129,4.5844
20332,-27.893,-0.70891
20344,-25.638,2.6292
20355,-26.688,4.1601
20367,-24.886,2.9531
20379,-22.317,0.83193
20391,-24.304,2.1344
20402,-26.66,2.5291
20414,-26.822,3.3049
20426,-25.978,2.2319
20438,-30.026,5.9916
20449,-26.838,5.9403
20461,-26.905,2.5267
20473,-27.707,1.6679
20484,-24.633,0.6235
20496,-25.044,1.168
20508,-26.635,3.7049
20520,-25.297,2.8101
20531,-23.941,2.9841
20543,-23.68,6.3092
20555,-24.895,4.8919
20566,-24.935,1.1903
20578,-24.832,2.164
20590,-26.274,3.4015
20602,-23.948,3.2924
20613,-24.847,4.2308
20625,-26.761,4.7732
20637,-27.734,2.1312
20648,-29.486,2.119
20660,-27.363,4.8381
20672,-23.76,4.4331
20684,-23.977,1.4773
20695,-24.518,1.2547
20707,-22.538,2.7157
20719,-23.332,1.8824
20730,-26.283,2.8248
20742,-25.01,1.7261
20754,-27.922,0.90157
20766,-26.119,0.055262
20777,-23.696,-1.0074
20789,-23.29,0.57998
20801,-23.228,1.6854
20813,-27.069,2.8072
20824,-25.206,4.5304
20836,-26.992,5.6957
20848,-26.172,4.5684
20859,-26.327,2.5897
20871,-27.853,2.6994
20883,-24.64,1.3793
20895,-22.973,5.1502
20906,-24.777,4.6837
20918,-26.606,2.5071
20930,-28.939,1.3308
20941,-27.735,2.4175
20953,-27.754,2.5283
20965,-29.085,3.4631
20977,-26.12,3.9083
20988,-26.935,2.3386
21000,-26.343,3.0716
21012,-25.107,4.8084
21023,-26.513,5.0182
21035,-26.217,4.5029
21047,-25.491,1.3939
21059,-25.267,0.65268
21070,-25.117,0.26882
21082,-25.964,-0.50675
21094,-26.368,1.8241
21105,-25.657,1.8557
21117,-25.897,0.96969
21129,-24.807,2.3233
21141,-24.645,3.1803
21152,-23.861,4.7401
21164,-25.047,3.6437
21176,-27.546,1.7237
21188,-25.272,3.2908
21199,-23.304,3.312
21211,-25.869,2.9318
21223,-26.808,2.4016
21234,-25.159,1.0819
21246,-24.389,1.2702
21258,-26.042,-1.5365
21270,-26.659,-2.3424
21281,-26.306,2.8018
21293,-26.137,4.1577
21305,-26.049,4.2931
21316,-25.644,2.9689
21328,-25.294,2.3366
21340,-24.556,-1.4132
21352,-22.965,2.7182
21363,-23.097,4.0702
21375,-28.893,2.6225
21387,-27.134,2.8095
21398,-26.408,2.5255
21410,-25.93,2.5096
21422,-24.955,2.9609
21434,-24.857,2.7851
21445,-27.167,3.0786
21457,-27.391,2.9721
21469,-25.687,3.3783
21480,-26.346,0.54946
21492,-26.998,0.23553
21504,-25.9,-0.26068
21516,-27.304,1.2333
21527,-26.247,1.9047
21539,-24.408,1.0052
21551,-26.998,4.2765
21563,-27.521,4.0345
21574,-27.268,4.1441
21586,-29.2,3.8897
21598,-29.571,3.7303
21609,-26.562,2.8462
21621,-26.322,1.2088
21633,-25.662,0.71112
21645,-28.474,2.6367
21656,-29.588,1.3264
21668,-28.203,2.1801
21680,-27.176,1.8523
21691,-25.682,-0.33447
21703,-22.423,0.94439
21715,-23.855,2.0794
21727,-23.382,2.1706
21738,-23.495,2.2103
21750,-25.445,2.455
21762,-27.906,4.3853
21773,-27.887,2.9938
21785,-26.281,1.9082
21797,-24.865,5.4623
21809,-27.164,6.1688
21820,-25.122,3.7849
21832,-25.276,2.4078
21844,-24.338,3.398
21855,-27.006,1.9107
21867,-28.859,0.51826
21879,-28.199,0.38338
21891,-25.512,2.9561
21902,-24.729,3.1861
21914,-25.568,2.2853
21926,-25.587,2.8969
21938,-27.827,0.077113
21949,-29.666,-2.6463
21961,-26.177,0.72242
21973,-26.136,3.9987
21984,-27.736,2.6118
21996,-26.662,1.5149
22008,-26.209,-2.0263
22020,-24.527,-1.4267
22031,-25.47,0.43304
22043,-27.733,1.3091
22055,-26.67,3.186
22066,-27.695,1.8821
22078,-28.07,2.6145
22090,-27.349,0.43592
22102,-31.26,-2.4263
22113,-27.763,1.4649
22125,-25.38,1.4675
22137,-24.984,1.0996
22148,-27.896,1.0012
22160,-30.793,2.096
22172,-29.651,2.5696
22184,-27.462,1.9194
22195,-24.248,1.8042
22207,-25.111,1.5303
22219,-26.479,0.43123
22230,-28.402,0.22112
22242,-28.139,3.0159
22254,-25.261,0.9458
22266,-25.253,1.3356
22277,-26.023,0.17661
22289,-27.788,-1.9253
22301,-26.591,-0.52645
22313,-25.476,1.2725
22324,-25.1,1.0985
22336,-26.558,1.0033
22348,-29.852,2.364
22359,-32.137,2.0758
22371,-31.29,2.1921
22383,-28.169,1.645
22395,-29.07,-0.68329
22406,-30.347,-1.7511
22418,-28.414,-1.0567
22430,-27.223,-0.83766
22441,-27.065,-0.56713
22453,-25.189,1.5215
22465,-27.777,0.79827
22477,-31.584,1.1045
22488,-30.034,2.3391
22500,-26.869,2.6215
22512,-27.711,2.9463
22523,-26.637,2.3314
22535,-26.126,2.9178
22547,-25.156,-0.52187
22559,-24.202,-1.0577
22570,-28.249,1.1132
22582,-28.444,-0.16462
22594,-25.803,-1.2385
22605,-27.357,-0.95427
22617,-25.806,0.70156
22629,-24.754,1.2735
22641,-27.769,2.0854
22652,-26.784,2.49
22664,-24.389,4.2771
22676,-27.151,2.9124
22688,-27.547,0.18514
22699,-25.714,0.19973
22711,-27,1.8224
22723,-30.405,2.7691
22734,-27.076,2.748
22746,-26.329,0.13608
22758,-27.172,-2.4538
22770,-25.563,-3.0575
22781,-25.648,-1.8323
22793,-25.806,0.55303
22805,-25.579,1.0253
22816,-26.898,-0.99307
22828,-28.823,2.069
22840,-27.396,1.2804
22852,-28.139,-1.2366
22863,-28.79,0.14079
22875,-27.25,1.9435
22887,-26.345,0.85833
22898,-28.729,-0.24743
22910,-28.589,0.067111
22922,-24.717,-0.99163
22934,-26.467,2.4504
22945,-26.535,0.33226
22957,-26.387,1.2034
22969,-27.336,-1.0474
22980,-25.214,-0.25276
22992,-23.813,1.3049
23004,-25.435,0.43369
23016,-26.42,-1.9728
23027,-26.818,-1.0636
23039,-28.496,-0.65762
23051,-27.23,-1.0194
23063,-29.352,-1.4302
23074,-30.513,-0.037723
23086,-31.108,1.7604
23098,-28.058,1.843
23109,-27.253,-1.5344
23121,-26.551,-1.2293
23133,-24.986,-0.19588
23145,-26.777,-1.4676
23156,-29.079,0.40279
23168,-29.787,-0.65022
23180,-28.134,0.509
23191,-31.664,4.4146
23203,-30.615,1.8192
23215,-26.911,0.81664
23227,-28.77,-0.64998
23238,-30.26,-3.7509
23250,-28.124,-1.3739
23262,-26.24,-0.32793
23273,-28.863,0.4288
23285,-28.271,0.42662
23297,-27.359,-0.32988
23309,-28.467,-0.70101
23320,-31.709,0.0093489
23332,-29.714,-1.139
23344,-27.874,-2.4587
23355,-27.311,-1.3289
23367,-25.237,-0.095057
23379,-24.455,0.58538
23391,-24.743,-0.092195
23402,-27.021,-0.39143
23414,-25.85,1.7722
23426,-26.196,2.9682
23438,-27.494,0.85166
23449,-29.852,-1.6011
23461,-28.614,-1.7644
23473,-27.023,-1.9173
23484,-26.983,-0.4495
23496,-25.964,-0.092762
23508,-24.836,1.2562
23520,-29.036,1.1415
23531,-30.275,0.58347
23543,-28.992,-0.48749
23555,-27.042,-0.2957
23566,-25.482,0.43422
23578,-26.523,-0.21382
23590,-27.562,-1.6075
23602,-29.09,-0.26191
23613,-27.51,1.002
23625,-26.617,1.9434
23637,-27.804,0.23411
23648,-28.684,-2.7961
23660,-28.463,-2.911
23672,-27.229,-2.4734
23684,-27.37,-0.89931
23695,-27.828,-0.11906
23707,-25.869,-0.70831
23719,-25.921,-0.22263
23730,-28.01,0.76951
23742,-27.683,1.9229
23754,-27.067,1.3678
23766,-23.78,1.0671
23777,-26.509,-0.14601
23789,-29.967,-2.8155
23801,-28.694,-2.3284
23813,-26.867,-0.45037
23824,-25.816,-0.56872
23836,-26.684,-0.16782
23848,-27.687,0.16005
23859,-25.081,0.1123
23871,-24.787,1.9585
23883,-26.645,2.9582
23895,-25.043,0.013243
23906,-27.117,-2.4264
23918,-29.689,-1.8842
23930,-29.451,-1.3113
23941,-30.296,-3.4973
23953,-29.973,-2.4886
23965,-25.624,-2.0392
23977,-30.459,-0.41884
23988,-27.203,-0.82407
