FFT,Power Spectrum
Frequency[Hz],Level-L[dB],Level-R[dB]
11.719,-20.566,-23.513
23.438,-0.50286,-3.4484
35.156,0.36182,1.381
46.875,2.999,4.3543
58.594,3.6899,9.2489
70.313,2.7825,11.773
82.031,8.0136,13.578
93.75,17.159,17.438
105.47,17.596,19.272
117.19,8.9903,15.483
128.91,11.299,14.852
140.63,13.016,17.013
152.34,10.049,18.11
164.06,6.4327,17.51
175.78,4.5324,19.579
187.5,9.5762,21.766
199.22,11.001,21.753
210.94,10.945,21.659
222.66,11.058,22.908
234.38,10.85,22.246
246.09,8.4377,23.764
257.81,7.1137,23.682
269.53,8.7351,20.8
281.25,12.047,17.898
292.97,8.1764,20.489
304.69,6.8915,23.311
316.41,6.4617,22.14
328.13,8.7286,21.832
339.84,7.575,20.724
351.56,4.5289,18.862
363.28,6.0404,18.646
375,6.8801,21.59
386.72,8.1216,20.423
398.44,6.8663,21.432
410.16,8.1589,23.933
421.88,7.5384,21.918
433.59,5.6718,22.69
445.31,7.269,24.013
457.03,7.8385,22.587
468.75,4.4556,22.862
480.47,4.1333,19.88
492.19,3.712,21.776
503.91,5.0613,22.608
515.63,8.3909,21.588
527.34,7.05,20.652
539.06,3.6677,22.204
550.78,6.2806,19.502
562.5,7.8122,21.271
574.22,1.4711,22.414
585.94,4.7608,21.359
597.66,3.6221,23.303
609.38,2.9834,21.709
621.09,3.8448,22.062
632.81,3.4321,24.625
644.53,4.7639,23.554
656.25,5.9444,22.883
667.97,2.1448,24.828
679.69,6.1473,27.059
691.41,4.1005,25.36
703.13,1.0699,20.514
714.84,3.4741,21.74
726.56,4.3632,23.602
738.28,5.1797,22.44
750,6.2394,20.37
761.72,5.1279,22.582
773.44,1.7588,20.968
785.16,2.9395,18.173
796.88,3.5938,20.747
808.59,0.46238,21.676
820.31,0.55758,19.748
832.03,2.5976,19.714
843.75,3.7767,20.667
855.47,2.5839,20.571
867.19,3.3643,18.908
878.91,8.23,21.002
890.63,8.2305,22.461
902.34,7.4016,22.641
914.06,6.1213,22.177
925.78,6.1248,24.008
937.5,5.3691,23.083
949.22,3.8408,23.184
960.94,5.388,23.684
972.66,6.0463,22.622
984.38,7.126,22.063
996.09,6.5319,21.167
1007.8,4.8051,24.607
1019.5,4.0394,25.161
1031.3,2.3487,24.776
1043,2.9281,25.408
1054.7,2.0394,21.036
1066.4,3.887,20.454
1078.1,6.01,20.126
1089.8,7.6444,20.872
1101.6,6.0273,23.049
1113.3,6.6256,23.112
1125,5.7839,22.175
1136.7,6.7231,21.833
1148.4,6.1439,22.187
1160.2,2.6513,23.25
1171.9,4.3325,23.996
1183.6,4.6538,23.578
1195.3,3.0452,21.212
1207,4.0193,18.72
1218.8,4.9025,20.337
1230.5,3.3404,20.865
1242.2,4.4544,21.493
1253.9,4.4757,22.534
1265.6,2.1298,22.503
1277.3,-0.52342,22.611
1289.1,4.2739,21.558
1300.8,4.4358,21.077
1312.5,1.5314,21.129
1324.2,1.9409,20.271
1335.9,4.1493,20.457
1347.7,6.6823,26.048
1359.4,2.8242,23.933
1371.1,1.4672,20.238
1382.8,2.4709,18.383
1394.5,1.3123,20.381
1406.3,3.0679,22.874
1418,2.8681,19.239
1429.7,3.9536,17.71
1441.4,3.6183,18.897
1453.1,3.0273,21.609
1464.8,2.8097,21.862
1476.6,3.0483,21.214
1488.3,3.3257,22.921
1500,3.9635,19.59
1511.7,3.3918,20.627
1523.4,2.1837,21.774
1535.2,1.3013,23.41
1546.9,3.1731,22.627
1558.6,4.1665,21.476
1570.3,3.896,18.21
1582,3.2013,18.183
1593.8,1.5241,19.615
1605.5,1.2137,20.573
1617.2,3.5579,23.793
1628.9,5.3386,24.033
1640.6,3.2243,23.696
1652.3,3.3753,19.269
1664.1,3.4025,21.831
1675.8,2.5145,21.533
1687.5,3.3397,22.62
1699.2,2.7126,18.857
1710.9,5.2797,19.622
1722.7,7.1021,22.371
1734.4,7.2252,22.826
1746.1,9.6251,21.646
1757.8,10.11,21.988
1769.5,5.9419,21.624
1781.3,14.372,16.021
1793,14.863,18.052
1804.7,22.939,19.451
1816.4,33.569,24.024
1828.1,50.374,38.118
1839.8,63.021,50.77
1851.6,62.201,49.992
1863.3,46.885,35.533
1875,29.706,22.854
1886.7,21.714,19.396
1898.4,18.115,22.648
1910.2,9.4774,18.663
1921.9,8.7655,15.952
1933.6,7.4465,17.869
1945.3,7.1264,20.734
1957,6.4123,19.991
1968.8,3.6964,17.21
1980.5,-1.006,22.403
1992.2,-1.0072,20.677
2003.9,-0.1695,16.567
2015.6,1.9773,16.014
2027.3,2.3515,18.957
2039.1,1.1293,20.018
2050.8,2.8407,21.384
2062.5,2.8034,22.073
2074.2,0.43505,18.286
2085.9,1.2432,20.144
2097.7,3.8615,19.095
2109.4,2.8833,15.914
2121.1,2.5139,17.026
2132.8,3.7769,19.083
2144.5,1.6495,19.918
2156.3,1.5858,22.172
2168,4.473,21.815
2179.7,5.1992,17.636
2191.4,3.0936,18.01
2203.1,3.4468,18.785
2214.8,1.8333,20.833
2226.6,-0.52303,22.027
2238.3,1.7475,18.817
2250,0.81286,19.978
2261.7,-0.12193,20.421
2273.4,0.20545,19.886
2285.2,3.566,22.068
2296.9,1.8667,18.978
2308.6,-0.75042,20.607
2320.3,-1.5349,20.792
2332,-2.8386,17.623
2343.8,-0.16983,18.394
2355.5,-0.57388,20.407
2367.2,1.345,20.162
2378.9,1.9694,17.44
2390.6,1.0306,18.933
2402.3,-1.9243,18.247
2414.1,-0.83344,20.983
2425.8,0.49684,22.625
2437.5,-1.2811,23.453
2449.2,-2.6293,20.852
2460.9,1.4614,16.72
2472.7,1.0061,16.613
2484.4,0.4948,18.278
2496.1,-1.8044,19.846
2507.8,-0.83318,20.539
2519.5,1.8454,17.873
2531.3,-1.0614,14.8
2543,-0.51004,19.793
2554.7,0.98914,21.409
2566.4,0.68809,19.651
2578.1,4.1153,18.617
2589.8,4.5508,19.075
2601.6,1.5677,21.603
2613.3,2.2128,19.024
2625,4.2136,18.201
2636.7,0.72848,19.711
2648.4,-0.31243,17.826
2660.2,1.1038,17.535
2671.9,-0.53016,21.204
2683.6,-2.8,20.437
2695.3,-0.89231,18.905
2707,1.6813,20.562
2718.8,2.3451,22.084
2730.5,3.1254,20.332
2742.2,3.0454,19.722
2753.9,0.12498,19.421
2765.6,-3.1077,20.679
2777.3,-3.1319,19.161
2789.1,-0.68947,16.251
2800.8,1.2507,20.2
2812.5,-1.3966,20.119
2824.2,-1.7468,18.041
2835.9,0.46741,17.892
2847.7,2.9967,19.292
2859.4,3.544,20.169
2871.1,2.6269,18.853
2882.8,0.31844,17.871
2894.5,-1.3357,20.257
2906.3,-1.9174,18.155
2918,0.24,16.961
2929.7,0.70519,22.544
2941.4,-2.3756,23.175
2953.1,-1.5796,17.377
2964.8,0.10517,15.608
2976.6,2.8813,14.686
2988.3,-1.5934,16.345
3000,-1.2677,16.054
3011.7,0.041837,14.402
3023.4,-1.1608,14.014
3035.2,-1.9791,15.071
3046.9,-0.00296,18.316
3058.6,-0.24728,16.397
3070.3,-0.93382,17.338
3082,-1.1171,15.688
3093.8,-3.8388,14.406
3105.5,-2.1887,14.857
3117.2,-1.9346,15.51
3128.9,-1.1079,12.251
3140.6,1.6749,17.246
3152.3,-0.29696,18.714
3164.1,-1.4045,16.509
3175.8,-1.6162,15.628
3187.5,-1.9988,19.056
3199.2,-0.52496,19.489
3210.9,-1.6777,18.918
3222.7,-1.0903,15.022
3234.4,-1.5345,12.601
3246.1,-1.052,17.353
3257.8,1.7581,20.482
3269.5,-0.22948,19.76
3281.3,-2.2021,17.047
3293,-3.1268,18.257
3304.7,-3.6766,21.43
3316.4,-1.5023,17.2
3328.1,-1.5146,16.769
3339.8,-3.8778,17.9
3351.6,-1.8998,16.511
3363.3,-1.1542,16.79
3375,-3.3317,21.384
3386.7,-0.012867,22.327
3398.4,-0.38294,21.082
3410.2,-1.4319,15.11
3421.9,0.49154,16.118
3433.6,-1.6628,19.958
3445.3,-2.017,18.523
3457,-0.28585,16.756
3468.8,-1.2469,19.531
3480.5,-0.76521,18.93
3492.2,-1.7568,15.609
3503.9,-1.2658,15.804
3515.6,-1.6634,17.302
3527.3,-1.0053,19.25
3539.1,1.3714,17.431
3550.8,-2.5543,17.98
3562.5,-2.7682,19.606
3574.2,-1.9715,14.952
3585.9,-0.1652,17.898
3597.7,0.086448,15.507
3609.4,0.033112,15.242
3621.1,-0.44862,16.798
3632.8,1.1303,18.564
3644.5,0.67106,16.301
3656.3,1.0988,13.778
3668,0.53854,17.505
3679.7,-1.9917,19.248
3691.4,-3.2009,18.124
3703.1,-0.89098,17.013
3714.8,0.54785,14.158
3726.6,-1.7521,16.12
3738.3,-3.6209,17.441
3750,-3.8354,17.213
3761.7,-3.4106,20.809
3773.4,-2.754,18.842
3785.2,-1.9849,18.116
3796.9,-2.5403,18.724
3808.6,-2.1347,17.592
3820.3,-6.4436,17.615
3832,-3.6773,15.494
3843.8,-1.9186,15.034
3855.5,-1.3898,14.914
3867.2,-3.6102,14.02
3878.9,-3.9466,18.201
3890.6,-3.8589,20.995
3902.3,-6.6981,19.165
3914.1,-4.7388,19.524
3925.8,-1.7461,19.056
3937.5,-2.2029,15.698
3949.2,-2.302,16.095
3960.9,-0.33622,17.029
3972.7,-0.27071,16.033
3984.4,-2.5179,14.832
3996.1,0.52009,15.262
4007.8,-0.69334,14.254
4019.5,-2.1088,20.139
4031.3,-1.7295,20.436
4043,-1.202,18.815
4054.7,0.54394,17.733
4066.4,0.47049,21.322
4078.1,-2.8179,19.401
4089.8,-5.4909,15.182
4101.6,-2.8593,19.209
4113.3,-2.2345,20.022
4125,-1.7581,15.784
4136.7,-2.1927,19.161
4148.4,-2.7297,17.036
4160.2,-5.7561,15.428
4171.9,-3.0779,20.034
4183.6,-1.8293,18.298
4195.3,-2.4829,17.549
4207,-4.1653,19.171
4218.8,-5.0421,18.085
4230.5,-1.6456,17.173
4242.2,-0.77343,15.833
4253.9,-0.2397,16.095
4265.6,0.33545,16.099
4277.3,-0.95516,18.039
4289.1,-0.64251,18.483
4300.8,-4.4975,17.735
4312.5,-4.4308,16.913
4324.2,-0.13813,16.103
4335.9,-1.0986,16.707
4347.7,-5.4821,21.213
4359.4,-2.2841,21.427
4371.1,-3.031,17.121
4382.8,-2.4979,12.705
4394.5,-2.0055,13.696
4406.3,-6.4267,15.233
4418,-4.6553,19.245
4429.7,-2.1689,15.186
4441.4,-0.9288,14.373
4453.1,-1.8104,13.221
4464.8,-0.83884,14.583
4476.6,-1.7185,16.958
4488.3,-0.032109,18.403
4500,-2.3917,19.754
4511.7,-2.4439,16.954
4523.4,-2.266,18.379
4535.2,-0.96814,18.315
4546.9,1.4658,15.455
4558.6,-0.13365,15.865
4570.3,-3.0458,15.113
4582,-1.8447,13.454
4593.8,-2.2806,14.464
4605.5,-0.90954,11.96
4617.2,-5.1708,11.537
4628.9,-2.2757,13.758
4640.6,-4.4702,16.868
4652.3,-2.4004,16.393
4664.1,-3.3655,17.341
4675.8,-3.1179,15.893
4687.5,-3.8285,16.043
4699.2,-6.5003,16.632
4710.9,-3.5783,13.319
4722.7,-4.3532,17.434
4734.4,-2.9896,16.791
4746.1,-2.7231,13.979
4757.8,-2.7494,14.567
4769.5,-2.8196,17.305
4781.3,-5.1683,14.178
4793,-4.4533,14.562
4804.7,-1.1418,15.343
4816.4,-0.37058,16.535
4828.1,-3.6302,15.09
4839.8,-3.7705,16.438
4851.6,-4.4153,14.532
4863.3,-4.8937,16.33
4875,-5.5653,16.952
4886.7,-4.6418,15.963
4898.4,-4.1731,15.675
4910.2,-5.5593,16.506
4921.9,-4.775,16.159
4933.6,-6.582,17.163
4945.3,-4.5666,15.19
4957,-3.8344,12.731
4968.8,-6.7471,15.804
4980.5,-6.9299,16.419
4992.2,-5.5449,13.966
5003.9,-4.5933,16.701
5015.6,-3.7968,16.527
5027.3,-4.2326,15.957
5039.1,-3.7405,11.352
5050.8,-2.4257,11.025
5062.5,-4.4312,15.594
5074.2,-5.3123,14.229
5085.9,-3.4368,13.473
5097.7,-3.153,15.04
5109.4,-5.8289,12.052
5121.1,-3.459,13.558
5132.8,-3.9325,13.877
5144.5,-3.0217,17.742
5156.3,-0.73858,17.532
5168,-2.7827,13.092
5179.7,-4.0708,13.573
5191.4,-3.916,11.366
5203.1,-1.8817,12.327
5214.8,-1.1229,15.532
5226.6,-2.248,15.528
5238.3,-3.1045,16.538
5250,-6.9041,14.859
5261.7,-5.0154,14.588
5273.4,-3.5856,18.583
5285.2,-5.0251,14.317
5296.9,-7.3916,10.936
5308.6,-4.0181,13.554
5320.3,-6.3228,14.19
5332,-6.7669,14.546
5343.8,-5.4643,18.099
5355.5,-2.1386,16.751
5367.2,-4.1845,13.535
5378.9,-4.1578,13.441
5390.6,-3.174,12.275
5402.3,-6.0192,17.811
5414.1,-4.6981,17.654
5425.8,-2.0623,17.545
5437.5,-1.371,18.014
5449.2,-4.6136,15.47
5460.9,-5.054,14.236
5472.7,-7.4664,10.29
5484.4,-2.1943,11.23
5496.1,-3.5929,16.12
5507.8,-6.3101,16.88
5519.5,-2.0384,17.723
5531.3,4.9429,17.852
5543,4.7052,11.198
5554.7,-0.25691,9.2731
5566.4,-4.55,10.715
5578.1,-5.8438,13.552
5589.8,-3.6783,15.086
5601.6,-3.0686,16.195
5613.3,-2.96,16.847
5625,-3.6991,11.54
5636.7,-4.0471,9.6136
5648.4,-4.0631,12.452
5660.2,-2.8128,11.765
5671.9,-4.7498,14.783
5683.6,-6.0207,14.971
5695.3,-5.0639,14.04
5707,-4.0135,16.874
5718.8,-3.6603,15.212
5730.5,-4.7597,13.456
5742.2,-7.9774,14.398
5753.9,-6.6696,12.618
5765.6,-7.774,11.625
5777.3,-4.7199,11.955
5789.1,-2.5556,10.56
5800.8,-4.9177,15.347
5812.5,-7.4087,14.588
5824.2,-6.6882,14.525
5835.9,-2.344,15.905
5847.7,-1.0119,14.448
5859.4,-4.7921,15.385
5871.1,-6.114,14.403
5882.8,-2.0771,16.51
5894.5,-4.2263,17.829
5906.3,-8.6508,13.065
5918,-7.6334,14.586
5929.7,-4.0648,15.656
5941.4,-3.8228,13.43
5953.1,-4.4439,11.168
5964.8,-5.3299,11.648
5976.6,-3.6131,13.422
5988.3,-6.9996,11.942
6000,-6.0136,13.59
6011.7,-6.83,14.654
6023.4,-7.4787,13.498
6035.2,-6.1854,13.677
6046.9,-6.0156,12.081
6058.6,-6.9968,11.21
6070.3,-7.7397,11.134
6082,-6.7916,15.756
6093.8,-7.5593,13.382
6105.5,-5.3479,11.599
6117.2,-3.2248,12.982
6128.9,-3.3402,13.347
6140.6,-4.6308,13.126
6152.3,-6.2329,10.171
6164.1,-3.5504,13.928
6175.8,-6.4909,13.4
6187.5,-5.605,11.999
6199.2,-4.6363,14.969
6210.9,-5.6102,14.926
6222.7,-4.0939,12.393
6234.4,-4.5948,10.71
6246.1,-5.2563,10.28
6257.8,-4.2885,10.347
6269.5,-7.8436,11.59
6281.3,-8.4444,14.28
6293,-7.6888,13.91
6304.7,-6.7873,12.471
6316.4,-4.5857,11.659
6328.1,-4.1585,10.347
6339.8,-7.0703,10.449
6351.6,-5.9722,14.775
6363.3,-5.3458,13.383
6375,-5.9501,12.196
6386.7,-5.3611,12.308
6398.4,-7.4437,14.653
6410.2,-6.9965,16.53
6421.9,-4.1552,12.59
6433.6,-4.045,10.032
6445.3,-7.5478,11.524
6457,-7.8834,14.925
6468.8,-5.4436,14.563
6480.5,-4.5509,14.21
6492.2,-6.4824,14.331
6503.9,-9.1308,15.125
6515.6,-9.6331,14.756
6527.3,-9.3429,12.812
6539.1,-9.782,11.738
6550.8,-8.9206,11.356
6562.5,-8.2067,13.468
6574.2,-5.1444,11.767
6585.9,-5.3473,13.396
6597.7,-5.1641,13.158
6609.4,-5.3413,13.363
6621.1,-5.7252,13.961
6632.8,-5.8054,12.648
6644.5,-7.697,9.7527
6656.3,-7.9601,7.5284
6668,-4.9164,11.402
6679.7,-4.6593,12.231
6691.4,-3.6625,13.339
6703.1,-4.6601,16.449
6714.8,-8.2947,16.254
6726.6,-7.8404,13.669
6738.3,-6.2238,10.245
6750,-7.8133,13.039
6761.7,-6.0512,14.853
6773.4,-3.4007,13.131
6785.2,-3.5535,14.949
6796.9,-5.4093,15.498
6808.6,-6.0352,11.984
6820.3,-5.4793,15.961
6832,-6.0494,16.884
6843.8,-5.6207,14.223
6855.5,-4.3124,14.556
6867.2,-5.0888,13.219
6878.9,-3.1222,14.107
6890.6,-4.4526,13.685
6902.3,-7.3556,13.411
6914.1,-7.4748,11.137
6925.8,-3.9553,11.218
6937.5,-5.879,13.801
6949.2,-8.3124,13.224
6960.9,-6.7621,12.813
6972.7,-7.2046,16.847
6984.4,-7.3914,13.368
6996.1,-8.2984,14.355
7007.8,-6.6484,15.528
7019.5,-8.7241,12.278
7031.3,-7.7669,11.35
7043,-7.4695,15.766
7054.7,-9.3871,16.449
7066.4,-8.1927,15.122
7078.1,-8.3696,14.474
7089.8,-7.505,11.476
7101.6,-7.539,13.211
7113.3,-8.5927,13.047
7125,-8.6652,14.098
7136.7,-7.0676,12.146
7148.4,-7.7811,11.841
7160.2,-8.7299,14.278
7171.9,-10.449,13.649
7183.6,-10.137,12.437
7195.3,-7.3022,11.86
7207,-6.6634,12.364
7218.8,-10.476,13.533
7230.5,-7.8233,10.852
7242.2,-7.1468,11.516
7253.9,-4.4239,11.298
7265.6,-4.6777,9.378
7277.3,-5.0402,9.6327
7289.1,-6.022,10.71
7300.8,-7.3605,10.717
7312.5,-6.1487,11.616
7324.2,-5.041,11.801
7335.9,-8.7382,10.821
7347.7,-7.1352,11.684
7359.4,-6.4934,11.22
7371.1,-8.9579,7.2707
7382.8,-8.216,8.362
7394.5,-6.9838,11.799
7406.3,-9.2857,10.867
7418,-7.153,7.0591
7429.7,-6.5933,10.71
7441.4,-9.9848,10.013
7453.1,-5.0409,9.9332
7464.8,-8.075,10.483
7476.6,-6.9018,12.399
7488.3,-5.9289,12.592
7500,-5.9745,12.925
7511.7,-4.5959,13.107
7523.4,-6.2522,11.745
7535.2,-7.919,10.901
7546.9,-8.003,13.636
7558.6,-7.744,11.862
7570.3,-5.3704,10.253
7582,-7.086,12.119
7593.8,-8.793,9.8487
7605.5,-5.7081,11.231
7617.2,-5.9307,12.073
7628.9,-5.5855,10.837
7640.6,-6.3076,11.321
7652.3,-4.885,8.662
7664.1,-6.4026,11.703
7675.8,-6.1135,14.53
7687.5,-5.9882,15.561
7699.2,-5.2188,17.356
7710.9,-6.4578,15.859
7722.7,-8.0533,11.926
7734.4,-2.3971,12.21
7746.1,-3.4403,10.57
7757.8,-6.5568,11.51
7769.5,-6.8485,12.801
7781.3,-6.8604,11.777
7793,-7.2583,9.226
7804.7,-6.5302,8.2943
7816.4,-5.5679,12.326
7828.1,-7.2846,14.953
7839.8,-9.0359,12.993
7851.6,-9.5671,9.1616
7863.3,-8.8145,9.1401
7875,-7.8391,8.7696
7886.7,-7.7246,8.2766
7898.4,-8.0125,6.9039
7910.2,-7.6049,9.531
7921.9,-8.1117,11.205
7933.6,-8.8331,11.626
7945.3,-9.1423,12.185
7957,-8.9019,12.715
7968.8,-7.0539,12.183
7980.5,-10.876,12.215
7992.2,-11.175,11.183
8003.9,-9.5383,8.4775
8015.6,-8.4069,12.801
8027.3,-5.9362,13.808
8039.1,-6.1475,15.207
8050.8,-7.6768,12.22
8062.5,-6.5045,13.103
8074.2,-8.0564,15.264
8085.9,-9.9674,12.721
8097.7,-8.236,9.977
8109.4,-8.1729,9.3148
8121.1,-10.663,11.26
8132.8,-11.028,10.979
8144.5,-10.867,9.769
8156.3,-8.2693,11.839
8168,-8.6398,14.008
8179.7,-9.4513,11.48
8191.4,-13.731,10.12
8203.1,-10.214,11.781
8214.8,-12.109,12.158
8226.6,-13.947,10.561
8238.3,-11.26,10.168
8250,-8.6905,14.005
8261.7,-10.72,11.596
8273.4,-12.818,11.244
8285.2,-12.264,12.065
8296.9,-10.087,10.548
8308.6,-11.191,11.916
8320.3,-9.0274,11.552
8332,-7.4662,10.946
8343.8,-9.7476,11.416
8355.5,-9.3707,12.961
8367.2,-9.3468,13.783
8378.9,-7.321,13.017
8390.6,-7.3637,10.554
8402.3,-10.507,10.195
8414.1,-10.59,10.325
8425.8,-8.8363,9.8622
8437.5,-6.7739,11.275
8449.2,-6.2997,13.778
8460.9,-7.4748,11.232
8472.7,-8.6642,10.973
8484.4,-10.639,13.11
8496.1,-12.303,11.737
8507.8,-11.004,9.9313
8519.5,-11.509,11.485
8531.3,-11.944,12.633
8543,-10.801,10.595
8554.7,-10.631,8.4134
8566.4,-8.9861,12.293
8578.1,-7.7825,14.077
8589.8,-7.6393,13.067
8601.6,-7.5319,10.707
8613.3,-9.1064,11.539
8625,-10.125,13.532
8636.7,-9.4679,9.6452
8648.4,-9.8112,9.6352
8660.2,-8.6721,12.753
8671.9,-8.4513,10.458
8683.6,-8.0801,11.6
8695.3,-7.1707,11.211
8707,-7.7824,9.4542
8718.8,-9.554,9.504
8730.5,-8.0522,9.5749
8742.2,-6.9545,10.316
8753.9,-7.9229,10.847
8765.6,-11.49,9.1822
8777.3,-11.43,6.3359
8789.1,-8.6961,8.3103
8800.8,-11.741,13.109
8812.5,-10.374,12.326
8824.2,-12.372,12.235
8835.9,-8.4703,11.828
8847.7,-9.7542,11.153
8859.4,-11.343,10.705
8871.1,-11.656,11.727
8882.8,-10.515,8.5422
8894.5,-9.5965,8.9078
8906.3,-12.376,9.7622
8918,-8.6394,7.4123
8929.7,-8.175,7.0045
8941.4,-10.458,6.6027
8953.1,-9.7685,9.8867
8964.8,-8.8502,12.106
8976.6,-8.5304,11.556
8988.3,-8.7645,8.9717
9000,-11.436,9.9896
9011.7,-13.316,11.84
9023.4,-14.133,12.511
9035.2,-11.409,12.647
9046.9,-12.087,12.073
9058.6,-8.7349,11.474
9070.3,-10.516,9.5365
9082,-10.136,8.3826
9093.8,-13.594,7.8175
9105.5,-12.291,7.0457
9117.2,-9.1332,9.8829
9128.9,-9.7047,10.111
9140.6,-12.812,8.3371
9152.3,-9.3554,8.0789
9164.1,-9.9591,7.9118
9175.8,-9.1587,7.5956
9187.5,-8.164,8.4961
9199.2,-10.34,9.9318
9210.9,-12.42,6.5625
9222.7,-7.5253,8.5194
9234.4,-9.2027,11.781
9246.1,-9.7883,13.946
9257.8,-12.847,12.161
9269.5,-11.679,8.8586
9281.3,-8.1236,8.7423
9293,-9.9174,9.662
9304.7,-11.664,12.582
9316.4,-11.947,14.679
9328.1,-12.818,14.488
9339.8,-10.898,10.795
9351.6,-9.7336,8.3866
9363.3,-10.356,9.0987
9375,-10.425,7.7151
9386.7,-8.5937,5.8751
9398.4,-8.0346,3.9925
9410.2,-10.524,9.5848
9421.9,-13.197,11.935
9433.6,-11.461,8.7544
9445.3,-13.32,8.5003
9457,-12.71,10.617
9468.8,-12.551,10.931
9480.5,-12.907,8.243
9492.2,-13.433,7.5051
9503.9,-12.604,6.4248
9515.6,-12.299,6.6374
9527.3,-11.352,9.452
9539.1,-11.194,7.8447
9550.8,-11.027,8.9593
9562.5,-10.131,9.0421
9574.2,-12.403,7.2548
9585.9,-12.245,8.5431
9597.7,-12.945,9.9264
9609.4,-11.602,7.6244
9621.1,-11.718,7.7048
9632.8,-11.84,8.6654
9644.5,-9.8684,10.406
9656.3,-10.355,9.2941
9668,-10.695,6.6322
9679.7,-12.156,9.8723
9691.4,-13.078,9.4971
9703.1,-12.742,11.288
9714.8,-12.2,12.536
9726.6,-9.1439,9.0767
9738.3,-11.934,8.7762
9750,-9.4615,10.593
9761.7,-7.7514,10.471
9773.4,-8.8126,6.7418
9785.2,-12.789,6.3173
9796.9,-13.933,6.2456
9808.6,-12.638,9.9518
9820.3,-10.392,8.3696
9832,-11.019,9.9755
9843.8,-12.24,7.716
9855.5,-12.405,7.5489
9867.2,-10.76,9.8327
9878.9,-8.816,10.943
9890.6,-11.348,7.1982
9902.3,-11.321,8.5858
9914.1,-11.722,10.798
9925.8,-14.856,5.8635
9937.5,-15.916,6.7648
9949.2,-13.579,5.6376
9960.9,-11.545,10.447
9972.7,-14.094,8.2237
9984.4,-13.412,8.3684
9996.1,-13.4,9.0084
10008,-10.822,8.7458
10020,-9.8047,6.7001
10031,-11.199,8.2994
10043,-10.377,8.2805
10055,-11.144,7.9018
10066,-10.489,8.4635
10078,-12.162,10.14
10090,-12.575,10.454
10102,-11.309,10.108
10113,-12.741,9.9476
10125,-12.074,9.8749
10137,-13.736,6.546
10148,-9.7496,4.127
10160,-5.9877,8.185
10172,-11.26,7.265
10184,-11.15,5.3174
10195,-11.331,6.2172
10207,-12.599,8.3168
10219,-12.394,6.8661
10230,-10.194,9.139
10242,-11.757,8.7953
10254,-15.999,6.5371
10266,-13.456,10.185
10277,-10.69,9.1595
10289,-11.255,5.4091
10301,-12.322,5.1538
10313,-11.666,5.7562
10324,-12.235,6.9058
10336,-12.981,3.9481
10348,-15.022,7.1236
10359,-11.963,7.7653
10371,-10.299,8.0467
10383,-11.79,9.9477
10395,-10.555,8.4108
10406,-10.624,6.1895
10418,-12.154,7.603
10430,-14.111,5.3994
10441,-12.241,7.4224
10453,-12.696,5.2754
10465,-13.695,7.0837
10477,-11.041,7.0647
10488,-11.729,9.2085
10500,-12.356,6.9747
10512,-12.376,8.8768
10523,-11.107,10.185
10535,-10.433,9.2472
10547,-9.9747,7.9279
10559,-9.2844,7.309
10570,-9.4883,7.5492
10582,-10.847,9.7362
10594,-11.621,6.835
10605,-13.487,8.3269
10617,-13.703,6.4833
10629,-11.586,4.7923
10641,-11.058,2.8153
10652,-11.348,8.5902
10664,-11.199,10.132
10676,-13.197,10.196
10688,-9.8473,9.4953
10699,-7.8674,8.3629
10711,-9.5805,8.4168
10723,-10.476,7.7472
10734,-9.9731,7.4122
10746,-11.051,7.0324
10758,-11.621,7.2561
10770,-14.072,3.4534
10781,-14.005,5.7419
10793,-11.095,5.958
10805,-10.186,6.4006
10816,-13.548,3.1754
10828,-14.299,2.87
10840,-10.865,5.51
10852,-11.01,7.1641
10863,-13.022,6.7025
10875,-12.808,6.3425
10887,-12.576,7.3112
10898,-12.596,6.5797
10910,-12.036,3.9857
10922,-10.847,6.6491
10934,-11.68,7.7397
10945,-10.867,6.7196
10957,-10.126,6.3116
10969,-13.591,8.0703
10980,-12.811,8.3184
10992,-12.541,7.8882
11004,-13.502,7.3415
11016,-11.708,8.3843
11027,-10.039,8.6068
11039,-13.196,8.6098
11051,-15.801,6.4367
11063,-14.784,7.9962
11074,-14.005,8.3041
11086,-14.964,7.4778
11098,-12.802,8.4155
11109,-14.169,9.2749
11121,-13.676,5.9378
11133,-14.51,6.9735
11145,-13.741,11.665
11156,-12.056,11.364
11168,-12.757,6.0169
11180,-13.94,5.5366
11191,-14.347,7.9308
11203,-11.393,9.4118
11215,-10.187,8.7897
11227,-8.1348,6.3414
11238,-9.339,5.8555
11250,-11.652,4.5813
11262,-14.516,4.9587
11273,-14.903,3.5074
11285,-13.301,6.9091
11297,-13.638,7.4363
11309,-12.315,6.7602
11320,-12.375,7.2561
11332,-14.634,4.9938
11344,-11.688,4.4778
11355,-10.272,5.9232
11367,-11.663,6.7059
11379,-12.024,9.3029
11391,-11.387,10.192
11402,-11.98,4.99
11414,-12.449,8.4961
11426,-15.434,5.8681
11438,-12.827,6.4794
11449,-10.677,9.1478
11461,-11.818,10.478
11473,-12.459,9.9101
11484,-14.758,9.9918
11496,-13.236,11.579
11508,-11.911,12.385
11520,-11.602,11.464
11531,-12.227,8.4357
11543,-12.121,6.4136
11555,-12.174,5.5632
11566,-11.937,3.8535
11578,-11.312,2.3369
11590,-15.474,5.1087
11602,-12.913,4.1466
11613,-11.771,8.399
11625,-11.498,6.6859
11637,-8.2095,7.3491
11648,-10.328,5.5043
11660,-13.274,5.9805
11672,-13.312,6.6819
11684,-12.875,6.8307
11695,-12.796,7.1321
11707,-12.561,5.2515
11719,-9.7901,4.6478
11730,-9.7507,5.2355
11742,-11.513,5.8728
11754,-12.23,5.1615
11766,-11.094,9.5227
11777,-9.937,7.2167
11789,-14.069,3.7422
11801,-14.363,8.3865
11813,-15.703,4.9089
11824,-13.876,8.3377
11836,-10.99,4.9688
11848,-13.81,5.7853
11859,-14.314,6.9586
11871,-13.656,5.8864
11883,-16.727,6.6585
11895,-16.373,8.2994
11906,-13.762,4.8606
11918,-11.498,5.8241
11930,-10.667,5.3346
11941,-10.553,6.3552
11953,-10.499,4.0224
11965,-13.776,5.5648
11977,-14.085,8.3078
11988,-13.59,7.6416
12000,-14.39,5.7288
12012,-16.234,3.9023
12023,-13.774,5.4065
12035,-12.976,3.367
12047,-12.96,5.8728
12059,-15.104,8.0152
12070,-12.538,5.8084
12082,-11.833,6.2629
12094,-11.586,5.2905
12105,-10.754,5.291
12117,-11.593,4.0481
12129,-13.419,5.4295
12141,-13.514,6.8378
12152,-12.372,4.0884
12164,-10.466,6.2902
12176,-11.094,6.0112
12188,-16.401,6.6853
12199,-15.303,5.8189
12211,-16.658,4.5165
12223,-13.867,3.9886
12234,-13.822,5.787
12246,-14.187,5.0849
12258,-13.219,5.5769
12270,-12.279,5.9248
12281,-14.306,6.559
12293,-15.015,5.8983
12305,-15.31,4.9916
12316,-15.53,4.3227
12328,-14.637,4.5893
12340,-13.878,6.6947
12352,-13.195,9.1616
12363,-16.307,10.009
12375,-15.345,8.3034
12387,-13.527,6.2939
12398,-11.633,3.8695
12410,-13.345,3.2468
12422,-16.039,3.3621
12434,-13.99,3.6713
12445,-11.248,7.0144
12457,-11.155,7.1498
12469,-11.753,6.3591
12480,-14.673,2.0899
12492,-13.585,2.0187
12504,-14.791,4.478
12516,-15.117,4.7147
12527,-14.069,7.091
12539,-14.338,8.4883
12551,-13.864,7.2374
12563,-13.234,5.9578
12574,-10.096,7.1254
12586,-11.815,9.1474
12598,-14.469,6.6082
12609,-14.49,6.4104
12621,-10.684,6.5879
12633,-9.8364,8.2952
12645,-11.345,8.7958
12656,-11.679,7.2793
12668,-11.78,2.9863
12680,-14.309,3.1705
12691,-15.103,5.0977
12703,-11.905,7.6742
12715,-10.516,6.3531
12727,-9.6745,6.9486
12738,-10.158,9.2552
12750,-11.877,6.6331
12762,-13.8,4.8272
12773,-12.652,5.3169
12785,-12.147,6.5677
12797,-11.342,5.9776
12809,-12.959,6.2296
12820,-12.809,4.1467
12832,-11.314,4.6946
12844,-10.797,6.4521
12855,-11.839,6.8972
12867,-12.401,4.0778
12879,-17.255,4.1154
12891,-16.935,5.5511
12902,-13.919,6.5574
12914,-11.968,6.2358
12926,-14.023,2.4927
12938,-13.147,7.249
12949,-16.689,10.154
12961,-14.794,8.5322
12973,-11.123,4.8559
12984,-13.09,4.0059
12996,-14.03,1.3207
13008,-13.301,4.627
13020,-12.199,5.2565
13031,-10.135,5.9384
13043,-9.3871,7.4593
13055,-8.975,7.1773
13066,-14.438,2.6792
13078,-17.161,2.705
13090,-13.624,4.145
13102,-11.31,3.0263
13113,-14.404,3.6717
13125,-15.009,1.9125
13137,-13.289,2.5487
13148,-12.399,4.5637
13160,-13.274,5.6633
13172,-12.979,4.6723
13184,-15.551,6.6144
13195,-13.523,5.2811
13207,-13.292,5.8202
13219,-13.016,6.1125
13230,-11.909,2.9121
13242,-11.777,3.0195
13254,-13.367,4.1742
13266,-14.079,2.5363
13277,-12.942,-0.27703
13289,-12.864,5.4159
13301,-11.456,4.4479
13313,-11.768,6.3361
13324,-14.459,5.5612
13336,-14.95,1.2835
13348,-15.324,1.5079
13359,-13.817,3.7595
13371,-11.986,3.4416
13383,-13.253,3.6024
13395,-15.366,3.5223
13406,-14.008,4.6567
13418,-14.106,4.3607
13430,-15.931,3.6456
13441,-13.816,4.821
13453,-14.684,5.2206
13465,-17.712,1.1907
13477,-14.836,1.8119
13488,-14.72,2.9992
13500,-11.266,5.848
13512,-12.794,5.8541
13523,-15.311,5.1559
13535,-13.391,3.6124
13547,-13.977,5.5359
13559,-14.162,6.3603
13570,-13.252,1.2365
13582,-14.739,5.25
13594,-11.668,4.0113
13605,-13.606,4.5316
13617,-12.286,4.8052
13629,-10.942,6.9097
13641,-12.298,6.6067
13652,-13.338,4.0578
13664,-13.012,5.2171
13676,-13.791,6.5331
13688,-12.075,3.6979
13699,-11.079,3.2254
13711,-8.6477,2.464
13723,-10.329,0.76201
13734,-15.612,2.8908
13746,-11.236,5.6473
13758,-11.616,3.8273
13770,-12.177,2.7901
13781,-14.406,7.3225
13793,-16.798,7.8852
13805,-14.114,4.6943
13816,-17.755,1.8635
13828,-17.037,-0.23264
13840,-14.983,3.5366
13852,-15.306,5.8735
13863,-15.746,4.8432
13875,-15.11,2.992
13887,-14.023,2.9375
13898,-13.123,4.0678
13910,-13.869,3.4959
13922,-13.541,0.0060478
13934,-13.023,1.3292
13945,-12.74,-0.25744
13957,-18.524,1.5552
13969,-15.446,4.0716
13980,-15.963,3.9175
13992,-11.845,2.0846
14004,-11.908,4.2618
14016,-14.472,4.6202
14027,-13.001,3.8615
14039,-10.9,5.4146
14051,-12.155,0.45238
14063,-16.5,2.4171
14074,-16.039,5.8068
14086,-15.087,6.0253
14098,-16.211,4.2928
14109,-15.016,3.9708
14121,-11.959,3.5795
14133,-14.208,4.3238
14145,-17.086,2.8767
14156,-16.735,2.2639
14168,-17.559,3.4195
14180,-14.667,4.1566
14191,-13.491,4.8611
14203,-16.09,5.6349
14215,-16.935,1.4227
14227,-14.264,3.0983
14238,-10.977,0.9124
14250,-12.247,3.5877
14262,-16.042,4.3008
14273,-15.654,5.8648
14285,-13.904,7.1481
14297,-15.394,2.9404
14309,-15.098,5.7614
14320,-15.419,4.6989
14332,-16.838,7.2947
14344,-18.901,8.0019
14355,-19.573,5.7976
14367,-18.938,3.8796
14379,-18.447,3.4964
14391,-16.065,6.1569
14402,-15.225,4.5752
14414,-15.065,7.6982
14426,-13.726,8.335
14438,-13.665,3.8767
14449,-16.937,2.6483
14461,-17.385,4.866
14473,-17.014,3.4295
14484,-15.944,3.7689
14496,-18.563,4.5144
14508,-19.491,5.0243
14520,-16.254,4.6932
14531,-15.621,0.41103
14543,-15.649,5.2731
14555,-17.918,3.7206
14566,-18.898,5.1205
14578,-14.154,4.9446
14590,-15.38,3.2979
14602,-16.506,2.1519
14613,-15.665,0.87488
14625,-18.24,3.6342
14637,-17.779,6.7694
14648,-13.747,1.5677
14660,-14.213,0.79157
14672,-14.126,1.7601
14684,-15.819,4.2843
14695,-18.493,3.2511
14707,-19.215,2.3065
14719,-16.432,4.6443
14730,-15.372,3.7241
14742,-18.261,1.1021
14754,-16.973,2.1117
14766,-16.528,0.72719
14777,-16.099,2.6374
14789,-15.819,3.0881
14801,-14.829,4.2259
14813,-14.71,3.3866
14824,-17.513,1.22
14836,-18.134,3.7057
14848,-17.913,1.0764
14859,-18.597,1.3262
14871,-18.67,3.2835
14883,-16.205,6.0068
14895,-15.536,5.2173
14906,-16.421,4.1419
14918,-18.376,2.8725
14930,-16.869,2.7923
14941,-17.114,2.4243
14953,-17.543,4.8094
14965,-17.118,5.5722
14977,-16.748,2.4105
14988,-16.953,0.90776
15000,-15.723,0.53341
15012,-18.496,0.83545
15023,-18.75,2.3136
15035,-20.651,4.1068
15047,-21.288,6.6829
15059,-17.095,6.5263
15070,-19.006,4.1468
15082,-18.835,1.8706
15094,-17.552,3.6648
15105,-17.26,3.4665
15117,-17.64,3.3609
15129,-14.458,3.9845
15141,-13.22,1.9284
15152,-19.915,-0.33304
15164,-15.547,1.4156
15176,-16.332,5.0284
15188,-17.136,3.4029
15199,-15.653,2.4564
15211,-15.498,5.7414
15223,-15.781,4.5037
15234,-17.37,1.9717
15246,-17.628,3.5535
15258,-16.576,5.791
15270,-16.784,8.4426
15281,-16.628,5.6255
15293,-15.61,4.1847
15305,-17.239,4.4525
15316,-17.803,5.1344
15328,-18.606,3.0999
15340,-17.061,3.2401
15352,-19.157,2.3488
15363,-21.177,0.89661
15375,-18.599,1.605
15387,-17.316,3.3949
15398,-17.465,2.3944
15410,-19.723,5.4526
15422,-18.191,8.1869
15434,-13.874,4.5559
15445,-15.148,1.5729
15457,-20.108,2.8105
15469,-18.226,1.4052
15480,-18.428,1.3258
15492,-18.464,3.5035
15504,-15.587,1.5196
15516,-17.213,2.9765
15527,-19.125,2.5518
15539,-18.408,3.8839
15551,-17.897,2.3595
15563,-17.058,0.88289
15574,-18.29,1.3862
15586,-19.139,2.1812
15598,-17.895,3.2246
15609,-18.273,3.1775
15621,-16.882,2.2137
15633,-16.868,1.9525
15645,-16.479,3.8148
15656,-18.995,4.432
15668,-21.051,4.6513
15680,-18.749,0.8583
15691,-17.957,0.9852
15703,-17.355,0.90229
15715,-18.771,3.4824
15727,-18.416,3.5145
15738,-16.838,2.5693
15750,-17.516,3.6113
15762,-17.687,5.3927
15773,-16.791,2.0727
15785,-17.175,1.0129
15797,-19.036,1.8465
15809,-17.911,2.0105
15820,-19.766,1.6907
15832,-19.565,2.5441
15844,-17.817,1.4119
15855,-20.295,2.735
15867,-21.972,2.6436
15879,-21.947,0.29517
15891,-19.528,2.2876
15902,-21.911,-0.2181
15914,-19.614,1.4559
15926,-19.024,1.6976
15938,-18.422,4.0555
15949,-17.835,1.5458
15961,-17.488,3.2988
15973,-19.087,2.7206
15984,-21.599,2.3662
15996,-19.562,0.53993
16008,-19.138,2.5681
16020,-21.021,3.7965
16031,-20.581,1.1478
16043,-17.987,2.1984
16055,-18.069,1.9799
16066,-21.569,3.1506
16078,-18.741,2.3731
16090,-19.214,0.93096
16102,-19.175,2.2554
16113,-21.643,1.4595
16125,-18.567,1.0043
16137,-18.461,1.4255
16148,-18.842,0.69953
16160,-19.473,0.77198
16172,-18.499,2.0636
16184,-18.216,2.2488
16195,-16.406,3.5292
16207,-15.756,1.9032
16219,-17.616,-0.38742
16230,-22.925,-2.4718
16242,-22.56,-0.68328
16254,-20.097,-1.3809
16266,-18.374,-0.80349
16277,-20.118,0.9962
16289,-18.824,3.6581
16301,-19.473,3.5682
16313,-20.48,0.33057
16324,-17.029,-2.3929
16336,-21.223,1.5907
16348,-22.047,0.045994
16359,-21.629,-4.3111
16371,-22.73,1.6153
16383,-21.167,3.8483
16395,-21.172,1.818
16406,-20.325,0.7025
16418,-19.914,0.55494
16430,-19.809,-1.2252
16441,-18.599,-0.18355
16453,-22.566,0.40799
16465,-21.94,-1.6692
16477,-20.516,-1.7665
16488,-18.61,-0.86503
16500,-18.586,-2.9532
16512,-20.723,-1.4203
16523,-20.455,3.407
16535,-20.027,3.1869
16547,-19.26,1.7275
16559,-20.591,0.48788
16570,-18.993,-0.77643
16582,-18.088,-1.1481
16594,-18.202,2.1278
16605,-18.995,3.297
16617,-21.839,-0.36808
16629,-21.848,-1.9956
16641,-20.48,-1.1441
16652,-25.894,-0.079206
16664,-20.596,5.5437
16676,-22.602,5.4935
16688,-19.046,1.2526
16699,-19.695,5.0143
16711,-20.641,3.2422
16723,-18.683,1.2529
16734,-19.145,-0.045705
16746,-20.155,3.2219
16758,-21.431,2.6548
16770,-21.553,0.27255
16781,-19.887,1.7526
16793,-18.729,1.3319
16805,-19.167,-0.57798
16816,-22.27,-2.5778
16828,-25.272,-1.5187
16840,-20.887,2.401
16852,-19.422,0.28798
16863,-21.695,0.59909
16875,-22.246,-1.4835
16887,-20.699,-2.1408
16898,-19.624,-0.085318
16910,-22.002,0.70255
16922,-23.865,-1.7039
16934,-25.713,0.45883
16945,-24.634,0.57184
16957,-20.173,3.2766
16969,-20.727,3.2438
16980,-22.791,1.3704
16992,-21.327,1.0575
17004,-19.354,2.4436
17016,-18.524,2.8146
17027,-18.86,2.106
17039,-17.907,2.9462
17051,-19.74,0.6043
17063,-22.777,2.3411
17074,-23.744,2.2239
17086,-23.038,-0.23429
17098,-23.017,-1.0176
17109,-20.638,-2.6677
17121,-20.068,-3.6663
17133,-22.876,-0.1562
17145,-20.764,4.9765
17156,-21.729,5.2106
17168,-21.376,2.6266
17180,-18.836,-0.78471
17191,-18.389,-1.7361
17203,-17.74,-1.4005
17215,-18.417,1.9403
17227,-20.864,1.5941
17238,-22.749,-1.5292
17250,-21.069,-0.34188
17262,-21.185,0.029682
17273,-19.504,2.4391
17285,-20.689,2.7551
17297,-24.359,2.1712
17309,-23.357,2.8406
17320,-21.396,-1.2676
17332,-21.278,-2.921
17344,-19.503,-1.8552
17355,-21.938,-0.13889
17367,-17.457,1.0123
17379,-21.386,0.71792
17391,-23.749,0.40056
17402,-23.541,2.5485
17414,-21.035,2.6431
17426,-18.227,4.0824
17438,-20.745,0.82099
17449,-21.844,-3.4226
17461,-21.465,2.7579
17473,-22.3,2.7207
17484,-20.412,1.5537
17496,-23.209,2.9128
17508,-23.594,3.3657
17520,-24.51,0.27929
17531,-22.238,-1.6212
17543,-22.46,-1.4648
17555,-23.097,-1.5243
17566,-23.303,0.30992
17578,-23.576,2.9314
17590,-22.071,-0.76211
17602,-22.42,0.40228
17613,-23.81,2.1806
17625,-25.009,0.074214
17637,-19.978,-1.0089
17648,-21.29,-0.54813
17660,-24.851,-4.1605
17672,-22.856,-2.7882
17684,-21.418,0.10728
17695,-20.368,-0.52284
17707,-22.561,-0.071416
17719,-21.705,-0.23826
17730,-20.348,-2.626
17742,-23.04,-1.6049
17754,-18.671,-1.9101
17766,-19.972,-0.80929
17777,-22.89,-0.43076
17789,-21.136,0.75802
17801,-21.858,0.52196
17813,-23.16,-0.57396
17824,-22.286,-3.1001
17836,-22.416,-0.2754
17848,-23.01,0.84634
17859,-19.413,-1.4788
17871,-19.205,0.97662
17883,-23.4,0.50445
17895,-21.959,-1.3279
17906,-22.131,0.6176
17918,-24.164,-1.8406
17930,-23.044,-0.60775
17941,-21.339,-2.3547
17953,-22.752,-3.7377
17965,-22.747,-2.2984
17977,-24.825,-0.77844
17988,-23.564,-0.86779
18000,-22.887,2.8478
18012,-22.706,2.7784
18023,-20.318,-1.061
18035,-20.626,-0.69002
18047,-22.079,1.7871
18059,-21.556,0.59489
18070,-22.965,-1.4125
18082,-23.314,-1.1523
18094,-23.17,0.89383
18105,-24.321,3.401
18117,-22.182,2.9644
18129,-23.91,-0.3971
18141,-23.59,-1.0767
18152,-22.868,0.74033
18164,-23.476,-0.5733
18176,-22.135,-3.8669
18188,-22.435,-3.8558
18199,-23.842,-0.19045
18211,-26.696,1.8343
18223,-22.887,1.9242
18234,-22.616,0.28436
18246,-22.186,-2.1109
18258,-20.758,-1.3493
18270,-18.569,0.24798
18281,-19.516,0.89938
18293,-21.515,-0.70042
18305,-22.372,-1.127
18316,-22.738,-0.92745
18328,-24.48,-2.3033
18340,-25.392,1.6739
18352,-25.811,1.996
18363,-24.903,-1.5682
18375,-22.28,-4.3248
18387,-21.118,-4.9071
18398,-22.36,-0.47229
18410,-20.97,2.6119
18422,-22.566,1.0324
18434,-24.409,-1.4484
18445,-22.371,-1.1992
18457,-20.414,-5.1633
18469,-23.778,-3.1744
18480,-23.642,-0.85765
18492,-21.928,-3.4251
18504,-23.34,-0.9822
18516,-22.81,-2.6784
18527,-20.28,-4.2771
18539,-19.85,-1.124
18551,-20.541,0.86414
18563,-22.162,-0.38149
18574,-23.86,-1.003
18586,-24.74,-1.7873
18598,-22.965,-4.0004
18609,-20.675,-1.1604
18621,-20.398,-0.13744
18633,-23.211,-0.27937
18645,-23.021,-1.7482
18656,-19.437,-0.37077
18668,-20.247,0.76457
18680,-23.788,3.5536
18691,-22.746,0.48586
18703,-25.494,-0.12845
18715,-24.965,-2.1309
18727,-24.632,-1.6298
18738,-24.949,-4.0534
18750,-28.607,-0.66886
18762,-24.025,0.38064
18773,-22.272,-0.3585
18785,-22.569,-0.39583
18797,-24.701,0.75793
18809,-23.872,1.0072
18820,-25.278,-0.73235
18832,-24.139,-2.5202
18844,-21.864,-4.3826
18855,-22.697,0.75444
18867,-22.818,2.2567
18879,-24.483,-0.43241
18891,-24.534,2.7768
18902,-22.748,-0.057441
18914,-21.345,0.19429
18926,-21.958,-0.079747
18938,-23.906,-1.1862
18949,-20.545,0.92155
18961,-24.223,1.5884
18973,-23.273,4.3427
18984,-22.053,3.5967
18996,-22.422,0.38815
19008,-20.886,-0.58435
19020,-22.909,-1.4612
19031,-26.756,0.40295
19043,-24.078,1.5923
19055,-24.491,0.90788
19066,-27.944,0.47397
19078,-25.702,0.010933
19090,-22.549,1.8319
19102,-22.21,1.291
19113,-22.034,2.6754
19125,-23.689,0.918
19137,-24.862,0.015749
19148,-24.791,0.2391
19160,-26.566,-1.5916
19172,-22.497,-2.7021
19184,-22.236,-2.7415
19195,-25.134,-4.1763
19207,-26.425,-3.3141
19219,-23.729,0.6085
19230,-24.444,1.0907
19242,-23.057,-0.97433
19254,-22.142,-2.1393
19266,-21.664,-2.7872
19277,-21.762,-5.0222
19289,-21.873,-7.3189
19301,-25.526,-3.5995
19313,-22.818,-1.6089
19324,-21.848,-4.033
19336,-22.962,-1.5376
19348,-22.226,1.8947
19359,-22.211,0.22461
19371,-20.916,-1.6812
19383,-23.281,-1.6531
19395,-24.297,-2.8237
19406,-24.781,-4.175
19418,-24.3,-0.95436
19430,-24.755,0.5649
19441,-27.322,0.65044
19453,-26.794,1.4478
19465,-24.771,-0.74559
19477,-22.805,-5.1995
19488,-23.809,-1.3065
19500,-24.554,-2.6537
19512,-23.579,-2.4061
19523,-25.043,-3.8172
19535,-24.233,-2.3202
19547,-21.32,0.012539
19559,-20.921,1.6305
19570,-26.916,0.33208
19582,-23.872,-0.80197
19594,-22.72,-0.76771
19605,-21.632,-1.4418
19617,-22.399,0.01105
19629,-26.322,-2.0377
19641,-24.503,-2.2417
19652,-26.836,-1.765
19664,-25.215,-6.1603
19676,-24.295,-2.088
19688,-26.897,1.5853
19699,-26.667,-2.5555
19711,-25.044,-0.27376
19723,-28.817,0.44613
19734,-27.389,-1.9509
19746,-27.064,-5.9507
19758,-25.669,-1.7771
19770,-25.24,-2.7163
19781,-27.005,-4.099
19793,-26.97,-4.3234
19805,-24.355,-4.254
19816,-23.538,-2.1101
19828,-22.189,-2.0576
19840,-24.666,-3.0194
19852,-27.207,-1.8809
19863,-25.589,-1.2742
19875,-22.743,-1.1002
19887,-24.931,-0.32873
19898,-26.445,1.3434
19910,-24.723,-2.4935
19922,-23.602,-3.5571
19934,-25.233,-1.2159
19945,-24.548,-0.24534
19957,-22.6,-1.1492
19969,-24.037,-1.3136
19980,-25.851,-1.5372
19992,-26.611,0.36538
20004,-24.327,0.24227
20016,-23.557,-3.2738
20027,-21.324,-4.0037
20039,-21.76,-1.9042
20051,-25.995,-0.24856
20063,-26.233,-1.3133
20074,-25.587,-3.2207
20086,-24.655,-3.1568
20098,-26.573,-1.6707
20109,-24.048,-1.5166
20121,-23.645,-0.28433
20133,-24.835,1.7994
20145,-27.473,1.5849
20156,-22.648,-0.74945
20168,-22.267,0.16512
20180,-24.212,-3.8406
20191,-26.154,-3.9072
20203,-28.457,-4.7421
20215,-29.821,-4.0856
20227,-26.244,-3.1785
20238,-24.49,-1.9369
20250,-24.844,-3.779
20262,-26.5,-3.8581
20273,-24.812,-1.5667
20285,-26.615,-2.7689
20297,-26.08,-1.0935
20309,-24.787,0.60619
20320,-23.998,-1.3319
20332,-25.349,-4.9594
20344,-24.541,-4.217
20355,-26.775,-1.2689
20367,-25.341,-2.964
20379,-25.506,-1.6127
20391,-27.687,-1.6413
20402,-20.981,-3.1424
20414,-23.884,-0.43941
20426,-28.565,-0.74556
20438,-26.196,-1.3146
20449,-26.121,-2.8194
20461,-27.776,-4.3667
20473,-26.641,-1.0009
20484,-26.413,-0.96741
20496,-23.858,-3.8564
20508,-23.277,-5.363
20520,-23.023,-3.2119
20531,-26.429,-3.6133
20543,-23.382,-3.2226
20555,-23.238,-5.8098
20566,-24.435,-5.3645
20578,-25.384,-3.2085
20590,-23.378,-4.0651
20602,-22.849,-7.5138
20613,-24.214,-1.7126
20625,-24.243,-0.92755
20637,-22.221,-1.1958
20648,-22.965,-0.9451
20660,-25.741,-0.82501
20672,-25.679,-3.7003
20684,-23.905,-4.147
20695,-24.643,-3.5692
20707,-24.547,-5.6531
20719,-26.51,-5.2337
20730,-24.615,-4.426
20742,-24.531,-4.5046
20754,-26.873,-0.050829
20766,-25.954,-1.3618
20777,-24.742,-1.0352
20789,-24.013,-0.13284
20801,-23.78,-0.56727
20813,-26.439,-0.44366
20824,-26.873,-3.1247
20836,-26.182,-2.649
20848,-24.241,-3.5288
20859,-22.359,-6.0844
20871,-24.49,-4.244
20883,-25.314,-0.10096
20895,-24.354,-0.86355
20906,-28.269,-1.759
20918,-25.996,-0.78067
20930,-22.237,-3.0202
20941,-22.134,-4.5398
20953,-24.547,-3.0691
20965,-26.512,-3.1863
20977,-23.926,-5.6131
20988,-22.21,-5.0015
21000,-22.44,-4.067
21012,-26.067,-3.2599
21023,-29.746,-2.228
21035,-27.077,-3.9476
21047,-25.607,-4.1414
21059,-26.915,-4.3072
21070,-30.651,-5.0338
21082,-26.529,-2.8261
21094,-24.952,-1.5111
21105,-26.139,-0.26167
21117,-25.471,0.25171
21129,-27.026,-0.31907
21141,-25.332,0.013025
21152,-25.772,-1.1428
21164,-26.559,-2.9195
21176,-22.448,-3.3817
21188,-25.754,-2.721
21199,-25.84,-3.6649
21211,-26.873,-2.1614
21223,-25.969,-1.4966
21234,-25.12,-3.5054
21246,-26.332,-4.0024
21258,-30.058,-3.223
21270,-27.812,-2.1667
21281,-26.267,-1.5267
21293,-27.616,-3.2805
21305,-26.955,-3.3724
21316,-25.103,-1.4096
21328,-26.444,-4.5896
21340,-26.68,-4.513
21352,-28.004,-4.994
21363,-30.178,-6.8547
21375,-27.629,-3.5847
21387,-25.395,-1.4477
21398,-23.421,-3.1708
21410,-24.96,-7.063
21422,-27.934,-2.5139
21434,-23.932,1.2853
21445,-24.268,-1.3881
21457,-24.914,-5.7211
21469,-26.723,-0.37972
21480,-28.176,0.61301
21492,-29.344,-2.4368
21504,-26.72,-1.3283
21516,-24.794,-4.8505
21527,-23.035,-6.4
21539,-25.052,-5.9616
21551,-26.306,-6.9423
21563,-25.135,-3.4768
21574,-26.275,-4.1719
21586,-25.693,-4.07
21598,-25.101,-0.65808
21609,-26.095,-2.6989
21621,-27.079,-1.6727
21633,-27.393,-1.9966
21645,-29.76,-3.6907
21656,-28.056,-1.6573
21668,-27.52,-2.9675
21680,-26.121,-5.0084
21691,-24.163,-4.7922
21703,-24.605,-0.41333
21715,-25.56,0.22246
21727,-27.471,-3.6825
21738,-27.514,-4.3992
21750,-28.784,-2.7072
21762,-30.105,-1.7649
21773,-26.75,-2.2445
21785,-27.483,-2.1319
21797,-27.192,-2.7361
21809,-27.242,-3.961
21820,-26.133,-2.3856
21832,-26.644,-1.502
21844,-26.539,-3.0829
21855,-25.671,-7.983
21867,-27.856,-5.2343
21879,-25.243,-2.5011
21891,-26.154,-1.5429
21902,-28.016,-0.25026
21914,-27.48,-1.7671
21926,-25.42,-0.89052
21938,-24.691,0.32584
21949,-25.098,-4.6464
21961,-26.962,-4.2022
21973,-27.319,-2.1104
21984,-26.576,-2.5037
21996,-29.546,-3.5797
22008,-26.205,-4.0182
22020,-26.577,-5.8167
22031,-26.233,-6.1111
22043,-24.092,-3.7407
22055,-24.927,-1.8378
22066,-28.706,-2.625
22078,-27.683,-3.127
22090,-25.903,-5.4933
22102,-26.437,-7.597
22113,-26.047,-6.6988
22125,-25.985,-5.1528
22137,-24.745,-5.4851
22148,-25.119,-5.1467
22160,-25.311,-3.3305
22172,-26.404,-4.9711
22184,-28.083,-2.9675
22195,-28.435,-1.8007
22207,-30.049,-1.9446
22219,-28.755,-0.45243
22230,-26.048,-1.0149
22242,-26.634,-3.4274
22254,-29.451,-3.2357
22266,-26.049,-2.2196
22277,-24.443,-1.9361
22289,-27.727,-3.338
22301,-27.308,-6.0492
22313,-25.183,-6.3085
22324,-25.142,-4.7253
22336,-26.563,-2.2821
22348,-27.73,-3.0309
22359,-26.383,-3.9021
22371,-27.447,-4.6624
22383,-26.237,-4.9968
22395,-25.98,-3.0662
22406,-29.662,-3.9046
22418,-30.118,-2.8254
22430,-28.355,-5.3372
22441,-26.753,-6.9847
22453,-26.707,-5.9217
22465,-25.413,-4.6546
22477,-28.316,-3.5517
22488,-29.957,-3.0984
22500,-29.342,-4.0799
22512,-26.233,-1.6443
22523,-26.141,-0.61342
22535,-26.811,-1.2794
22547,-28.904,-3.4973
22559,-26.429,-3.1022
22570,-27.417,-4.585
22582,-26.95,-4.3796
22594,-26.609,-4.0526
22605,-27.918,-5.3791
22617,-27.616,-4.6528
22629,-27.359,-2.0111
22641,-26.142,-4.3417
22652,-27.396,-6.9544
22664,-25.822,-3.8568
22676,-27.467,-3.3923
22688,-28.57,-2.443
22699,-27.607,-3.5103
22711,-27.906,-3.7435
22723,-30.057,-6.1685
22734,-27.018,-7.0112
22746,-25.36,-6.0318
22758,-30.573,-3.7419
22770,-28.6,-1.7388
22781,-28.312,-3.5497
22793,-28.001,-3.2339
22805,-28.677,-1.5578
22816,-29.503,-4.8302
22828,-25.838,-5.388
22840,-25.862,-4.0392
22852,-30.579,-3.2855
22863,-28.989,-4.6426
22875,-29.745,-6.8395
22887,-30.713,-7.6663
22898,-28.178,-5.9005
22910,-26.306,-6.749
22922,-27.274,-5.3566
22934,-29.19,-5.5109
22945,-30.363,-5.1326
22957,-29.248,-3.779
22969,-28.332,-6.342
22980,-26.467,-4.8004
22992,-25.232,-5.757
23004,-28.57,-6.396
23016,-30.442,-3.2546
23027,-31.024,-5.8975
23039,-30.414,-7.4211
23051,-28.346,-3.3988
23063,-27.397,-3.0174
23074,-28.214,-3.8512
23086,-28.929,-3.3491
23098,-28.665,0.038539
23109,-27.544,-0.40077
23121,-25.15,-4.073
23133,-26.558,-5.72
23145,-28.184,-6.6492
23156,-26.845,-7.9153
23168,-28.011,-5.3762
23180,-27.329,-1.7631
23191,-27.626,-1.3887
23203,-26.487,-4.7923
23215,-25.857,-3.8042
23227,-26.681,-3.6343
23238,-25.591,-6.2865
23250,-30.974,-6.3965
23262,-30.736,-3.665
23273,-25.785,-4.1225
23285,-24.819,-4.3202
23297,-28.199,-2.7699
23309,-29.01,-2.8935
23320,-30.416,-5.0856
23332,-29.14,-3.2763
23344,-29.268,-4.1762
23355,-30.605,-2.8572
23367,-29.883,-4.777
23379,-32.613,-4.7351
23391,-27.337,-3.9624
23402,-27.462,-4.8006
23414,-27.483,-2.9082
23426,-28.445,-4.7128
23438,-29.189,-5.2972
23449,-29.06,-6.528
23461,-28.104,-6.0252
23473,-30.413,-2.7887
23484,-27.185,-2.1319
23496,-24.933,-5.225
23508,-25.657,-3.5609
23520,-29.372,-3.5418
23531,-26.899,-3.7132
23543,-26.795,-4.2042
23555,-29.919,-4.1843
23566,-28.995,-2.565
23578,-28.864,-2.2295
23590,-29.194,-3.5855
23602,-27.333,-3.9415
23613,-28.06,-3.1149
23625,-26.888,-5.232
23637,-24.941,-3.4582
23648,-26.146,-1.9979
23660,-27.77,-2.6433
23672,-28.864,-2.9804
23684,-28.012,-3.4252
23695,-28.85,-6.4507
23707,-27.636,-6.3921
23719,-27.018,-6.2882
23730,-22.061,-3.7484
23742,-24.384,-5.7628
23754,-27.288,-6.0622
23766,-27.397,-3.4811
23777,-27.646,-3.731
23789,-27.419,-5.6332
23801,-28.19,-6.4154
23813,-28.669,-3.048
23824,-28.66,-3.1455
23836,-27.03,-5.3329
23848,-26.06,-0.80344
23859,-28.494,-2.7364
23871,-28.121,-1.6962
23883,-25.188,1.1245
23895,-25.582,-0.43726
23906,-28.722,-4.9216
23918,-26.75,-7.7078
23930,-27.099,-8.5491
23941,-28.101,-8.1397
23953,-28.547,-7.3934
23965,-27.247,-7.3947
23977,-30.156,-5.9592
23988,-28.868,-6.6541
