FFT,Power Spectrum
Frequency[Hz],Level-L[dB],Level-R[dB]
11.719,-23.087,-23.685
23.438,-2.9837,-4.248
35.156,-4.9801,5.1412
46.875,2.0693,8.3691
58.594,1.1348,8.9115
70.313,2.0335,10.73
82.031,5.993,13.363
93.75,10.229,15.004
105.47,12.791,17.185
117.19,9.699,15.783
128.91,8.5599,14.532
140.63,12.104,16.313
152.34,9.0438,15.42
164.06,-0.28624,18.353
175.78,4.362,14.293
187.5,8.2294,19.796
199.22,6.6521,20.387
210.94,9.2025,19.298
222.66,8.2534,21.541
234.38,7.8158,23.279
246.09,7.0454,22.546
257.81,7.7394,20.989
269.53,9.5845,20.6
281.25,11.647,20.481
292.97,9.3667,19.384
304.69,7.1043,21.096
316.41,7.6007,21.71
328.13,4.9267,22.068
339.84,4.6517,20.455
351.56,6.0541,22.323
363.28,8.4027,24.278
375,10.905,26.554
386.72,9.6025,25.187
398.44,6.7461,20.841
410.16,4.5415,20.446
421.88,6.1247,18.43
433.59,5.8658,15.983
445.31,6.7466,21.617
457.03,5.7926,23.032
468.75,4.4375,20.874
480.47,5.0472,25.473
492.19,4.4265,24.486
503.91,2.97,21.968
515.63,3.3137,20.966
527.34,3.1818,22.045
539.06,4.4038,20.669
550.78,2.4215,20.561
562.5,3.2516,19.984
574.22,5.8706,18.932
585.94,3.8302,22.715
597.66,4.6657,22.52
609.38,7.2812,19.612
621.09,6.6138,18.897
632.81,5.8444,19.395
644.53,7.0052,18.842
656.25,7.007,21.163
667.97,6.3825,23.951
679.69,8.3192,27.397
691.41,6.8265,26.152
703.13,4.265,23.873
714.84,2.7564,21.038
726.56,2.3788,23.144
738.28,5.8866,22.759
750,3.5066,24.424
761.72,0.98586,24.522
773.44,2.4726,22.375
785.16,3.1512,21.123
796.88,2.1388,23.151
808.59,3.8509,22.634
820.31,2.7904,21.998
832.03,6.4194,21.09
843.75,5.8602,20.374
855.47,3.4232,22.426
867.19,3.6287,23.386
878.91,5.7102,24.59
890.63,5.7821,23.212
902.34,8.5445,20.599
914.06,21.365,20.229
925.78,23.011,22.795
937.5,12.812,25.387
949.22,6.119,23.625
960.94,5.0681,21.072
972.66,4.7402,20.731
984.38,4.1628,23.213
996.09,6.4755,20.388
1007.8,5.5037,19.616
1019.5,3.9774,18.239
1031.3,5.7809,20.583
1043,5.9719,21.269
1054.7,4.1847,22.236
1066.4,5.1809,22.499
1078.1,5.3719,21.099
1089.8,4.2619,18.351
1101.6,4.0066,21.089
1113.3,2.699,20.395
1125,4.5226,21.271
1136.7,8.291,24.218
1148.4,6.9293,22.744
1160.2,8.2161,20.806
1171.9,8.9239,20.489
1183.6,6.4828,19.036
1195.3,5.7027,21.471
1207,6.5287,22.577
1218.8,6.3191,21.408
1230.5,7.7333,17.653
1242.2,7.1985,17.882
1253.9,3.3124,20.626
1265.6,6.5653,22.491
1277.3,3.6689,22.759
1289.1,6.4766,19.621
1300.8,5.8699,21.12
1312.5,4.6532,22.142
1324.2,1.6076,20.999
1335.9,4.3088,20.168
1347.7,4.7683,17.581
1359.4,3.7764,17.213
1371.1,5.7714,20.497
1382.8,5.2426,23.53
1394.5,5.5723,22.401
1406.3,4.5385,19.987
1418,6.1192,22.37
1429.7,6.2968,21.786
1441.4,4.6339,18.718
1453.1,4.2635,18.049
1464.8,5.663,18.806
1476.6,5.0111,21.26
1488.3,3.8993,20.973
1500,6.1983,21.164
1511.7,7.5507,21.151
1523.4,7.0744,21.562
1535.2,5.5314,21.284
1546.9,3.3738,17.879
1558.6,3.1806,21.733
1570.3,4.7605,23.96
1582,4.5573,21.075
1593.8,4.0034,17.835
1605.5,3.8749,17.527
1617.2,3.0231,20.063
1628.9,3.3706,21.622
1640.6,2.9255,18.331
1652.3,2.4096,20.185
1664.1,2.9924,23.909
1675.8,2.3675,21.024
1687.5,1.6324,15.47
1699.2,2.4677,18.122
1710.9,4.7319,18.919
1722.7,6.0135,19.095
1734.4,1.8515,18.214
1746.1,3.5571,18.388
1757.8,4.7746,16.737
1769.5,5.7935,16.387
1781.3,4.381,19.126
1793,4.0895,20.683
1804.7,5.371,20.35
1816.4,7.3195,22.079
1828.1,5.5564,22.375
1839.8,-0.00092244,19.849
1851.6,4.9892,20.445
1863.3,3.9978,21.473
1875,1.4098,20.759
1886.7,0.66675,20.254
1898.4,0.84473,17.497
1910.2,1.9403,16.927
1921.9,3.1123,19.313
1933.6,2.9483,19.276
1945.3,3.493,19.7
1957,2.4318,20.06
1968.8,2.7759,16.91
1980.5,2.7175,19.273
1992.2,2.4586,23.73
2003.9,4.6014,21.38
2015.6,4.7949,19.481
2027.3,4.2678,20.013
2039.1,4.1666,18.574
2050.8,2.9546,16.702
2062.5,3.033,20.009
2074.2,2.6585,20.812
2085.9,1.703,19.369
2097.7,1.3475,19.268
2109.4,0.58397,16.722
2121.1,0.033605,15.503
2132.8,0.34174,18.26
2144.5,1.2105,16.494
2156.3,3.2947,16.664
2168,2.6254,20.605
2179.7,2.1671,21.512
2191.4,-2.2518,21.397
2203.1,-2.0986,17.452
2214.8,1.9499,14.036
2226.6,0.75997,17.189
2238.3,0.38747,17.896
2250,2.0136,16.704
2261.7,-0.88205,17.325
2273.4,-1.9354,16.143
2285.2,-0.38466,13.983
2296.9,3.4597,17.815
2308.6,3.3683,20.121
2320.3,1.8432,18.788
2332,0.32815,21.028
2343.8,-2.7553,20.782
2355.5,-1.2586,19.481
2367.2,-1.3584,17.806
2378.9,2.7527,17.839
2390.6,2.9255,17.036
2402.3,-0.35174,13.906
2414.1,0.80902,17.732
2425.8,2.4076,20.146
2437.5,1.7364,19.232
2449.2,2.0874,18.452
2460.9,-0.3118,18.187
2472.7,-2.7443,20.253
2484.4,-2.3356,20.192
2496.1,-0.13812,19.041
2507.8,1.2258,17.09
2519.5,1.0791,16.45
2531.3,0.84384,20.912
2543,0.97233,22.387
2554.7,-1.8313,24.373
2566.4,-1.6712,21.899
2578.1,-3.4785,18.663
2589.8,-2.0218,16.971
2601.6,-3.4113,18.005
2613.3,0.35379,18.078
2625,2.3347,18.082
2636.7,0.65309,18.17
2648.4,-0.70164,18.218
2660.2,2.0371,16.677
2671.9,2.9172,16.83
2683.6,0.51827,15.831
2695.3,-0.64727,14.897
2707,-1.6995,18.659
2718.8,-0.88747,18.385
2730.5,0.70643,15.839
2742.2,-1.1912,16.183
2753.9,-1.1344,17.686
2765.6,1.0018,19.763
2777.3,0.50209,18.301
2789.1,-2.1113,18.555
2800.8,-1.081,17.594
2812.5,1.4886,15.343
2824.2,1.7619,15.617
2835.9,1.8985,19.051
2847.7,2.3928,17.659
2859.4,0.6938,15.258
2871.1,1.5644,18.494
2882.8,1.4688,17.928
2894.5,0.34964,16.258
2906.3,0.34848,17.483
2918,-2.4303,17.42
2929.7,-1.9306,16.238
2941.4,-0.14122,16.691
2953.1,-0.96693,16.443
2964.8,2.9164,17.182
2976.6,1.4403,16.267
2988.3,-2.9498,17.151
3000,-0.96303,15.961
3011.7,2.6552,17.797
3023.4,1.496,17.824
3035.2,-2.7694,15.964
3046.9,0.26299,18.552
3058.6,1.7904,17.066
3070.3,-1.2588,17.408
3082,0.4519,18.859
3093.8,-1.0628,16.269
3105.5,-1.9096,18.767
3117.2,0.16821,16.484
3128.9,-0.24567,15.036
3140.6,1.3651,15.387
3152.3,1.6459,16.04
3164.1,-2.282,17.723
3175.8,-2.0026,15.24
3187.5,-2.9537,16.607
3199.2,-0.45856,17.419
3210.9,0.88705,16.745
3222.7,0.46902,15.262
3234.4,2.4304,15.406
3246.1,2.416,15.555
3257.8,-1.5804,16.514
3269.5,-3.3503,16.598
3281.3,-1.888,13.859
3293,-3.0763,11.948
3304.7,-3.3101,14.418
3316.4,0.56868,15.126
3328.1,2.9147,16.39
3339.8,2.2288,13.754
3351.6,2.2868,11.921
3363.3,0.82111,14.423
3375,-2.3098,15.166
3386.7,-0.63485,15.671
3398.4,0.32547,17.127
3410.2,0.68607,15.659
3421.9,-0.2657,14.589
3433.6,1.2767,17.066
3445.3,1.8321,15.944
3457,-3.4957,18.032
3468.8,-1.8281,18.02
3480.5,-2.4275,15.361
3492.2,-1.0953,16.486
3503.9,2.6699,16.751
3515.6,2.5143,14.856
3527.3,1.3496,10.932
3539.1,0.48026,12.623
3550.8,-0.39289,16.937
3562.5,-0.19321,17.134
3574.2,0.43858,15.746
3585.9,-5.1833,15.069
3597.7,-2.5688,14.145
3609.4,-1.164,13.827
3621.1,-1.2219,14.945
3632.8,-0.080829,16.081
3644.5,-0.96373,19.541
3656.3,-5.9804,19.499
3668,-0.48498,17.622
3679.7,-1.3354,13.11
3691.4,-1.6327,13.998
3703.1,0.18953,14.305
3714.8,0.053032,14.257
3726.6,0.16425,14.408
3738.3,-2.4789,15.414
3750,0.47689,16.489
3761.7,0.27996,16.024
3773.4,0.040933,16.808
3785.2,0.8243,14.364
3796.9,-0.34392,14.222
3808.6,-2.7457,15.425
3820.3,-1.2317,12.374
3832,-0.49798,13.314
3843.8,-3.1098,15.267
3855.5,-3.199,15.537
3867.2,-0.087659,11.77
3878.9,1.0896,13.789
3890.6,0.85268,15.096
3902.3,-0.64383,16.027
3914.1,-3.8627,15.667
3925.8,-4.6755,15.873
3937.5,-0.98357,14.013
3949.2,0.8088,15.269
3960.9,0.70799,12.545
3972.7,-1.853,17.372
3984.4,-2.4594,17.401
3996.1,-1.4488,11.731
4007.8,-3.7346,10.737
4019.5,-3.6977,13.032
4031.3,-1.6873,13.231
4043,-1.206,14.379
4054.7,-3.7204,11.958
4066.4,-3.1283,12.289
4078.1,-1.5579,15.128
4089.8,-1.807,17.918
4101.6,-4.8015,17.347
4113.3,-4.2908,15.047
4125,-3.6666,15.653
4136.7,-3.6828,15.28
4148.4,-2.71,12.46
4160.2,-2.9491,12.335
4171.9,-2.1245,16.105
4183.6,-2.0682,14.219
4195.3,-0.52405,12.135
4207,0.15953,15.243
4218.8,-2.6612,16.941
4230.5,-3.8552,16.265
4242.2,-5.3921,15.125
4253.9,-7.4492,16.765
4265.6,-3.0999,14.165
4277.3,0.032997,13.101
4289.1,-1.083,12.402
4300.8,-4.3996,14.228
4312.5,-2.274,14.624
4324.2,-3.0112,14.156
4335.9,-2.1457,15.646
4347.7,1.14,14.418
4359.4,0.64078,10.756
4371.1,-1.5783,15.066
4382.8,-3.0676,15.214
4394.5,-2.6846,16.044
4406.3,-1.2721,11.758
4418,-1.189,12.32
4429.7,-1.7053,15.201
4441.4,-1.1961,14.649
4453.1,-2.0992,12.073
4464.8,-4.3148,12.201
4476.6,-3.8133,17.179
4488.3,-4.7182,16.87
4500,-1.7163,15.719
4511.7,-3.0472,16.131
4523.4,-2.5889,12.862
4535.2,-2.7401,14.476
4546.9,-4.2952,15.586
4558.6,-3.2224,13.139
4570.3,-1.7762,11.983
4582,-1.0084,13.755
4593.8,-5.8882,14.914
4605.5,-3.5217,13.195
4617.2,-2.4359,13.657
4628.9,-1.772,14.681
4640.6,-1.9876,12.684
4652.3,-3.7175,15.925
4664.1,-4.7789,13.997
4675.8,-3.768,17.484
4687.5,-4.7903,15.098
4699.2,-5.1478,13.108
4710.9,-2.7669,13.012
4722.7,-3.5644,10.968
4734.4,-2.5045,14.8
4746.1,-3.8291,13.249
4757.8,-4.5522,12.888
4769.5,-2.1669,13.029
4781.3,-3.6857,14.358
4793,-3.0785,14.858
4804.7,-0.9518,14.473
4816.4,-3.1768,13.11
4828.1,-2.3974,11.921
4839.8,-2.369,13.99
4851.6,-6.0834,15.107
4863.3,-2.1291,13.808
4875,-3.745,13.218
4886.7,-3.9009,13.596
4898.4,-1.7391,14.758
4910.2,-2.6278,14.759
4921.9,-2.531,10.211
4933.6,-2.6054,10.017
4945.3,-1.8236,12.149
4957,-2.3544,12.354
4968.8,-4.4756,11.545
4980.5,-5.4802,13.419
4992.2,-3.3764,15.729
5003.9,-3.9995,13.56
5015.6,-3.2816,13.135
5027.3,-1.5348,14.401
5039.1,-3.0988,15.192
5050.8,-3.8679,15.06
5062.5,-4.641,12.207
5074.2,-3.5414,11.605
5085.9,-4.3127,12.924
5097.7,-1.7062,11.663
5109.4,-0.42492,10.091
5121.1,-2.6061,12.909
5132.8,-4.0077,12.417
5144.5,-4.8521,13.212
5156.3,-6.6199,11.884
5168,-5.3023,13.725
5179.7,-5.2719,13.364
5191.4,-3.2306,10.818
5203.1,-3.0295,13.334
5214.8,-3.743,12.687
5226.6,-2.8695,12.742
5238.3,-1.6082,12.623
5250,-6.6925,10.647
5261.7,-5.767,12.104
5273.4,-3.7794,11.768
5285.2,-6.8603,12.218
5296.9,-6.4213,11.173
5308.6,-3.4797,12.333
5320.3,-6.0329,13.939
5332,-6.2867,13.163
5343.8,-6.7979,15.156
5355.5,-4.7122,15.654
5367.2,-2.8102,11.865
5378.9,-3.124,9.1525
5390.6,-6.6153,9.7897
5402.3,-5.1412,9.1949
5414.1,-5.852,12.502
5425.8,-4.0497,13.852
5437.5,-5.3491,12.911
5449.2,-5.087,10.804
5460.9,-6.3692,14.393
5472.7,-6.0076,15.206
5484.4,-3.8661,10.893
5496.1,-3.6072,10.557
5507.8,-7.1432,12.407
5519.5,-4.987,14.596
5531.3,-6.28,14.1
5543,-5.346,12.942
5554.7,-6.0442,13.959
5566.4,-3.8788,14.611
5578.1,-3.0378,13.503
5589.8,-9.5548,13.485
5601.6,-4.0325,11.531
5613.3,-5.5803,11.082
5625,-7.2602,11.375
5636.7,-6.5748,10.145
5648.4,-4.2065,8.7598
5660.2,-4.0706,11.44
5671.9,-4.2088,14.229
5683.6,-4.9816,11.853
5695.3,-5.737,10.477
5707,-6.0851,11.324
5718.8,-7.7133,11.712
5730.5,-6.4419,13.898
5742.2,-5.5812,13.4
5753.9,-5.5393,10.468
5765.6,-5.1025,12.116
5777.3,-6.1032,10.569
5789.1,-5.1316,12.853
5800.8,-2.8057,10.333
5812.5,-4.5742,11.727
5824.2,-7.6441,12.974
5835.9,-7.5101,12.402
5847.7,-7.1723,10.616
5859.4,-5.7797,9.5493
5871.1,-4.5293,10.032
5882.8,-3.9238,12.87
5894.5,-4.4173,11.672
5906.3,-3.6301,9.1107
5918,-5.2422,8.9683
5929.7,-6.9197,7.7729
5941.4,-4.6357,11.19
5953.1,-1.4196,10.561
5964.8,-4.7575,10.197
5976.6,-4.3963,8.9335
5988.3,-5.0103,8.3929
6000,-5.3697,9.4694
6011.7,-3.5264,11.277
6023.4,-4.2183,11.004
6035.2,-4.8267,10.662
6046.9,-6.0794,12.878
6058.6,-7.9903,13.366
6070.3,-6.8071,13.004
6082,-4.0593,14.409
6093.8,-5.229,14.89
6105.5,-5.9421,14.724
6117.2,-4.272,13.686
6128.9,-4.235,11.626
6140.6,-3.759,13.066
6152.3,-3.7368,14.378
6164.1,-4.565,10.719
6175.8,-8.1411,12.078
6187.5,-4.5268,11.624
6199.2,-2.9212,12.679
6210.9,-3.8986,13.952
6222.7,-4.5979,12.945
6234.4,-4.3304,10.721
6246.1,-5.9505,11.162
6257.8,-6.4157,11.558
6269.5,-7.5185,13.551
6281.3,-5.3388,16.921
6293,-4.3751,13.116
6304.7,-4.9855,11.199
6316.4,-5.2051,10.832
6328.1,-4.1677,12.777
6339.8,-3.4012,15.441
6351.6,-3.7098,15.366
6363.3,-5.6743,12.51
6375,-5.7374,11.123
6386.7,-3.3977,11.078
6398.4,-5.9563,13.171
6410.2,-5.2695,10.027
6421.9,-5.3629,8.1022
6433.6,-9.4953,8.0376
6445.3,0.44693,9.5638
6457,2.024,12.377
6468.8,-5.4697,13.007
6480.5,-5.3307,11.705
6492.2,-5.6829,10.089
6503.9,-4.2393,12.36
6515.6,-4.5216,11.71
6527.3,-5.162,9.8705
6539.1,-3.935,8.8176
6550.8,-5.0146,7.6084
6562.5,-8.3123,7.4693
6574.2,-8.2839,7.5497
6585.9,-8.9218,8.8189
6597.7,-9.4788,11.354
6609.4,-9.5513,10.756
6621.1,-10.9,8.6286
6632.8,-7.114,13.758
6644.5,-6.5942,15.107
6656.3,-5.618,13.077
6668,-4.076,13.688
6679.7,-2.8587,13.984
6691.4,-4.8373,12.082
6703.1,-8.7255,11.54
6714.8,-7.9403,11.754
6726.6,-7.713,12.032
6738.3,-7.4641,11.174
6750,-5.1982,9.1329
6761.7,-6.0262,10.857
6773.4,-8.6288,11.82
6785.2,-5.6803,10.182
6796.9,-3.2578,9.0404
6808.6,-9.3211,9.1993
6820.3,-6.0501,12.485
6832,-5.0925,9.8324
6843.8,-6.2341,9.6851
6855.5,-9.4581,12.726
6867.2,-9.6091,11.188
6878.9,-8.6389,11.332
6890.6,-7.2824,9.527
6902.3,-4.1516,10.092
6914.1,-5.4635,12.346
6925.8,-7.3201,8.6969
6937.5,-4.9784,11.773
6949.2,-3.5405,13.402
6960.9,-4.6513,12.682
6972.7,-6.5567,12.639
6984.4,-6.5605,10.727
6996.1,-8.4687,11.084
7007.8,-10.829,11.682
7019.5,-9.3098,9.697
7031.3,-8.0029,7.4928
7043,-7.5744,8.3895
7054.7,-5.2051,9.5268
7066.4,-5.7514,11.074
7078.1,-7.9038,8.9135
7089.8,-7.7441,7.371
7101.6,-7.6867,7.6301
7113.3,-8.2924,7.6069
7125,-8.8283,11.384
7136.7,-5.304,10.922
7148.4,-5.8488,9.7127
7160.2,-6.6724,8.4107
7171.9,-7.4704,7.7454
7183.6,-6.9766,7.5856
7195.3,-6.7319,11.702
7207,-11.191,11.679
7218.8,-7.9719,10.965
7230.5,-7.5578,10.739
7242.2,-8.3126,11.306
7253.9,-7.2906,10.523
7265.6,-10.139,8.9749
7277.3,-8.6837,6.9773
7289.1,-7.3567,6.8514
7300.8,-6.5543,7.6661
7312.5,-7.2202,10.865
7324.2,-7.4811,11.194
7335.9,-7.2827,11.37
7347.7,-8.3926,10.544
7359.4,-6.0893,8.3562
7371.1,-6.6938,5.8743
7382.8,-6.5844,9.6439
7394.5,-4.7303,13.655
7406.3,-4.8556,12.693
7418,-6.0398,9.4824
7429.7,-5.0552,8.8445
7441.4,-6.8737,10.13
7453.1,-7.8328,11.027
7464.8,-7.692,14.038
7476.6,-7.6452,11.999
7488.3,-6.8374,9.4577
7500,-8.4986,11.056
7511.7,-6.3598,11.254
7523.4,-2.7076,10.024
7535.2,-6.0689,9.3593
7546.9,-6.6771,9.2289
7558.6,-8.5838,7.9638
7570.3,-10.591,9.7399
7582,-8.8644,9.8353
7593.8,-8.3304,6.8987
7605.5,-9.1341,7.6437
7617.2,-6.6025,8.5922
7628.9,-8.2956,11.158
7640.6,-9.4074,10.923
7652.3,-7.1948,10.096
7664.1,-7.1906,8.8603
7675.8,-5.0122,9.2374
7687.5,-6.9632,9.5652
7699.2,-7.8946,11.953
7710.9,-9.1143,11.293
7722.7,-8.5468,8.722
7734.4,-10.208,7.012
7746.1,-9.9798,8.8928
7757.8,-11.622,10.208
7769.5,-12.519,8.3427
7781.3,-10.293,8.7005
7793,-9.486,8.9091
7804.7,-10.482,12.357
7816.4,-8.088,14.277
7828.1,-7.1676,9.2294
7839.8,-8.1125,10.498
7851.6,-9.9001,11.872
7863.3,-8.6225,12.552
7875,-7.4358,12.077
7886.7,-8.5131,8.3866
7898.4,-9.7551,8.5184
7910.2,-8.0249,6.4017
7921.9,-7.3366,4.5967
7933.6,-7.6923,5.5867
7945.3,-6.9833,8.0785
7957,-8.2162,8.0617
7968.8,-9.6414,6.7536
7980.5,-8.0324,6.2462
7992.2,-8.8248,11.218
8003.9,-9.1248,11.945
8015.6,-9.2874,8.679
8027.3,-9.4739,7.6983
8039.1,-9.9151,8.7442
8050.8,-8.5694,13.163
8062.5,-7.5879,10.151
8074.2,-6.6291,9.2783
8085.9,-10.925,10.59
8097.7,-8.8486,8.109
8109.4,-7.2302,4.6379
8121.1,-6.9001,5.263
8132.8,-7.914,8.2762
8144.5,-12.383,9.6396
8156.3,-8.4201,11.053
8168,-8.8599,9.2894
8179.7,-8.8977,6.5005
8191.4,-8.2727,7.6464
8203.1,-7.9353,10.043
8214.8,-12.491,9.8584
8226.6,-10.505,9.2428
8238.3,-10.139,8.1967
8250,-9.4701,9.6981
8261.7,-8.0484,8.9782
8273.4,-10.663,8.7585
8285.2,-10.575,8.9839
8296.9,-8.1818,8.7129
8308.6,-9.717,6.0819
8320.3,-8.888,8.7547
8332,-10.351,10.64
8343.8,-10.373,5.2461
8355.5,-11.709,8.31
8367.2,-11.366,7.8691
8378.9,-7.4681,8.4658
8390.6,-7.1862,10.558
8402.3,-9.2172,9.7284
8414.1,-7.8848,8.7153
8425.8,-9.8825,10.458
8437.5,-11.624,7.4217
8449.2,-11.087,4.4413
8460.9,-10.536,7.847
8472.7,-11.987,9.115
8484.4,-10.703,7.4945
8496.1,-10.377,6.0931
8507.8,-8.7406,7.3264
8519.5,-10.371,7.7579
8531.3,-9.5225,8.3406
8543,-11.265,7.9731
8554.7,-11.634,9.6444
8566.4,-11.05,10.454
8578.1,-10.112,11.504
8589.8,-6.4681,10.481
8601.6,-6.7133,8.1473
8613.3,-8.5031,6.8689
8625,-8.0621,7.2373
8636.7,-9.4827,8.51
8648.4,-13.214,8.1086
8660.2,-11.67,8.9444
8671.9,-9.4736,10.384
8683.6,-8.8841,7.4855
8695.3,-8.7289,7.3327
8707,-9.2477,4.7622
8718.8,-7.3319,4.0453
8730.5,-6.7947,3.469
8742.2,-9.6698,9.4013
8753.9,-10.389,10.15
8765.6,-7.3858,10.826
8777.3,-6.8353,8.8188
8789.1,-9.6116,8.3226
8800.8,-11.2,8.8581
8812.5,-10.23,9.0885
8824.2,-10.039,7.804
8835.9,-9.0734,8.2072
8847.7,-10.622,5.8641
8859.4,-12.613,6.3226
8871.1,-6.749,10.051
8882.8,-5.8587,9.6819
8894.5,-8.2089,8.7775
8906.3,-4.8766,9.0621
8918,-7.8554,8.3813
8929.7,-8.7568,6.5262
8941.4,-7.2505,5.4315
8953.1,-10.017,8.5663
8964.8,-10.974,11.303
8976.6,-11.365,11.353
8988.3,-9.5228,6.4633
9000,-6.7453,9.1554
9011.7,-6.2549,8.827
9023.4,-6.6045,7.5096
9035.2,-7.7059,7.8623
9046.9,-7.7017,7.6382
9058.6,-10.07,4.6835
9070.3,-10.787,6.9816
9082,-10.976,7.8543
9093.8,-8.3963,7.2805
9105.5,-8.4735,2.3466
9117.2,-9.9726,7.8446
9128.9,-12.046,8.3435
9140.6,-10.537,4.7837
9152.3,-9.2549,2.9261
9164.1,-8.1802,7.972
9175.8,-9.5718,10.589
9187.5,-11.212,10.284
9199.2,-13.711,10.748
9210.9,-12.39,6.5
9222.7,-10.369,6.6128
9234.4,-10.899,7.5665
9246.1,-9.1804,9.7512
9257.8,-10.084,9.4127
9269.5,-11.395,8.5329
9281.3,-10.945,6.5417
9293,-10.695,10
9304.7,-8.6532,9.6851
9316.4,-9.0042,8.2878
9328.1,-10.798,7.1707
9339.8,-9.4389,4.4846
9351.6,-10.696,6.1522
9363.3,-10.951,7.5984
9375,-12.898,5.3441
9386.7,-14.364,4.6833
9398.4,-11.923,5.9435
9410.2,-11.718,9.1914
9421.9,-13.514,10.914
9433.6,-11.198,8.4923
9445.3,-9.7937,7.1922
9457,-10.666,5.6254
9468.8,-12.206,7.4504
9480.5,-11.032,7.3105
9492.2,-10.183,7.8636
9503.9,-9.6834,7.3265
9515.6,-8.4902,5.849
9527.3,-9.6447,6.715
9539.1,-12.327,7.8009
9550.8,-9.624,7.2356
9562.5,-7.8387,4.2748
9574.2,-7.5968,5.559
9585.9,-8.8722,5.5725
9597.7,-8.0324,5.6102
9609.4,-7.4573,5.8676
9621.1,-12.034,4.9847
9632.8,-12.395,7.0351
9644.5,-9.0156,6.1169
9656.3,-8.3145,5.8942
9668,-9.9528,5.1948
9679.7,-11.852,8.3337
9691.4,-10.892,8.532
9703.1,-10.69,9.3275
9714.8,-10.155,8.25
9726.6,-9.5121,6.8552
9738.3,-11.083,9.1456
9750,-10.487,8.5443
9761.7,-9.9902,5.9356
9773.4,-11.013,5.5939
9785.2,-8.7399,5.6439
9796.9,-9.4126,6.3428
9808.6,-10.321,6.7911
9820.3,-12.413,9.7715
9832,-11.903,5.8759
9843.8,-12.176,6.4602
9855.5,-13.64,7.1128
9867.2,-12.515,3.6777
9878.9,-10.443,4.5728
9890.6,-11.429,6.4824
9902.3,-11.2,5.7224
9914.1,-11.691,7.0359
9925.8,-12.799,6.4032
9937.5,-12.887,5.5671
9949.2,-13.285,5.5339
9960.9,-14.717,7.4153
9972.7,-13.87,7.3102
9984.4,-13.091,4.7
9996.1,-14.828,6.6955
10008,-11.172,6.1084
10020,-8.9816,5.3143
10031,-7.8377,6.3695
10043,-9.5848,5.8553
10055,-9.7379,6.2304
10066,-11.338,4.449
10078,-12.702,5.8787
10090,-12.172,8.5634
10102,-11.238,7.1611
10113,-9.4796,5.1943
10125,-8.9166,7.6199
10137,-10.87,6.2199
10148,-12.825,4.5983
10160,-9.3996,0.51301
10172,-9.2285,7.267
10184,-10.508,9.5219
10195,-8.9269,6.5331
10207,-12.553,7.1525
10219,-10.527,7.6213
10230,-10.359,7.5198
10242,-10.743,6.3685
10254,-12.282,6.4026
10266,-11.985,7.9658
10277,-10.832,7.3302
10289,-12.465,5.1197
10301,-13.677,4.7509
10313,-10.226,4.0182
10324,-9.5325,6.9866
10336,-11.573,5.8194
10348,-12.094,4.0145
10359,-10.022,3.8869
10371,-8.2252,4.8464
10383,-9.8674,5.7489
10395,-9.7049,6.2117
10406,-8.9357,6.1919
10418,-11.817,2.9646
10430,-12.791,4.4651
10441,-12.311,6.2104
10453,-10.665,6.7419
10465,-10.947,8.4148
10477,-10.617,7.7753
10488,-10.919,6.3966
10500,-14.28,3.7082
10512,-11.081,5.1505
10523,-13.988,5.9407
10535,-12.535,6.5383
10547,-12.128,4.1035
10559,-9.9897,6.1452
10570,-10.312,6.2306
10582,-12.694,3.775
10594,-12.301,4.3744
10605,-14.047,4.0085
10617,-14.678,5.7791
10629,-11.925,3.8327
10641,-10.567,-0.63952
10652,-12.894,2.8192
10664,-16.76,5.3235
10676,-11.929,5.6059
10688,-11.944,5.8847
10699,-13.147,5.8606
10711,-12.225,3.9733
10723,-10.394,3.1892
10734,-11.654,5.3187
10746,-14.375,5.6206
10758,-11.857,2.8712
10770,-11.854,1.0114
10781,-11.774,3.7205
10793,-11.121,5.5177
10805,-13.248,5.8645
10816,-14.825,5.0509
10828,-12.043,5.1968
10840,-12.13,4.7542
10852,-12.272,5.2327
10863,-12.797,3.0843
10875,-13.791,4.0104
10887,-10.92,6.3834
10898,-7.9419,5.5806
10910,-11.225,3.611
10922,-12.377,4.5494
10934,-11.256,4.9757
10945,-15.815,5.5465
10957,-12.867,8.1985
10969,-12.282,6.7217
10980,-11.435,5.1152
10992,-10.563,1.5724
11004,-11.407,1.4643
11016,-13.809,4.6856
11027,-11.942,3.4434
11039,-14.049,4.1892
11051,-13.765,5.0258
11063,-12.309,7.3416
11074,-11.306,6.8164
11086,-9.7775,2.159
11098,-10.711,5.3698
11109,-13.171,8.3048
11121,-12.298,8.5374
11133,-12.886,5.2496
11145,-10.851,5.8643
11156,-12.192,4.3547
11168,-12.483,5.7416
11180,-14.206,4.9885
11191,-11.534,7.2733
11203,-11.94,8.7683
11215,-10.435,4.1352
11227,-14.384,2.9786
11238,-17.289,3.8018
11250,-14.065,4.8956
11262,-13.745,1.7951
11273,-11.333,2.9911
11285,-12.537,3.4605
11297,-14.63,4.229
11309,-15.872,2.9957
11320,-14.706,4.4418
11332,-13.503,5.7852
11344,-13.011,6.9548
11355,-12.087,5.9335
11367,-11.653,4.468
11379,-11.498,5.4664
11391,-13.574,5.7112
11402,-12.103,5.803
11414,-12.15,6.2794
11426,-12.611,7.0287
11438,-12.81,5.6963
11449,-11.964,2.7911
11461,-10.832,2.4354
11473,-13.195,4.2989
11484,-12.157,6.284
11496,-10.443,5.0648
11508,-11.288,3.7163
11520,-10.784,4.0104
11531,-11.835,3.1146
11543,-13.021,3.9196
11555,-12.512,2.8697
11566,-14.375,4.9709
11578,-10.813,5.2202
11590,-10.364,3.7697
11602,-12.434,4.7833
11613,-14.247,6.205
11625,-9.219,4.8767
11637,-10.258,5.3774
11648,-12.504,6.6096
11660,-11.306,6.2544
11672,-11.782,4.6706
11684,-11.946,7.2679
11695,-12.326,5.4384
11707,-11.801,5.6762
11719,-12.844,4.8761
11730,-14.7,3.1726
11742,-13.977,-1.0614
11754,-13.112,1.555
11766,-14.039,1.5728
11777,-12.465,3.3132
11789,-9.0298,5.6611
11801,-11.49,2.6246
11813,-12.596,2.7909
11824,-13.821,4.6555
11836,-15.374,6.8181
11848,-13.295,6.2192
11859,-15.101,6.2244
11871,-14.003,4.1477
11883,-14.193,5.3448
11895,-13.722,5.0706
11906,-12.747,3.4888
11918,-12.287,0.023565
11930,-12.235,4.6486
11941,-9.7073,4.1962
11953,-9.4486,4.0073
11965,-11.973,2.0042
11977,-4.2491,3.4505
11988,-3.344,5.0761
12000,-11.627,2.9239
12012,-10.484,2.5451
12023,-10.072,-0.33325
12035,-9.7376,2.1664
12047,-11.158,6.305
12059,-11.539,6.4269
12070,-10.022,3.4717
12082,-12.659,0.5513
12094,-13.571,3.1447
12105,-14.919,3.6445
12117,-11.035,3.484
12129,-10.309,2.5747
12141,-11.135,1.7311
12152,-10.187,6.3213
12164,-12.504,7.179
12176,-13.812,5.9485
12188,-14.932,4.6505
12199,-12.867,3.3935
12211,-10.552,2.9331
12223,-12.81,2.1267
12234,-11.802,1.9749
12246,-14.382,1.7118
12258,-11.046,2.8667
12270,-11.581,2.9834
12281,-13.928,3.7895
12293,-15.237,3.052
12305,-12.16,2.8793
12316,-10.193,3.8027
12328,-11.165,5.4768
12340,-11.837,2.8612
12352,-13.448,4.5633
12363,-12.842,4.395
12375,-13.492,4.6177
12387,-13.308,3.5285
12398,-15.261,4.0195
12410,-13.436,5.8977
12422,-12.397,6.4636
12434,-12.745,6.1983
12445,-11.332,3.7265
12457,-11.505,4.0353
12469,-14.542,3.9313
12480,-12.868,3.928
12492,-12.463,5.8765
12504,-15.638,2.6803
12516,-13.76,3.0264
12527,-13.076,3.732
12539,-13.939,4.0711
12551,-13.678,3.6468
12563,-13.697,3.4527
12574,-12.788,3.3276
12586,-11.292,5.3728
12598,-15.21,5.3827
12609,-11.624,2.3889
12621,-15.515,3.3059
12633,-13.243,3.5949
12645,-13.073,1.1052
12656,-11.888,-0.50475
12668,-12.456,1.6594
12680,-15.09,5.3984
12691,-14.436,6.2573
12703,-14.469,6.9718
12715,-10.73,6.9012
12727,-14.08,4.9513
12738,-13.223,4.3541
12750,-13.308,3.1197
12762,-11.923,3.5469
12773,-13.36,1.7024
12785,-13.641,4.8699
12797,-15.598,5.2139
12809,-12.622,4.518
12820,-12.844,2.0991
12832,-14.964,3.558
12844,-14.853,4.552
12855,-16.358,2.3323
12867,-14.696,1.7168
12879,-11.723,3.2027
12891,-10.092,3.1813
12902,-11.127,0.28835
12914,-11.065,2.849
12926,-9.202,2.105
12938,-9.7028,3.6007
12949,-10.486,4.5339
12961,-10.745,5.5407
12973,-9.6029,3.5919
12984,-10.824,-0.76532
12996,-13.01,1.6996
13008,-12.412,2.7735
13020,-12.908,1.6693
13031,-14.601,2.4579
13043,-13.493,4.8522
13055,-13.691,5.2859
13066,-15.206,6.6273
13078,-14.847,3.2728
13090,-12.726,4.2991
13102,-11.934,6.0214
13113,-15.38,3.1521
13125,-13.548,3.4738
13137,-15.822,4.5813
13148,-15.982,4.3868
13160,-14.535,4.8075
13172,-13.137,4.9722
13184,-11.441,3.7318
13195,-14.381,1.7457
13207,-16.873,0.94203
13219,-12.475,1.4452
13230,-12.581,1.4761
13242,-16.365,2.0409
13254,-17.253,0.8235
13266,-14.821,2.541
13277,-15.357,4.1365
13289,-15.327,3.9996
13301,-14.272,4.1904
13313,-15.84,3.6472
13324,-13.54,4.345
13336,-13.768,5.0557
13348,-13.454,3.9618
13359,-11.844,2.9083
13371,-14.209,0.82461
13383,-14.248,2.2884
13395,-16.038,2.0956
13406,-17.897,0.64854
13418,-14.373,2.8153
13430,-12.7,4.4178
13441,-16.045,4.1726
13453,-16.792,1.2096
13465,-14.592,-0.26938
13477,-11.832,2.9658
13488,-11.613,2.8518
13500,-12.172,4.4047
13512,-11.37,2.3797
13523,-13.961,-0.079145
13535,-15.184,-1.3892
13547,-12.991,2.0577
13559,-12.742,4.2251
13570,-16.323,3.5839
13582,-12.808,4.0933
13594,-12.371,4.0102
13605,-12.648,4.2524
13617,-12.712,3.0378
13629,-14.127,5.1635
13641,-14.318,2.9724
13652,-13.484,-0.62188
13664,-13.355,0.67758
13676,-13.039,2.0659
13688,-15.172,2.4489
13699,-14.447,4.0972
13711,-14.673,3.6802
13723,-13.103,1.9247
13734,-13.243,0.27457
13746,-15.559,2.7597
13758,-14.919,4.178
13770,-14.598,2.7396
13781,-15.573,5.2099
13793,-14.868,3.8214
13805,-15.082,4.476
13816,-12.44,5.0684
13828,-11.076,6.2942
13840,-15.028,1.8877
13852,-12.548,-0.31006
13863,-12.808,4.1491
13875,-15.183,2.5692
13887,-15.281,1.7838
13898,-16.122,1.8326
13910,-15.602,3.4022
13922,-15.712,3.5928
13934,-15.018,-0.19738
13945,-13.51,2.4282
13957,-15.358,1.5767
13969,-13.488,1.9492
13980,-13.942,3.2986
13992,-13.944,2.0105
14004,-15.443,-0.67381
14016,-12.9,-1.2337
14027,-13.531,0.01152
14039,-17.763,1.6173
14051,-16.953,1.0081
14063,-10.472,2.1236
14074,-11.727,3.6255
14086,-14.582,4.6518
14098,-12.124,5.4047
14109,-12.479,2.2351
14121,-14.306,0.60549
14133,-20.979,1.5936
14145,-17.283,2.1652
14156,-15.154,4.5188
14168,-15.825,1.9623
14180,-12.351,1.0012
14191,-11.703,1.0163
14203,-13.215,-1.1884
14215,-14.19,0.72024
14227,-12.654,2.3125
14238,-13.012,2.5293
14250,-14.209,4.437
14262,-12.932,3.4226
14273,-16.211,-1.2743
14285,-19.849,1.5543
14297,-19.147,3.5917
14309,-18.91,4.9294
14320,-20.199,4.4303
14332,-18.023,-0.5062
14344,-14.833,1.3502
14355,-14.369,3.5763
14367,-18.475,4.1608
14379,-16.155,3.6588
14391,-13.346,3.4646
14402,-15.668,2.6061
14414,-16.748,1.2714
14426,-15.426,-0.2379
14438,-15.117,1.5945
14449,-15.868,1.979
14461,-16.763,1.1285
14473,-16.197,2.6071
14484,-15.004,-2.3722
14496,-17.833,1.4736
14508,-18.595,1.5243
14520,-16.721,-0.55655
14531,-17.828,-0.5708
14543,-16.571,0.19616
14555,-16.238,2.1987
14566,-15.617,3.0074
14578,-15.118,1.4231
14590,-14.947,1.0986
14602,-14.905,3.9713
14613,-15.414,5.5159
14625,-18.572,2.7714
14637,-15.883,-1.1778
14648,-14.251,2.5074
14660,-14.7,3.3935
14672,-19.295,1.4722
14684,-16.887,1.1681
14695,-15.708,0.86558
14707,-16.78,-0.5469
14719,-16.889,-1.826
14730,-17.02,1.984
14742,-18.271,4.3032
14754,-17.038,3.6319
14766,-12.665,4.0312
14777,-14.898,2.71
14789,-19.306,-0.87734
14801,-20.23,-3.1604
14813,-18.908,0.50217
14824,-17.229,-1.3127
14836,-18.056,-2.0901
14848,-16.149,-1.386
14859,-16.804,-2.135
14871,-18.054,0.36752
14883,-17.774,3.8932
14895,-16.825,3.6302
14906,-17.1,1.5704
14918,-17.915,-0.18308
14930,-17.96,2.8152
14941,-14.825,0.13341
14953,-13.601,0.54553
14965,-13.682,4.5242
14977,-14.565,3.3382
14988,-14.374,1.5323
15000,-16.083,-0.30211
15012,-16.188,-0.32742
15023,-17.764,1.0558
15035,-17.544,-0.76571
15047,-17.207,-1.3338
15059,-17.569,-0.91438
15070,-15.602,0.36462
15082,-15.432,1.4688
15094,-16.631,2.8066
15105,-18.074,-0.86138
15117,-18.195,-4.2246
15129,-15.928,-2.4414
15141,-15.783,2.5766
15152,-17.982,1.8286
15164,-17.314,1.1742
15176,-16.322,3.3558
15188,-16.59,4.0195
15199,-16.206,2.5717
15211,-17.095,1.4592
15223,-18.451,1.7852
15234,-22.048,2.311
15246,-20.832,2.5347
15258,-17.381,3.164
15270,-16.124,1.797
15281,-18.023,2.2802
15293,-16.709,3.2192
15305,-17.259,0.64306
15316,-19.821,-0.48675
15328,-16.766,0.11901
15340,-17.228,0.66499
15352,-16.091,0.53449
15363,-18.443,0.93199
15375,-18.886,-1.4176
15387,-16.62,-1.8527
15398,-14.245,-0.83162
15410,-14.725,0.3994
15422,-14.535,1.1642
15434,-15.817,0.74223
15445,-18.795,-0.5961
15457,-17.572,2.8062
15469,-17.924,4.6283
15480,-17.749,-0.11578
15492,-18.495,0.50152
15504,-20.499,1.9221
15516,-20.619,0.98533
15527,-18.539,1.3582
15539,-17.459,3.5255
15551,-20.094,1.9562
15563,-20.372,-0.12687
15574,-18.531,1.0862
15586,-18.379,3.7619
15598,-17.504,-0.88856
15609,-17.854,0.29458
15621,-20.173,0.11156
15633,-20.564,-1.6867
15645,-19.529,-1.4113
15656,-18.161,0.01718
15668,-16.234,-0.26629
15680,-17.394,-1.0479
15691,-17.359,-0.16952
15703,-19.288,-1.6528
15715,-20.02,-0.10166
15727,-16.315,2.2541
15738,-15.705,2.4258
15750,-18.058,2.5041
15762,-16.924,0.44121
15773,-20.424,0.51816
15785,-18.186,0.79973
15797,-17.137,-0.54666
15809,-19.75,-1.4168
15820,-16.171,-4.4526
15832,-15.1,-4.7662
15844,-14.657,0.33379
15855,-15.886,4.0103
15867,-19.032,2.9344
15879,-19.024,-3.9197
15891,-19.199,-3.0952
15902,-20.566,-0.66382
15914,-16.378,0.79609
15926,-19.521,2.4549
15938,-15.702,2.2349
15949,-20.099,0.64481
15961,-21.409,-3.7992
15973,-20.017,-1.1818
15984,-16.604,-0.32954
15996,-16.945,2.1231
16008,-18.243,1.1871
16020,-17.896,-1.8225
16031,-18.97,-0.57637
16043,-19.022,1.47
16055,-18.777,-0.79884
16066,-19.657,-4.342
16078,-19.108,-1.2759
16090,-18.697,-1.1332
16102,-19.031,0.36683
16113,-19.222,2.1824
16125,-19.84,1.6064
16137,-20.844,-1.1963
16148,-18.131,-0.49147
16160,-18.046,1.3153
16172,-18.654,1.0592
16184,-20.551,-1.9351
16195,-16.832,1.1441
16207,-19.751,-0.58171
16219,-19.408,-0.91133
16230,-19.238,1.0256
16242,-18.673,-1.4555
16254,-18.659,-3.5377
16266,-19.034,-3.487
16277,-20.709,1.0958
16289,-22.272,2.6878
16301,-21.538,1.2601
16313,-18.659,-0.71766
16324,-17.483,2.1891
16336,-16.472,2.8816
16348,-19.871,-2.3546
16359,-20.075,-0.46764
16371,-18.213,0.47697
16383,-16.293,-3.8494
16395,-16.379,-3.04
16406,-16.411,-2.1718
16418,-17.756,-2.1812
16430,-19.795,-1.1039
16441,-19.045,0.94363
16453,-20.723,1.9296
16465,-21.101,1.8967
16477,-19.296,0.021765
16488,-19.311,-1.4277
16500,-22.779,-0.32518
16512,-19.015,0.47898
16523,-16.972,-1.1399
16535,-19.368,-1.9109
16547,-20.703,-0.5539
16559,-20.939,-2.842
16570,-20.704,-0.9623
16582,-16.9,0.78171
16594,-16.586,2.7308
16605,-20.629,2.1168
16617,-18.018,-2.0725
16629,-19.173,1.02
16641,-21.717,-0.34978
16652,-21.048,0.012214
16664,-18.582,0.62381
16676,-20.3,-0.57348
16688,-20.714,0.48037
16699,-19.723,1.7669
16711,-20.411,-0.32254
16723,-20.813,2.2185
16734,-17.919,3.1405
16746,-19.649,0.85276
16758,-20.119,-0.61614
16770,-16.36,0.19097
16781,-17.608,0.87266
16793,-21.685,0.36731
16805,-21.429,-1.0789
16816,-20.564,-1.9118
16828,-20.617,0.16017
16840,-20.963,2.199
16852,-21.443,-0.32876
16863,-21.076,-0.23594
16875,-17.718,0.52786
16887,-19.042,-1.7381
16898,-23.09,-1.4849
16910,-22.443,-2.9033
16922,-20.822,-1.9205
16934,-23.037,-0.42639
16945,-23.272,-2.4375
16957,-19.466,-0.67047
16969,-18.539,-0.036386
16980,-20.313,-3.0147
16992,-21.61,-3.1557
17004,-19.94,1.6611
17016,-19.628,-0.41926
17027,-18.669,-2.9739
17039,-19.319,-1.1058
17051,-22.28,-3.1438
17063,-24.438,-4.549
17074,-20.458,-0.67673
17086,-21.185,-1.3263
17098,-19.628,-3.0551
17109,-19.761,-3.6254
17121,-24.27,-1.732
17133,-24.483,-1.0802
17145,-24.706,-1.7743
17156,-23.07,-2.3289
17168,-21.494,-0.29294
17180,-23.016,-3.5744
17191,-19.86,-3.5746
17203,-18.938,-3.0398
17215,-19.238,-3.5734
17227,-20.054,-0.6254
17238,-22.755,1.7229
17250,-22.654,-2.339
17262,-21.376,1.6297
17273,-22.141,0.47925
17285,-21.942,-1.095
17297,-20.082,-0.20388
17309,-19.937,-1.5327
17320,-20.512,-2.0368
17332,-20.855,-4.8888
17344,-22.371,-0.78442
17355,-22.175,-3.1269
17367,-22.317,-0.90621
17379,-23.176,-0.4525
17391,-25.325,-1.5861
17402,-22.875,-2.0079
17414,-20.103,-4.4091
17426,-20.773,-2.734
17438,-21.899,-1.0452
17449,-19.767,-0.67353
17461,-20.585,0.084526
17473,-21.761,0.7067
17484,-20.914,0.83475
17496,-21.448,1.2184
17508,-19.155,0.7926
17520,-20.711,-1.1523
17531,-22.617,-3.9369
17543,-20.924,-1.0798
17555,-20.83,0.69434
17566,-21.022,0.29031
17578,-18.438,-2.2945
17590,-21.5,-0.98894
17602,-21.242,-1.3974
17613,-22.488,-1.9091
17625,-21.905,-1.6691
17637,-21.872,-1.6287
17648,-22.204,-2.687
17660,-23.033,0.59081
17672,-20.287,-1.5432
17684,-19.974,0.33999
17695,-20.022,-0.26919
17707,-19.708,-4.5887
17719,-22.004,-1.6754
17730,-22.716,-1.1982
17742,-25.04,-2.649
17754,-25.222,-4.7262
17766,-25.644,-5.41
17777,-24.846,-2.9744
17789,-23.145,0.42118
17801,-22.692,0.51835
17813,-22.618,-4.1536
17824,-21.65,-4.4218
17836,-20.91,-0.75406
17848,-18.745,-1.1402
17859,-20.075,-6.0264
17871,-22.015,-2.14
17883,-22.088,-4.7105
17895,-23.006,-0.67637
17906,-24.413,-1.4543
17918,-19.608,-0.49068
17930,-21.284,-2.6543
17941,-23.893,0.7123
17953,-25.43,0.57915
17965,-24.063,0.43436
17977,-23.081,-0.51951
17988,-22.758,0.36442
18000,-20.312,-1.3054
18012,-20.499,-4.2771
18023,-20.111,-4.8659
18035,-21.075,-3.3964
18047,-22.263,-1.3143
18059,-24.911,-1.0179
18070,-26.241,-2.2724
18082,-22.862,-3.131
18094,-22.539,0.8164
18105,-23.239,-0.025651
18117,-20.362,-1.6986
18129,-20.382,-2.7254
18141,-23.503,-2.6824
18152,-24.949,-4.0969
18164,-24.97,-1.2097
18176,-22.805,-0.38284
18188,-20.607,-3.6853
18199,-24.886,-3.9112
18211,-22.658,-1.5969
18223,-22.269,-2.8333
18234,-22.519,-2.5388
18246,-25.428,-0.052958
18258,-28.297,-1.7452
18270,-23.945,0.61032
18281,-22.671,2.4158
18293,-20.822,0.54715
18305,-21.464,-0.85577
18316,-20.663,-3.762
18328,-19.832,-5.0296
18340,-22.386,-4.026
18352,-23.676,-0.90453
18363,-23.136,-0.45269
18375,-20.665,-3.6066
18387,-21.911,0.048762
18398,-23.401,-2.2365
18410,-22.404,-4.7617
18422,-24.602,-3.0457
18434,-24.316,-3.0856
18445,-20.584,-1.2605
18457,-21.169,1.2255
18469,-21.559,0.071093
18480,-21.981,-1.2127
18492,-25.084,-4.3115
18504,-22.122,-2.5203
18516,-22.276,-3.0193
18527,-24.461,0.75133
18539,-26.672,-0.70593
18551,-26.197,-4.5644
18563,-24.225,-5.4881
18574,-24.611,-6.8313
18586,-22.478,-6.8633
18598,-22.487,-4.2242
18609,-22.255,-1.1375
18621,-23.332,-3.4243
18633,-23.686,-3.5127
18645,-23.996,-2.4501
18656,-23.103,-3.0009
18668,-23.338,-1.5924
18680,-24.617,-1.338
18691,-24.537,1.7279
18703,-23.347,1.2939
18715,-22.863,0.43304
18727,-20.584,-2.1065
18738,-22.089,-1.4126
18750,-24.401,-2.779
18762,-21.316,-6.6084
18773,-24.605,-2.9138
18785,-23.306,-0.43786
18797,-22.461,-2.9998
18809,-22.679,-3.122
18820,-23.912,-1.647
18832,-25.08,-1.9311
18844,-27.662,-3.8521
18855,-24.341,-3.3137
18867,-22.16,-3.1805
18879,-21.638,-3.0367
18891,-22.993,-1.8482
18902,-23.552,-2.1659
18914,-22.682,-3.0169
18926,-23.673,-2.7039
18938,-21.433,-3.908
18949,-23.443,-3.7169
18961,-27.438,-4.1798
18973,-23.205,-1.8221
18984,-22.404,-0.3696
18996,-23.524,-2.8457
19008,-24.087,-3.2453
19020,-21.796,-2.9123
19031,-22.793,-3.4889
19043,-27.02,-1.6164
19055,-24.968,-0.6973
19066,-23.007,-2.6636
19078,-22.314,-4.294
19090,-21.401,-5.4455
19102,-21.673,-2.5489
19113,-24.037,-3.9637
19125,-25.548,-4.7292
19137,-25.124,-1.9575
19148,-26.262,-0.96933
19160,-23.465,-1.3591
19172,-22.523,-3.7093
19184,-22.574,-4.9758
19195,-21.374,-4.6697
19207,-22.162,-4.0402
19219,-22.784,-2.3378
19230,-24.098,-0.24453
19242,-23.012,-0.97457
19254,-22.497,-2.3984
19266,-23.449,-0.1623
19277,-23.489,-2.029
19289,-24.596,-5.2141
19301,-27.468,-6.2052
19313,-24.638,-5.613
19324,-19.644,-2.0607
19336,-21.757,-1.4418
19348,-23.867,-1.9776
19359,-25.235,-2.595
19371,-22.315,-2.5677
19383,-24.787,-3.41
19395,-23.408,-4.7895
19406,-23.841,-5.3149
19418,-29.108,-4.1012
19430,-26.082,-6.0374
19441,-25.797,-7.0149
19453,-27.823,-4.3493
19465,-25.607,-4.0482
19477,-24.486,-4.1412
19488,-23.406,-4.9423
19500,-23.635,-1.7318
19512,-24.094,-2.2269
19523,-22.237,-4.2488
19535,-23.549,-3.2362
19547,-24.898,-4.5413
19559,-28.048,-5.1739
19570,-24.379,-6.1049
19582,-24.325,-4.9096
19594,-25.745,-5.4284
19605,-22.077,-3.6476
19617,-21.6,-2.8139
19629,-24.834,-4.5894
19641,-23.14,-4.228
19652,-23.822,-5.5426
19664,-24.424,-4.7098
19676,-22.621,-0.65681
19688,-26.19,-1.9673
19699,-23.765,-3.619
19711,-23.232,-2.8193
19723,-26.672,-1.4572
19734,-25.413,-4.7992
19746,-22.864,-2.4538
19758,-21.557,-1.4718
19770,-23.509,-1.4953
19781,-22.611,-4.4149
19793,-21.429,-7.8347
19805,-23.747,-2.6972
19816,-26.027,-3.2628
19828,-26.139,-4.2959
19840,-26.109,-4.9661
19852,-27.032,-3.9021
19863,-25.488,-6.5723
19875,-24.203,-4.9923
19887,-23.453,-4.4321
19898,-24.398,-3.2174
19910,-24.885,-2.9303
19922,-26.164,-3.2592
19934,-26.764,-3.189
19945,-27.731,-5.7715
19957,-25.334,-8.039
19969,-26.572,-3.3398
19980,-26.553,-3.0245
19992,-28.279,-3.6845
20004,-27.081,-2.6826
20016,-25.558,-1.8241
20027,-24.134,-1.4845
20039,-22.442,-3.8753
20051,-24.428,-2.604
20063,-24.988,-3.2815
20074,-25.514,-3.573
20086,-25.225,-1.5525
20098,-25.159,-0.12415
20109,-24.212,-2.1029
20121,-23.3,-3.6423
20133,-24.073,-2.9784
20145,-24.68,-2.8075
20156,-26.628,-6.7567
20168,-24.267,-3.5753
20180,-24.773,-3.2446
20191,-26.828,-4.8384
20203,-26.649,-4.0372
20215,-23.102,-1.9294
20227,-22.665,-2.5343
20238,-24.337,-5.4468
20250,-22.684,-6.6363
20262,-24.816,-5.996
20273,-25.736,-4.6191
20285,-23.569,-3.9791
20297,-22.604,-4.6352
20309,-25.903,-2.0808
20320,-25.674,-3.9565
20332,-24.2,-5.543
20344,-23.681,-6.2814
20355,-23.23,-7.6484
20367,-24.137,-4.4456
20379,-25.115,-3.3373
20391,-23.443,-3.7235
20402,-23.511,-3.5157
20414,-23.627,-3.6996
20426,-25.745,-4.528
20438,-25.721,-4.3452
20449,-24.06,-3.2139
20461,-22.478,-3.5664
20473,-23.288,-3.1398
20484,-25.378,-3.5047
20496,-27.55,-5.503
20508,-25.219,-5.6269
20520,-23.83,-3.5288
20531,-26.116,-2.3017
20543,-24.233,-4.4765
20555,-23.411,-4.3306
20566,-26.289,-3.8164
20578,-26.34,-4.1747
20590,-26.226,-4.7445
20602,-25.79,-6.2753
20613,-26.506,-9.4749
20625,-25.989,-7.3273
20637,-25.227,-4.6805
20648,-24.183,-4.8697
20660,-26.39,-6.3714
20672,-25.951,-5.777
20684,-26.301,-3.3796
20695,-24.066,-3.6646
20707,-23.908,-4.3398
20719,-25.304,-5.3965
20730,-25.813,-4.2632
20742,-23.981,-3.5948
20754,-24.89,-4.8118
20766,-28.944,-3.6232
20777,-27.112,-2.5017
20789,-24.697,-3.3442
20801,-23.654,-3.0299
20813,-25.407,-4.6361
20824,-25.794,-5.4669
20836,-27.32,-3.1693
20848,-26.38,-3.2601
20859,-27.995,-3.7536
20871,-26.095,-3.5387
20883,-23.445,-3.1631
20895,-24.91,-3.7898
20906,-27.257,-3.8476
20918,-24.797,-4.9888
20930,-24.451,-3.233
20941,-27.344,-5.1788
20953,-27.436,-9.0326
20965,-26.97,-5.2271
20977,-25.251,-4.701
20988,-26.036,-4.9244
21000,-22.811,-7.1711
21012,-24.572,-7.3414
21023,-25.654,-6.1741
21035,-22.836,-4.2607
21047,-23.568,-3.0947
21059,-23.75,-6.1433
21070,-26.018,-3.5519
21082,-23.39,-4.9052
21094,-23.973,-7.0871
21105,-28.731,-4.1481
21117,-28.557,-6.447
21129,-27.066,-5.9727
21141,-29.155,-5.0387
21152,-28.888,-4.2142
21164,-28.272,-5.9168
21176,-26.049,-8.0789
21188,-29.804,-6.7127
21199,-25.545,-4.6215
21211,-27.114,-2.513
21223,-25.747,-1.9241
21234,-26.135,-4.6487
21246,-26.997,-4.9108
21258,-27.586,-3.4333
21270,-25.518,-1.8087
21281,-25.402,-3.1237
21293,-26.91,-6.5732
21305,-25.658,-6.5255
21316,-25.802,-5.3494
21328,-26.673,-5.5609
21340,-25.327,-4.9746
21352,-26.351,-4.1967
21363,-29.586,-4.8436
21375,-28.668,-4.6672
21387,-23.998,-4.3908
21398,-23.561,-6.8148
21410,-24.02,-4.1209
21422,-23.541,-4.8174
21434,-22.35,-7.5744
21445,-25.349,-5.0537
21457,-25.835,-4.7807
21469,-27.944,-5.7484
21480,-28.707,-9.1973
21492,-25.588,-3.0343
21504,-24.622,-2.3786
21516,-25.273,-5.1346
21527,-23.67,-5.8388
21539,-25.09,-3.7801
21551,-27.037,-5.2689
21563,-27.221,-6.3274
21574,-26.376,-5.4835
21586,-25.23,-3.7567
21598,-26.189,-4.0638
21609,-29.395,-4.2034
21621,-27.392,-5.5215
21633,-24.385,-4.3057
21645,-25.818,-5.4028
21656,-30.091,-8.0614
21668,-27.729,-6.7969
21680,-27.524,-4.1567
21691,-25.384,-4.2954
21703,-26.428,-6.3385
21715,-27.37,-5.6836
21727,-25.08,-5.3788
21738,-23.66,-6.5896
21750,-25.24,-7.1181
21762,-27.342,-5.3968
21773,-27.139,-7.4494
21785,-23.38,-7.3287
21797,-22.494,-7.2862
21809,-23.089,-10.506
21820,-26.842,-7.1273
21832,-27.783,-4.8412
21844,-28.091,-5.1863
21855,-29.122,-5.0274
21867,-28.126,-4.3422
21879,-29.838,-5.0399
21891,-28.928,-4.9142
21902,-25.183,-4.8904
21914,-24.889,-6.1198
21926,-27.963,-6.5427
21938,-29.355,-4.9808
21949,-26.508,-5.3109
21961,-24.716,-4.6368
21973,-23.117,-4.6091
21984,-24.549,-4.632
21996,-27.914,-5.4852
22008,-31.829,-2.0042
22020,-30.381,-2.1444
22031,-29.456,-2.7722
22043,-28.137,-4.0426
22055,-25.379,-7.0041
22066,-24.306,-4.8959
22078,-24.521,-3.5124
22090,-25.908,-3.3452
22102,-27.093,-5.3518
22113,-26.632,-4.1441
22125,-25.78,-3.0613
22137,-24.407,-3.9912
22148,-26.314,-3.9068
22160,-26.666,-5.9401
22172,-27.137,-6.7027
22184,-26.15,-5.9847
22195,-28.429,-4.4291
22207,-28.577,-7.3456
22219,-27.359,-7.7778
22230,-27.763,-5.976
22242,-31.369,-7.2231
22254,-25.813,-4.8025
22266,-25.613,-5.993
22277,-26.224,-4.9164
22289,-28.288,-6.4903
22301,-25.004,-7.4525
22313,-27.667,-8.2214
22324,-28.03,-7.0138
22336,-27.561,-5.5634
22348,-26.914,-6.9409
22359,-26.85,-6.0807
22371,-29.269,-4.2783
22383,-25.508,-3.0923
22395,-23.983,-4.9522
22406,-26.097,-7.5065
22418,-26.933,-7.5164
22430,-26.849,-6.9526
22441,-26.712,-6.8888
22453,-26.899,-7.8447
22465,-30.506,-6.4772
22477,-31.397,-5.0778
22488,-27.851,-5.3987
22500,-26.702,-7.5496
22512,-25.691,-7.9503
22523,-27.379,-6.8946
22535,-26.038,-5.6769
22547,-25.958,-6.4715
22559,-26.166,-5.6587
22570,-24.177,-4.2224
22582,-25.386,-5.3043
22594,-29.583,-3.9155
22605,-24.936,-3.8102
22617,-25.545,-5.1483
22629,-28.036,-3.9964
22641,-28.085,-3.2588
22652,-28.12,-5.7835
22664,-28.392,-6.479
22676,-25.991,-8.8408
22688,-27.56,-7.0383
22699,-30.466,-5.5541
22711,-32.068,-4.8408
22723,-27.41,-5.3568
22734,-26.126,-5.5711
22746,-24.208,-6.3964
22758,-23.061,-5.9318
22770,-27.846,-5.2681
22781,-28.602,-5.1164
22793,-27.456,-8.0926
22805,-29.197,-5.8111
22816,-29.187,-3.8355
22828,-29.287,-5.8427
22840,-25.305,-8.5291
22852,-25.056,-7.0962
22863,-27.293,-6.2269
22875,-29.604,-9.1024
22887,-32.824,-9.3954
22898,-29.067,-7.3195
22910,-27.069,-4.579
22922,-25.985,-3.1609
22934,-24.438,-4.2116
22945,-24.737,-5.5727
22957,-27.635,-7.0916
22969,-26.254,-4.2043
22980,-24.397,-2.4399
22992,-26.552,-7.3795
23004,-26.997,-6.8414
23016,-26.38,-7.2931
23027,-27.208,-6.4391
23039,-28.501,-5.8423
23051,-25.444,-8.1818
23063,-24.499,-7.022
23074,-29.919,-6.971
23086,-30.127,-6.3119
23098,-29.14,-4.8169
23109,-28.199,-5.5751
23121,-28.897,-4.2697
23133,-29.421,-7.5564
23145,-27.863,-6.7409
23156,-27.545,-7.0868
23168,-27.495,-7.3454
23180,-30.232,-7.5543
23191,-27.271,-8.5346
23203,-25.638,-5.8724
23215,-30.575,-3.9924
23227,-25.328,-7.8088
23238,-25.734,-5.7338
23250,-26.971,-8.5095
23262,-28.059,-10.46
23273,-28.746,-7.3015
23285,-28.264,-4.783
23297,-27.568,-5.9141
23309,-26.777,-6.8434
23320,-27.924,-3.9829
23332,-27.101,-6.9155
23344,-28.5,-6.9081
23355,-29.447,-5.6299
23367,-25.596,-3.7611
23379,-28.226,-2.7859
23391,-26.762,-7.0298
23402,-27.065,-8.8064
23414,-27.91,-9.9695
23426,-28.685,-7.7545
23438,-28.924,-5.7559
23449,-26.757,-3.6906
23461,-29.581,-2.4928
23473,-29.269,-6.5062
23484,-27.776,-6.6554
23496,-27.333,-7.3534
23508,-29.068,-8.0878
23520,-29.192,-9.0207
23531,-27.189,-7.8117
23543,-23.908,-6.0172
23555,-25.031,-5.9456
23566,-25.974,-7.1418
23578,-27.637,-10.839
23590,-27.758,-9.7059
23602,-28.64,-7.4609
23613,-29.74,-5.6583
23625,-29.902,-6.436
23637,-30.854,-4.6379
23648,-31.024,-6.8249
23660,-27.473,-5.358
23672,-26.274,-5.2249
23684,-29.509,-9.3182
23695,-29.445,-8.5765
23707,-30.387,-9.8623
23719,-26.53,-6.4456
23730,-24.42,-7.0697
23742,-28.609,-9.8357
23754,-27.061,-7.688
23766,-25.506,-6.3429
23777,-29.007,-6.826
23789,-30.764,-6.7566
23801,-29.402,-6.5846
23813,-29.604,-7.1399
23824,-26.739,-9.7939
23836,-25.758,-6.9894
23848,-27.882,-7.3686
23859,-26.726,-6.5586
23871,-25.316,-7.5385
23883,-27.407,-11.79
23895,-28.302,-9.8317
23906,-29.306,-9.1149
23918,-28.58,-11.793
23930,-26.834,-11.014
23941,-24.867,-6.7962
23953,-26.865,-6.2914
23965,-31.506,-8.0438
23977,-26.882,-10.14
23988,-26.199,-6.8068
