FFT,Power Spectrum
Frequency[Hz],Level-L[dB],Level-R[dB]
11.719,-21.34,-24.668
23.438,-1.3335,-3.358
35.156,-0.40239,1.7569
46.875,4.5452,2.3979
58.594,4.4126,3.3477
70.313,5.4952,6.4293
82.031,7.4826,11.469
93.75,11.938,13.962
105.47,11.497,12.41
117.19,11.109,12.411
128.91,11.862,15.13
140.63,13.208,16.223
152.34,9.5064,16.006
164.06,1.5003,15.187
175.78,3.9,16.33
187.5,7.6762,17.762
199.22,7.4657,17.968
210.94,7.4245,18.434
222.66,7.1558,17.985
234.38,11.139,17.915
246.09,11.428,18.683
257.81,10.043,16.59
269.53,9.0553,17.958
281.25,11.466,19.454
292.97,10.663,20.355
304.69,5.7684,20.078
316.41,8.1497,18.342
328.13,9.6826,17.685
339.84,9.3005,18.932
351.56,6.9778,18.668
363.28,7.7858,16.167
375,7.0934,15.484
386.72,10.581,14.975
398.44,9.6639,18.429
410.16,6.3609,18.377
421.88,6.145,18.465
433.59,6.8367,17.766
445.31,5.7635,22.203
457.03,4.3287,21.622
468.75,4.8644,19.279
480.47,5.6532,18.516
492.19,9.7859,21.726
503.91,10.629,21.897
515.63,9.1065,18.203
527.34,9.0756,17.631
539.06,6.8912,20.977
550.78,5.4698,21.554
562.5,6.6707,17.359
574.22,3.5038,16.048
585.94,5.118,19.273
597.66,5.86,21.302
609.38,5.5583,18.905
621.09,4.2356,18.233
632.81,2.3025,20.12
644.53,3.8897,21.17
656.25,5.5027,21.178
667.97,6.2024,19.909
679.69,5.2298,19.409
691.41,7.7272,19.795
703.13,8.1646,18.503
714.84,7.8438,19.199
726.56,6.7999,18.323
738.28,4.6935,19.404
750,7.075,19.323
761.72,7.5688,18.528
773.44,5.2861,19.659
785.16,4.8006,17.92
796.88,5.1844,17.557
808.59,8.4521,19.375
820.31,8.4941,21.177
832.03,7.3579,19.861
843.75,8.7548,19.998
855.47,7.2222,20.457
867.19,5.9375,19.975
878.91,9.5215,19.92
890.63,11.306,18.791
902.34,9.325,15.243
914.06,31.013,17.319
925.78,33.446,18.16
937.5,23.499,19.368
949.22,8.2061,17.744
960.94,7.4154,16.476
972.66,5.5921,20.39
984.38,7.5251,19.001
996.09,7.8353,14.4
1007.8,5.9478,14.101
1019.5,5.8029,18.613
1031.3,6.2046,20.694
1043,8.4142,20.437
1054.7,7.2945,20.721
1066.4,4.7081,19.927
1078.1,4.8216,19.91
1089.8,7.5961,20.183
1101.6,6.9209,20.172
1113.3,7.3188,19.755
1125,6.9042,17.754
1136.7,6.9709,20.241
1148.4,8.1786,22.479
1160.2,9.8273,21.561
1171.9,8.9521,19.734
1183.6,9.6407,20.509
1195.3,6.2681,18.758
1207,6.9656,17.215
1218.8,9.1838,18.524
1230.5,7.3935,19.506
1242.2,3.9439,19.355
1253.9,2.9423,18.09
1265.6,5.5011,18.235
1277.3,5.3546,17.057
1289.1,5.5467,19.073
1300.8,5.2397,19.238
1312.5,2.6909,18.15
1324.2,7.0201,21.372
1335.9,7.226,21.996
1347.7,4.4567,18.934
1359.4,4.5922,15.765
1371.1,7.1603,17.451
1382.8,6.646,18.358
1394.5,4.7598,19.209
1406.3,0.007556,15.554
1418,3.9188,18.788
1429.7,5.6175,18.572
1441.4,4.3368,16.854
1453.1,4.507,17.514
1464.8,6.9892,20.383
1476.6,7.4578,19.077
1488.3,6.6168,15.98
1500,6.3441,18.076
1511.7,9.958,15.719
1523.4,8.6248,16.835
1535.2,5.001,16.365
1546.9,7.9641,17.809
1558.6,8.7672,17.67
1570.3,6.5945,18.932
1582,6.2049,18.871
1593.8,8.5823,17.831
1605.5,8.1459,15.153
1617.2,5.3323,17.749
1628.9,4.5875,19.233
1640.6,6.29,18.633
1652.3,4.123,20.017
1664.1,3.6862,19.035
1675.8,9.2995,19.344
1687.5,8.9365,19.895
1699.2,1.9371,19.277
1710.9,0.30053,18.585
1722.7,2.8644,16.286
1734.4,3.9237,16.755
1746.1,4.0492,16.277
1757.8,2.6299,18.34
1769.5,3.6755,19.429
1781.3,3.8801,18.693
1793,5.4406,15.366
1804.7,6.2824,15.302
1816.4,5.7212,19.534
1828.1,4.3995,19.552
1839.8,4.3899,15.203
1851.6,2.8178,14.218
1863.3,4.4321,18.045
1875,5.1134,19.113
1886.7,4.2164,17.831
1898.4,2.79,17.4
1910.2,3.6362,17.517
1921.9,2.196,14.024
1933.6,0.12472,16.939
1945.3,2.5111,17.67
1957,1.3821,17.585
1968.8,1.2214,19.295
1980.5,1.8822,19.057
1992.2,0.020503,17.153
2003.9,0.66159,18.644
2015.6,2.3609,19.569
2027.3,3.468,17.758
2039.1,3.4636,14.691
2050.8,0.51099,17.739
2062.5,-1.8833,18.17
2074.2,-0.27787,13.964
2085.9,2.5292,14.37
2097.7,4.222,15.544
2109.4,2.6565,18.594
2121.1,4.0968,16.016
2132.8,3.9301,14.948
2144.5,2.9622,15.089
2156.3,1.3902,14.365
2168,1.9032,14.739
2179.7,0.9534,17.116
2191.4,-0.84123,16.32
2203.1,3.6202,16.215
2214.8,4.5538,19.668
2226.6,2.0721,19.521
2238.3,0.29555,18.253
2250,2.6148,16.613
2261.7,2.7152,17.636
2273.4,0.96075,18.715
2285.2,-0.83733,17.825
2296.9,-0.32016,16.168
2308.6,4.3858,16.244
2320.3,0.16315,17.278
2332,1.8111,15.148
2343.8,1.7373,14.869
2355.5,4.5379,13.683
2367.2,5.2239,13.654
2378.9,3.4629,16.023
2390.6,2.6779,12.612
2402.3,3.1014,13.288
2414.1,2.8934,14.691
2425.8,4.1512,14.329
2437.5,3.3613,12.304
2449.2,4.2183,12.202
2460.9,1.4449,14.088
2472.7,1.5592,15.705
2484.4,1.8846,15.549
2496.1,2.2643,16.738
2507.8,0.19802,19.839
2519.5,-2.7673,20.446
2531.3,1.3225,18.274
2543,4.0406,15.013
2554.7,4.5251,13.835
2566.4,1.6256,11.113
2578.1,-0.019826,13.045
2589.8,-0.10615,14.856
2601.6,1.0699,14.747
2613.3,-1.2557,14.853
2625,-0.45618,16.909
2636.7,2.6177,16.119
2648.4,0.11874,16.849
2660.2,0.43495,15.807
2671.9,3.2381,15.607
2683.6,-0.18854,16.01
2695.3,-0.031853,16.748
2707,1.9466,16.97
2718.8,2.2079,17.363
2730.5,3.7508,17.95
2742.2,2.6773,17.302
2753.9,2.7507,15.976
2765.6,2.6704,15.181
2777.3,-0.50611,15.461
2789.1,1.7512,13.744
2800.8,0.29278,12.634
2812.5,1.3066,13.119
2824.2,-0.33549,13.521
2835.9,-0.11324,14.965
2847.7,0.4627,17.19
2859.4,1.2911,17.058
2871.1,0.52723,16.044
2882.8,4.83,13.513
2894.5,4.2269,12.398
2906.3,-2.2961,13.522
2918,-0.59741,14.414
2929.7,0.46121,17.224
2941.4,2.8498,15.498
2953.1,3.7505,12.236
2964.8,2.6201,16.194
2976.6,1.7293,16.175
2988.3,-3.6578,12.683
3000,-4.0766,12.734
3011.7,0.27833,16.585
3023.4,-0.3072,16.585
3035.2,-3.0251,14.289
3046.9,-1.5793,18.152
3058.6,0.23956,16.373
3070.3,-0.18973,14.715
3082,-1.5785,16.427
3093.8,-1.0071,17.818
3105.5,-1.1118,16.072
3117.2,-4.297,14.44
3128.9,-3.9678,16.444
3140.6,-0.7367,15.206
3152.3,1.9491,14.771
3164.1,0.79144,13.918
3175.8,-1.5572,10.992
3187.5,-1.7359,12.961
3199.2,-2.3767,13.86
3210.9,0.30262,14.023
3222.7,-0.25437,16.487
3234.4,-1.2214,15.613
3246.1,-1.5873,14.248
3257.8,0.80438,17.652
3269.5,1.41,17.01
3281.3,-0.087079,12.757
3293,-3.3005,12.464
3304.7,-2.202,11.549
3316.4,-0.67046,12.594
3328.1,-1.6699,15.367
3339.8,-0.16473,15.273
3351.6,1.2954,14.701
3363.3,-0.30522,14.839
3375,-1.0418,14.265
3386.7,1.8036,14.953
3398.4,1.0907,15.713
3410.2,-0.62158,16.035
3421.9,-0.51308,15.764
3433.6,1.2235,14.703
3445.3,-0.22741,12.949
3457,-0.25393,13.272
3468.8,0.12046,16.07
3480.5,-1.1458,14.099
3492.2,-0.097835,15.758
3503.9,-0.84474,16.553
3515.6,0.45506,14.108
3527.3,1.2633,9.1826
3539.1,-2.7231,12.338
3550.8,0.21263,14.294
3562.5,-1.5874,12.768
3574.2,-1.5648,12.551
3585.9,-0.088395,10.652
3597.7,-0.23132,14.637
3609.4,0.65089,13.683
3621.1,0.98101,13.534
3632.8,-1.2789,15.915
3644.5,-1.8943,15.352
3656.3,-1.6848,14.095
3668,-2.1717,14.541
3679.7,-1.6186,12.162
3691.4,-2.1197,12.04
3703.1,-3.1146,12.83
3714.8,-3.5113,12.887
3726.6,-3,13.221
3738.3,-3.7405,12.913
3750,-3.3805,12.657
3761.7,-1.0764,11.419
3773.4,-0.18456,11.727
3785.2,-0.49957,9.6182
3796.9,0.56565,13.782
3808.6,-1.0327,11.95
3820.3,-1.4936,12.101
3832,0.83746,12.409
3843.8,0.013552,15.031
3855.5,-1.2591,15.63
3867.2,-0.3017,14.958
3878.9,-2.7221,10.104
3890.6,-3.1408,14.026
3902.3,-4.6548,13.988
3914.1,-1.1092,14.641
3925.8,-1.1744,16.651
3937.5,-2.0758,14.024
3949.2,-2.6454,12.879
3960.9,-3.3262,13.754
3972.7,-1.498,14.148
3984.4,-2.1984,12.922
3996.1,0.61727,10.644
4007.8,1.0935,9.7283
4019.5,-6.0161,10.495
4031.3,-6.1253,11.189
4043,-3.2742,12.179
4054.7,-2.9225,7.7722
4066.4,0.9247,9.4014
4078.1,-1.8667,12.311
4089.8,-0.3154,13.724
4101.6,-1.5809,13.748
4113.3,-3.5434,10.571
4125,-3.262,8.913
4136.7,-1.9189,10.763
4148.4,-1.2196,11.325
4160.2,-2.1835,11.717
4171.9,-1.902,12.242
4183.6,-2.7748,14.588
4195.3,-2.9344,14.724
4207,-1.1782,12.699
4218.8,-4.2936,15.327
4230.5,-4.4275,16.664
4242.2,-1.1425,14.173
4253.9,-1.5556,9.7004
4265.6,-4.2227,11.017
4277.3,-2.7141,10.377
4289.1,-3.7559,11.873
4300.8,-2.4211,12.58
4312.5,-2.4039,13.926
4324.2,-0.96643,13.273
4335.9,-0.5952,14.088
4347.7,-2.7694,11.664
4359.4,-2.0216,10.453
4371.1,-3.971,12.826
4382.8,-1.113,12.324
4394.5,0.095943,12.935
4406.3,-1.0172,11.939
4418,-5.4472,11.512
4429.7,-6.2876,12.338
4441.4,-1.7421,13.879
4453.1,-0.40582,11.813
4464.8,-1.9749,12.373
4476.6,-2.1667,10.899
4488.3,-1.9362,10.849
4500,0.59764,12.675
4511.7,1.0389,14.672
4523.4,-0.10363,14.053
4535.2,-3.7247,11.771
4546.9,-5.4486,9.4506
4558.6,-3.7964,9.5286
4570.3,-3.9649,12.144
4582,-3.3953,11.937
4593.8,0.50891,12.576
4605.5,0.98178,12.267
4617.2,-1.034,11.233
4628.9,-3.6773,12.613
4640.6,-1.1199,11.474
4652.3,-1.8946,10.63
4664.1,-3.6367,8.8946
4675.8,-1.6669,11.631
4687.5,-2.2229,13.783
4699.2,-3.0073,14.046
4710.9,-3.9069,14.238
4722.7,-0.91268,12.506
4734.4,-1.3124,13.444
4746.1,-3.9597,10.345
4757.8,-3.0154,7.7877
4769.5,-3.382,8.3433
4781.3,-3.6261,11.373
4793,-5.592,11.313
4804.7,-4.1796,12.856
4816.4,0.28386,14.04
4828.1,1.355,14.729
4839.8,-1.8853,13.236
4851.6,-5.0072,10.752
4863.3,-5.6161,8.2303
4875,-4.596,11.367
4886.7,-5.2942,13.028
4898.4,-2.8639,12.425
4910.2,-1.6038,11.457
4921.9,-3.8056,11.392
4933.6,-7.9962,11.517
4945.3,-5.8932,11.727
4957,-5.2493,10.853
4968.8,-1.9266,10.653
4980.5,-1.9145,11.643
4992.2,-4.8217,15.786
5003.9,-3.4162,12.971
5015.6,-4.1487,11.964
5027.3,-0.94055,11.837
5039.1,0.91878,12.39
5050.8,-2.0919,14.349
5062.5,-6.1045,13.122
5074.2,-6.7877,12.792
5085.9,-4.8845,10.771
5097.7,-4.3194,10.666
5109.4,-1.5891,10.163
5121.1,-2.4391,10.693
5132.8,-5.3486,11.363
5144.5,-3.4511,10.23
5156.3,-2.3235,12.277
5168,-2.2275,13.575
5179.7,-3.6287,13.758
5191.4,-3.6904,12.208
5203.1,-5.5631,11.238
5214.8,-4.6533,13.246
5226.6,-2.8879,13.255
5238.3,-3.1489,13.356
5250,-5.3897,13.551
5261.7,-3.7281,11.622
5273.4,-0.72521,10.748
5285.2,-4.4983,10.833
5296.9,-3.8906,11.623
5308.6,-5.8362,9.9389
5320.3,-6.2767,10.345
5332,-3.7729,12.389
5343.8,-7.6629,12.11
5355.5,-3.5373,13.849
5367.2,-3.2074,14.168
5378.9,-6.0933,11.555
5390.6,-4.1194,10.769
5402.3,-4.0401,12.946
5414.1,-4.9226,10.986
5425.8,-5.5821,10.09
5437.5,-4.6248,9.1769
5449.2,-6.9182,11.46
5460.9,-6.5622,9.8508
5472.7,-5.3764,9.8796
5484.4,-4.5589,10.847
5496.1,-3.2663,11.221
5507.8,-6.8635,11.947
5519.5,-5.6222,13.333
5531.3,-4.0635,13.437
5543,-3.4602,10.98
5554.7,-2.2823,9.0556
5566.4,-2.2322,10.662
5578.1,-2.1214,11.646
5589.8,-3.0527,9.7151
5601.6,-7.2521,9.487
5613.3,-6.4456,10.941
5625,-4.1361,12.988
5636.7,-3.8584,10.457
5648.4,-3.3897,11.659
5660.2,-2.8532,12.625
5671.9,-2.66,11.179
5683.6,0.015953,10.974
5695.3,-1.5626,11.245
5707,-0.87217,10.043
5718.8,-2.5302,12.133
5730.5,-6.8651,13.221
5742.2,-7.5529,12.768
5753.9,-9.3546,13.643
5765.6,-8.6895,11.994
5777.3,-6.4871,12.101
5789.1,-6.1407,11.152
5800.8,-5.432,9.7406
5812.5,-4.6621,6.9986
5824.2,-4.4108,5.3519
5835.9,-5.7779,8.5876
5847.7,-6.4961,11.366
5859.4,-4.0954,10.358
5871.1,-3.0334,11.741
5882.8,-5.1736,14.515
5894.5,-7.7452,14.963
5906.3,-8.2008,8.5199
5918,-8.4501,11.209
5929.7,-8.662,11.78
5941.4,-4.9916,9.5804
5953.1,-4.3605,6.7992
5964.8,-6.208,9.9785
5976.6,-5.7809,11.081
5988.3,-4.1285,9.5185
6000,-3.8796,10.596
6011.7,-6.4825,11.946
6023.4,-6.7477,9.2102
6035.2,-7.35,6.6423
6046.9,-3.3925,8.825
6058.6,-3.6836,8.4888
6070.3,-5.8775,10.25
6082,-7.9692,8.4355
6093.8,-5.9308,10.094
6105.5,-4.2143,7.3699
6117.2,-6.4558,9.3735
6128.9,-6.6346,10.465
6140.6,-3.9099,9.4341
6152.3,-4.2918,9.3075
6164.1,-7.0652,6.8219
6175.8,-7.8476,10.737
6187.5,-6.2655,12.873
6199.2,-5.7502,12.676
6210.9,-5.8794,9.5149
6222.7,-5.9875,10.761
6234.4,-1.8157,11.305
6246.1,-1.8044,8.833
6257.8,-2.3897,8.0749
6269.5,-2.681,8.7957
6281.3,-5.5485,11.012
6293,-7.1867,13.061
6304.7,-9.2014,11.36
6316.4,-9.866,8.2399
6328.1,-7.7979,9.2122
6339.8,-4.6124,10.665
6351.6,-4.0902,10.63
6363.3,-4.4316,9.9517
6375,-2.6284,8.5453
6386.7,-4.0237,10.773
6398.4,-4.6126,10.607
6410.2,-5.9767,7.9654
6421.9,-8.2929,5.8447
6433.6,-6.2346,5.2472
6445.3,-4.2593,7.0228
6457,-5.5809,9.542
6468.8,-7.2837,10.822
6480.5,-7.6956,9.1659
6492.2,-9.1923,7.3523
6503.9,-5.8774,8.5823
6515.6,-4.562,8.3781
6527.3,-6.8748,8.0826
6539.1,-5.8958,10.265
6550.8,-8.4432,13.031
6562.5,-8.7986,12.407
6574.2,-8.112,7.1246
6585.9,-6.226,7.8534
6597.7,-5.6141,8.7037
6609.4,-7.3747,10.482
6621.1,-7.8096,10.596
6632.8,-8.5969,11.627
6644.5,-7.2841,11.806
6656.3,-2.994,9.0146
6668,-4.6139,8.6358
6679.7,-8.0097,8.6138
6691.4,-8.7545,9.8045
6703.1,-5.4159,8.6977
6714.8,-3.3315,7.4225
6726.6,-5.3142,6.0633
6738.3,-4.3946,5.246
6750,-5.0989,6.6534
6761.7,-6.9626,10.323
6773.4,-4.1484,9.7811
6785.2,-4.0708,8.6564
6796.9,-5.7916,7.5105
6808.6,-8.4274,10.946
6820.3,-10.757,10.107
6832,-7.5616,9.6936
6843.8,-6.1548,10.671
6855.5,-7.7843,12.078
6867.2,-6.5203,8.956
6878.9,-6.7168,8.4178
6890.6,-7.2624,8.243
6902.3,-7.063,6.9982
6914.1,-6.6181,8.5255
6925.8,-6.8964,8.8781
6937.5,-7.6663,10.513
6949.2,-7.7344,7.6729
6960.9,-4.8156,7.4312
6972.7,-5.5862,8.1384
6984.4,-8.6425,6.9515
6996.1,-9.8872,7.6672
7007.8,-9.9376,8.1555
7019.5,-7.659,8.8364
7031.3,-10.865,8.7357
7043,-6.3585,7.789
7054.7,-4.0364,8.7724
7066.4,-6.5494,10.794
7078.1,-5.3342,12.22
7089.8,-6.4273,8.7556
7101.6,-7.5054,7.3811
7113.3,-5.8541,9.1797
7125,-6.46,9.3114
7136.7,-9.034,7.9278
7148.4,-8.3276,9.7779
7160.2,-7.1572,8.9899
7171.9,-7.7467,10.444
7183.6,-4.906,8.2693
7195.3,-6.1312,9.8931
7207,-6.92,9.7326
7218.8,-6.2777,7.5397
7230.5,-6.108,7.4208
7242.2,-6.6053,7.9083
7253.9,-7.0915,7.9101
7265.6,-10.99,9.3267
7277.3,-7.7318,9.8932
7289.1,-8.2147,8.2618
7300.8,-7.5977,9.583
7312.5,-6.8885,9.1814
7324.2,-7.205,7.1192
7335.9,-7.0346,8.9954
7347.7,-7.6525,7.1812
7359.4,-6.3277,6.5323
7371.1,-6.6003,8.0902
7382.8,-8.3972,8.0964
7394.5,-10.244,6.901
7406.3,-6.7453,7.4164
7418,-9.0451,9.4673
7429.7,-6.7772,5.4934
7441.4,-6.6893,8.8177
7453.1,-6.4333,11.123
7464.8,-4.7577,10.357
7476.6,-7.5877,9.0449
7488.3,-7.0037,8.5149
7500,-6.9768,8.6513
7511.7,-11.47,9.8135
7523.4,-8.2277,6.5427
7535.2,-10.242,3.7549
7546.9,-10.086,6.1799
7558.6,-9.1172,8.1297
7570.3,-9.4563,7.9438
7582,-5.7256,7.4074
7593.8,-4.6352,8.034
7605.5,-5.8929,7.1281
7617.2,-5.5857,7.1589
7628.9,-6.0972,8.0136
7640.6,-7.1384,6.3664
7652.3,-7.8413,6.1691
7664.1,-9.4415,8.1067
7675.8,-9.2854,11.56
7687.5,-7.6702,10.213
7699.2,-10.814,8.1446
7710.9,-11.143,9.062
7722.7,-9.3977,7.6849
7734.4,-9.886,6.9004
7746.1,-8.9141,8.0174
7757.8,-9.5357,7.0089
7769.5,-10.795,7.6877
7781.3,-7.7546,8.3187
7793,-9.0526,9.3356
7804.7,-10.198,10.561
7816.4,-8.3479,8.2574
7828.1,-11.664,7.9734
7839.8,-10.565,6.1174
7851.6,-10.524,6.212
7863.3,-11.554,7.5874
7875,-11.058,7.2723
7886.7,-9.2443,7.1965
7898.4,-9.8744,8.1191
7910.2,-9.094,7.5412
7921.9,-7.3808,8.1614
7933.6,-9.4752,7.6378
7945.3,-10.104,3.8727
7957,-7.8448,5.17
7968.8,-8.6212,8.5208
7980.5,-9.954,8.5011
7992.2,-12.987,4.282
8003.9,-9.3071,8.6865
8015.6,-7.3919,9.6712
8027.3,-7.9611,10.206
8039.1,-8.0037,8.442
8050.8,-8.6716,7.879
8062.5,-10.252,6.1285
8074.2,-13.205,6.7833
8085.9,-10.978,8.1466
8097.7,-7.647,8.1166
8109.4,-7.9655,8.8284
8121.1,-7.0201,9.8633
8132.8,-8.3371,10.372
8144.5,-9.3236,9.5935
8156.3,-11.321,7.6106
8168,-7.0412,8.4777
8179.7,-4.3965,10.443
8191.4,-8.41,12.116
8203.1,-9.1808,10.926
8214.8,-7.8196,7.3543
8226.6,-8.407,7.4249
8238.3,-9.7632,8.9735
8250,-8.9115,9.3601
8261.7,-8.9219,7.3064
8273.4,-11.002,7.0079
8285.2,-8.3051,5.7683
8296.9,-4.2528,6.3384
8308.6,-5.3563,7.3987
8320.3,-8.9181,8.5977
8332,-10.2,8.5325
8343.8,-9.9721,6.8774
8355.5,-11.02,6.7162
8367.2,-11.418,7.5468
8378.9,-12.361,4.6697
8390.6,-8.1616,6.5159
8402.3,-7.1713,7.4443
8414.1,-8.9226,6.7708
8425.8,-8.5936,5.1136
8437.5,-9.4508,6.0759
8449.2,-10.946,7.6425
8460.9,-10.018,7.3783
8472.7,-12.541,8.2733
8484.4,-11.844,8.5927
8496.1,-10.536,7.6671
8507.8,-10.427,6.5619
8519.5,-8.0568,8.6853
8531.3,-8.1898,7.8586
8543,-9.425,6.2672
8554.7,-9.056,6.775
8566.4,-10.285,4.6555
8578.1,-14.054,2.3943
8589.8,-15.29,6.2476
8601.6,-7.8843,6.9125
8613.3,-6.2891,7.693
8625,-6.6482,6.3311
8636.7,-9.5442,6.6395
8648.4,-12.334,6.3913
8660.2,-9.2031,7.923
8671.9,-7.5469,7.4912
8683.6,-8.1601,4.1687
8695.3,-8.9935,5.108
8707,-11.015,5.7271
8718.8,-12.188,6.9488
8730.5,-10.986,8.7564
8742.2,-7.7983,8.5011
8753.9,-8.8276,8.2734
8765.6,-8.5336,5.475
8777.3,-8.5525,6.4177
8789.1,-7.1556,4.5588
8800.8,-7.7151,5.2281
8812.5,-10.377,7.9544
8824.2,-10.404,6.953
8835.9,-8.9262,5.7309
8847.7,-9.0345,5.9586
8859.4,-9.517,6.3859
8871.1,-12.142,6.6983
8882.8,-12.659,3.8034
8894.5,-12.498,3.9262
8906.3,-12.654,4.7063
8918,-11.816,6.1956
8929.7,-12.141,7.2144
8941.4,-14.031,6.1281
8953.1,-10.078,7.8844
8964.8,-11.588,8.9125
8976.6,-8.9126,4.7362
8988.3,-9.8111,5.4371
9000,-12.296,4.7009
9011.7,-12.057,2.5517
9023.4,-11.772,5.7884
9035.2,-11.978,8.382
9046.9,-12.838,8.0977
9058.6,-11.649,9.3024
9070.3,-11.103,7.3029
9082,-7.7966,5.863
9093.8,-7.1223,3.7536
9105.5,-8.7464,4.888
9117.2,-11.621,5.4202
9128.9,-10.149,7.6568
9140.6,-8.4233,9.8918
9152.3,-11.302,5.9059
9164.1,-9.9184,3.9684
9175.8,-9.042,7.1039
9187.5,-9.6529,5.2477
9199.2,-7.7182,4.3211
9210.9,-6.9401,5.4596
9222.7,-7.2049,4.4846
9234.4,-10.927,5.1507
9246.1,-14.172,5.8781
9257.8,-13.946,3.5564
9269.5,-12.425,4.4013
9281.3,-9.234,7.0006
9293,-7.863,4.1516
9304.7,-9.8751,4.8417
9316.4,-10.834,5.1051
9328.1,-8.4838,5.774
9339.8,-9.1468,6.7725
9351.6,-12.279,6.7893
9363.3,-13.111,6.3896
9375,-11.223,6.0606
9386.7,-12.089,4.3299
9398.4,-12.45,5.8127
9410.2,-12.323,6.6852
9421.9,-12.695,5.1435
9433.6,-12.65,4.2741
9445.3,-10.363,7.4916
9457,-10.204,8.3542
9468.8,-11.933,6.3993
9480.5,-12.414,7.5437
9492.2,-12.28,5.8732
9503.9,-10.452,5.0306
9515.6,-7.3144,4.8845
9527.3,-8.7216,6.4103
9539.1,-11.756,5.4006
9550.8,-11.788,5.5247
9562.5,-12.061,4.7347
9574.2,-10.538,3.5808
9585.9,-10.198,0.62922
9597.7,-11.74,1.3954
9609.4,-7.1495,5.1599
9621.1,-7.8489,6.4455
9632.8,-12.061,6.653
9644.5,-11.794,5.0839
9656.3,-9.2637,3.1377
9668,-9.3625,2.9415
9679.7,-10.224,3.8636
9691.4,-9.8976,3.5265
9703.1,-10.222,4.4525
9714.8,-14.006,5.9925
9726.6,-10.704,5.0926
9738.3,-7.6953,4.18
9750,-8.1815,4.8526
9761.7,-9.6438,4.2703
9773.4,-8.5961,1.2359
9785.2,-8.8536,2.2891
9796.9,-9.0098,4.818
9808.6,-8.6028,5.9431
9820.3,-10.838,5.7367
9832,-8.6808,4.1431
9843.8,-10.196,2.4993
9855.5,-10.666,4.3111
9867.2,-9.2427,1.7294
9878.9,-6.2044,1.911
9890.6,-9.4412,4.5838
9902.3,-12.695,3.7886
9914.1,-10.454,3.7784
9925.8,-11.289,4.5253
9937.5,-11.545,2.2773
9949.2,-8.8353,5.3178
9960.9,-12.775,5.285
9972.7,-15.103,2.1961
9984.4,-14.757,1.4902
9996.1,-11.343,2.5039
10008,-10.896,2.1504
10020,-12.411,3.5777
10031,-11.459,5.0606
10043,-10.508,4.1421
10055,-12.551,3.7413
10066,-12.458,4.7582
10078,-11.172,4.9124
10090,-14.641,5.1217
10102,-11.108,4.7646
10113,-11.147,3.5312
10125,-14.359,3.289
10137,-9.4134,6.4433
10148,-10.907,6.8181
10160,-12.448,4.6814
10172,-11.779,1.9403
10184,-13.512,1.699
10195,-13.808,6.747
10207,-13.587,4.4686
10219,-11.6,3.1516
10230,-11.639,4.0038
10242,-13.728,3.7793
10254,-13.332,5.0683
10266,-13.226,2.8527
10277,-9.5249,3.4466
10289,-8.6845,3.0252
10301,-9.9683,0.60365
10313,-11.586,1.7413
10324,-11.33,3.0218
10336,-11.194,3.9646
10348,-12.68,1.624
10359,-13.627,3.2433
10371,-13.658,2.7853
10383,-13.11,5.5355
10395,-11.074,6.7951
10406,-13.703,4.4611
10418,-15.965,6.9315
10430,-13.433,6.5683
10441,-11.291,3.9552
10453,-10.03,2.175
10465,-9.3154,2.4042
10477,-8.7592,4.3334
10488,-7.3616,5.5385
10500,-9.9557,5.9438
10512,-9.627,4.9575
10523,-10.207,5.5677
10535,-10.722,4.802
10547,-11.999,0.6977
10559,-10.522,1.6272
10570,-11.788,4.2741
10582,-10.649,4.9804
10594,-12.85,1.4516
10605,-14.795,2.6758
10617,-10.34,1.7824
10629,-9.3298,2.7749
10641,-10.547,2.1855
10652,-10.979,3.1925
10664,-11.981,4.3832
10676,-13.444,3.0149
10688,-15.804,5.0844
10699,-11.501,4.4522
10711,-10.266,1.9168
10723,-9.6694,5.1522
10734,-14.984,5.1892
10746,-12.445,5.3673
10758,-11.461,5.9844
10770,-10.959,3.901
10781,-11.802,2.9175
10793,-14.004,4.3345
10805,-14.968,4.45
10816,-12.481,1.8716
10828,-13.049,1.4945
10840,-15.036,2.6826
10852,-14.639,3.8725
10863,-14.036,4.15
10875,-16.331,4.1142
10887,-13.482,3.3716
10898,-13.832,3.9856
10910,-12.712,3.7236
10922,-11.899,4.2755
10934,-15.23,5.301
10945,-11.992,3.814
10957,-9.5774,4.7317
10969,-12.294,2.5627
10980,-10.253,4.0388
10992,-13.945,0.69086
11004,-14.568,0.46471
11016,-13.202,2.4616
11027,-12.372,2.1224
11039,-12.936,-0.40955
11051,-13.791,-0.95252
11063,-13.811,3.4316
11074,-12.111,1.9585
11086,-12.879,0.94083
11098,-12.764,0.7898
11109,-12.037,1.1622
11121,-13.011,4.7611
11133,-14.181,8.3146
11145,-13.726,4.0845
11156,-14.925,1.8885
11168,-13.776,4.8733
11180,-13.026,5.0035
11191,-11.95,6.4144
11203,-10.532,6.0453
11215,-12.125,0.5909
11227,-12.369,2.0802
11238,-13.999,1.2466
11250,-13.933,2.0994
11262,-11.452,2.266
11273,-13.482,2.2465
11285,-11.481,3.4868
11297,-16.13,1.485
11309,-16.001,0.93154
11320,-13.063,1.4001
11332,-10.514,1.9516
11344,-10.485,2.7049
11355,-11.655,4.4707
11367,-15.587,2.5511
11379,-13.936,2.3719
11391,-12.388,3.9826
11402,-12.924,3.5249
11414,-11.617,3.8835
11426,-12.149,3.447
11438,-12.042,2.4186
11449,-12.578,0.59626
11461,-12.349,-0.073666
11473,-10.296,1.8173
11484,-10.408,5.2011
11496,-10.186,4.141
11508,-9.615,4.8774
11520,-11.037,5.8047
11531,-14.668,1.0706
11543,-12.179,2.0079
11555,-10.991,2.9427
11566,-13.52,-0.94536
11578,-14.72,0.34835
11590,-15.425,2.4282
11602,-15.004,1.8071
11613,-13.058,1.5064
11625,-12.477,1.7398
11637,-13.738,1.6821
11648,-15.248,1.4704
11660,-12.853,4.5745
11672,-13.763,3.9946
11684,-13.506,3.5329
11695,-15.295,3.7635
11707,-15.381,1.9136
11719,-12.226,2.1625
11730,-13.928,4.2436
11742,-14.697,2.4835
11754,-11.24,1.7807
11766,-12.743,2.0445
11777,-16.198,2.4928
11789,-11.431,4.1723
11801,-11.152,3.7091
11813,-12.89,1.9035
11824,-10.065,4.9925
11836,-10.444,1.5226
11848,-13.96,1.6766
11859,-12.328,2.8143
11871,-13.203,2.1175
11883,-15.473,3.9076
11895,-13.387,4.239
11906,-14.402,7.3743
11918,-15.492,3.954
11930,-11.621,0.43011
11941,-11.577,3.5263
11953,-13.759,4.9817
11965,-14.915,2.0218
11977,-11.206,0.12166
11988,-6.4607,0.5599
12000,-11.287,1.3554
12012,-14.367,1.3879
12023,-11.493,3.8162
12035,-12.705,4.8101
12047,-14.54,3.5902
12059,-15.104,1.7359
12070,-14.29,-1.8597
12082,-12.112,2.7045
12094,-10.545,5.0057
12105,-10.856,2.9835
12117,-12.997,-0.28894
12129,-10.914,-0.29015
12141,-11.643,-0.17068
12152,-12.747,2.1398
12164,-14.448,1.4729
12176,-14.142,0.55446
12188,-12.639,0.96313
12199,-12.279,1.3822
12211,-12.116,1.666
12223,-10.798,-1.0703
12234,-11.222,-0.33739
12246,-12.764,1.8533
12258,-12.8,2.1137
12270,-13.088,1.3372
12281,-12.818,2.8018
12293,-17.755,5.0607
12305,-14.719,4.6531
12316,-13.984,2.1545
12328,-18.016,2.7566
12340,-13.921,2.1228
12352,-13.833,1.6105
12363,-15.122,0.47527
12375,-15.697,0.14142
12387,-13.542,-0.67064
12398,-11.267,0.82837
12410,-9.91,0.9791
12422,-9.1212,3.1627
12434,-12.499,4.6273
12445,-14.401,2.8754
12457,-13.442,3.6137
12469,-11.307,3.4959
12480,-14.443,1.803
12492,-12.565,1.3741
12504,-10.976,1.2239
12516,-11.702,2.5279
12527,-15.277,2.6694
12539,-15.568,2.3815
12551,-15.48,1.96
12563,-16.002,-1.0593
12574,-13.644,2.3847
12586,-13.972,3.33
12598,-12.825,0.97835
12609,-13.784,2.2959
12621,-16.227,0.12837
12633,-15.405,0.17485
12645,-13.382,0.86907
12656,-14.489,2.2425
12668,-13.567,1.9065
12680,-13.018,2.2507
12691,-11.54,0.36645
12703,-10.518,-2.6543
12715,-12.524,0.18339
12727,-13.868,0.41988
12738,-14.97,2.5634
12750,-14.418,1.408
12762,-15.581,0.8823
12773,-12.507,1.5754
12785,-9.3174,2.6836
12797,-11.426,2.5307
12809,-11.758,-0.98572
12820,-12.546,-0.14494
12832,-13.452,3.3581
12844,-13.776,4.8436
12855,-13.517,3.9316
12867,-13.304,1.3602
12879,-13.993,-1.4873
12891,-13.558,2.0873
12902,-11.162,2.0316
12914,-11.12,-2.1105
12926,-11.584,1.2911
12938,-11.812,4.3335
12949,-11.972,3.6088
12961,-11.241,1.6315
12973,-10.401,-0.47746
12984,-9.9288,1.5773
12996,-11.13,2.4675
13008,-14.162,1.6019
13020,-11.528,-0.67762
13031,-11.333,0.54279
13043,-12.23,3.4206
13055,-17.433,2.7508
13066,-16.744,-0.90345
13078,-13.148,1.0655
13090,-11.397,0.53015
13102,-14.474,0.10663
13113,-13.145,-0.27345
13125,-10.346,0.62303
13137,-12.076,-1.1238
13148,-12.162,-0.40353
13160,-12.118,-0.62308
13172,-14.085,-0.53964
13184,-15.111,0.83056
13195,-11.96,1.3559
13207,-13.007,0.50051
13219,-15.426,0.032292
13230,-17.063,0.44216
13242,-16.523,3.1837
13254,-15.783,0.11464
13266,-16.98,0.11524
13277,-16.276,1.836
13289,-14.907,2.7372
13301,-14.654,-0.020411
13313,-15.558,-0.14431
13324,-14.612,1.9195
13336,-13.274,0.53656
13348,-11.241,1.1279
13359,-13.531,2.0556
13371,-14.747,1.0983
13383,-13.187,2.8387
13395,-11.61,-0.37252
13406,-12.401,-1.8251
13418,-12.94,0.89102
13430,-12.254,-0.26767
13441,-9.6507,2.0527
13453,-7.592,1.7853
13465,-11.387,1.348
13477,-14.929,0.96815
13488,-16.314,0.95618
13500,-16.535,1.2777
13512,-12.621,-1.6672
13523,-14.222,-0.16576
13535,-14.628,1.1333
13547,-15.034,2.5441
13559,-14.433,-0.29456
13570,-13.671,-1.1552
13582,-12.742,-0.17161
13594,-11.555,-0.27905
13605,-12.921,1.3697
13617,-14.829,-0.87962
13629,-16.155,-1.1959
13641,-15.805,0.56545
13652,-15.891,0.41098
13664,-17.941,-0.40042
13676,-14.837,-0.65615
13688,-14.621,0.18619
13699,-16.025,0.21912
13711,-15.778,1.8319
13723,-16.314,1.0419
13734,-17.221,-1.5159
13746,-18.234,0.81005
13758,-15.608,0.37192
13770,-13.997,0.079631
13781,-16.563,-1.8333
13793,-17.93,-0.94908
13805,-16.177,0.087651
13816,-14.581,-0.57959
13828,-17.257,-1.5244
13840,-18.874,-1.9223
13852,-16.365,0.11238
13863,-15.722,-1.4027
13875,-17.785,-1.0971
13887,-14.467,-2.7218
13898,-16.828,0.099916
13910,-15.611,-0.23581
13922,-13.585,0.28301
13934,-18.044,1.2664
13945,-16.988,-0.61899
13957,-15.334,-1.0255
13969,-12.674,0.26787
13980,-17.782,0.79026
13992,-15.416,-1.5575
14004,-13.926,-2.1682
14016,-14.797,-1.7411
14027,-17.214,-1.4322
14039,-17.918,1.1536
14051,-16.565,1.8029
14063,-15.052,-0.94127
14074,-14.52,-0.71856
14086,-14.583,0.058892
14098,-16.076,0.76185
14109,-15.515,0.16269
14121,-15.646,1.7426
14133,-14.212,-0.86873
14145,-12.11,-3.2601
14156,-13.38,-4.192
14168,-15.229,0.88782
14180,-15.035,-0.10106
14191,-15.411,-0.15049
14203,-15.961,-1.0959
14215,-14.733,-0.23163
14227,-15.575,2.4478
14238,-17.372,1.0447
14250,-15.573,1.3439
14262,-14.565,0.26307
14273,-15.23,-1.4429
14285,-16.935,1.0539
14297,-17.156,2.3514
14309,-15.591,0.15536
14320,-11.601,-2.1107
14332,-12.68,-2.5633
14344,-13.93,-1.0985
14355,-11.858,0.37548
14367,-13.231,0.52859
14379,-14.961,-0.97236
14391,-13.658,0.763
14402,-14.153,0.83383
14414,-16.156,-1.4792
14426,-16.005,-2.9381
14438,-17.249,-0.24091
14449,-18.297,0.038707
14461,-18.52,-2.0682
14473,-16.493,-2.1581
14484,-14.371,0.12735
14496,-18.025,0.3762
14508,-18.045,-0.28662
14520,-16.214,-1.5144
14531,-16.342,-2.2039
14543,-17.46,-1.7062
14555,-16.137,-0.85138
14566,-16.685,-0.88838
14578,-13.935,-3.0543
14590,-14.542,-2.1088
14602,-13.666,-3.1669
14613,-12.294,-2.9478
14625,-15.869,-1.1002
14637,-16.874,-1.1853
14648,-14.419,-2.5711
14660,-16.47,-0.89789
14672,-16.734,-1.881
14684,-17.044,-5.2472
14695,-18.061,-2.8131
14707,-18.851,-0.7241
14719,-15.628,-3.4024
14730,-16.038,-2.0581
14742,-14.3,-0.52201
14754,-14.949,-2.1561
14766,-15.387,-2.4125
14777,-15.801,-0.96802
14789,-19.668,-2.1633
14801,-17.163,-1.5046
14813,-17.835,-1.4713
14824,-17.494,-4.2397
14836,-15.078,0.13727
14848,-15.663,-2.142
14859,-16.566,0.028412
14871,-17.005,0.089885
14883,-17.328,-0.65156
14895,-17.447,0.088437
14906,-20.044,0.33126
14918,-21.067,1.7634
14930,-14.77,1.5542
14941,-13.25,-1.037
14953,-14.75,0.43756
14965,-16.828,2.454
14977,-18.184,1.6727
14988,-17.63,-1.3142
15000,-16.597,-5.2291
15012,-15.155,-0.77427
15023,-12.643,-1.0853
15035,-16.41,-2.3146
15047,-16.04,-0.84217
15059,-15.517,1.5032
15070,-17.326,-0.2741
15082,-16.811,-3.889
15094,-18.194,-1.9811
15105,-19.741,-2.3303
15117,-19.769,-3.5429
15129,-19.266,-3.2995
15141,-19.456,-2.7665
15152,-19.027,0.70965
15164,-17.504,1.2574
15176,-17.64,-1.6681
15188,-16.953,-3.0948
15199,-17.24,-3.1772
15211,-16.543,-2.4403
15223,-19.778,-0.39774
15234,-19.608,0.87567
15246,-18.251,-1.4501
15258,-18.122,-2.1901
15270,-17.272,-4.17
15281,-16.598,-2.348
15293,-17.57,-3.8635
15305,-18.605,-0.11996
15316,-18.897,1.4518
15328,-17.318,-1.5821
15340,-16.319,-1.5767
15352,-17.487,0.71996
15363,-15.194,1.5659
15375,-17.256,-0.20277
15387,-22.429,-2.6221
15398,-19.749,-0.17527
15410,-19.347,-2.1965
15422,-20.771,-3.1772
15434,-20.574,-0.65911
15445,-17.645,0.88146
15457,-19.47,-1.3268
15469,-18.721,-1.6897
15480,-17.224,-3.256
15492,-17.209,-1.403
15504,-17.97,-1.8598
15516,-23.457,-1.6194
15527,-20.686,-1.2791
15539,-20.731,-1.3781
15551,-20.519,-1.3741
15563,-19.594,-3.1711
15574,-18.567,-0.043255
15586,-18.769,1.1587
15598,-19.79,1.1005
15609,-20.889,-0.89972
15621,-22.125,-1.7169
15633,-20.32,-3.4523
15645,-19.055,-2.5294
15656,-18.998,-0.72529
15668,-16.948,-0.64919
15680,-18.178,-0.14027
15691,-16.898,-0.072294
15703,-17.75,-0.27412
15715,-18.2,-1.8218
15727,-17.32,-0.69567
15738,-17.838,-0.50216
15750,-20.247,-1.0186
15762,-19.023,-0.75096
15773,-19.946,0.45126
15785,-19.572,0.60995
15797,-20.669,-0.064611
15809,-18.803,-2.1397
15820,-19.214,-2.0032
15832,-20.065,-2.6692
15844,-19.742,-3.62
15855,-20.782,-0.32917
15867,-20.465,2.8555
15879,-23.621,0.82498
15891,-18.93,0.082154
15902,-17.813,-1.1006
15914,-17.297,-2.6498
15926,-18.728,-3.0826
15938,-19.605,-3.7009
15949,-19.835,-3.7735
15961,-17.793,-3.4308
15973,-17.499,-4.111
15984,-16.682,-7.0597
15996,-17.789,-3.6042
16008,-19.409,-5.0999
16020,-16.585,-5.1517
16031,-18.068,-1.7377
16043,-18.339,-4.4751
16055,-20.769,-4.0297
16066,-19.949,-3.0352
16078,-20.314,-3.6216
16090,-21.143,0.22132
16102,-21.114,2.6075
16113,-22.032,-1.422
16125,-19.234,-2.5042
16137,-21,-3.0232
16148,-20.083,-4.523
16160,-18.223,-4.3021
16172,-17.59,-4.0263
16184,-16.846,-2.3219
16195,-20.231,-2.3605
16207,-21.795,-4.1249
16219,-18.409,-3.3103
16230,-18.409,2.2348
16242,-18.998,0.92515
16254,-19.903,-1.3215
16266,-20.786,-0.98442
16277,-18.489,-0.82326
16289,-17.694,-1.6082
16301,-18.52,0.436
16313,-19.439,0.68762
16324,-21.408,-0.82785
16336,-21.936,-4.4711
16348,-20.577,-3.9978
16359,-15.83,-4.1777
16371,-16.808,-4.2881
16383,-20.541,-3.0042
16395,-19.634,-5.6222
16406,-19.255,-7.4315
16418,-18.086,-4.4977
16430,-17.975,-2.13
16441,-18.955,-3.5038
16453,-20.163,-2.5228
16465,-20.383,-2.1845
16477,-20.539,-4.4503
16488,-21.312,-3.9155
16500,-20.889,-0.39416
16512,-20.548,0.52183
16523,-18.528,-0.23329
16535,-18.711,-3.2704
16547,-19.378,-4.5762
16559,-21.841,-2.6356
16570,-20.784,-3.6301
16582,-20.874,-4.6555
16594,-22.849,-2.0055
16605,-24.328,-2.9926
16617,-21.998,-3.6873
16629,-20.178,-2.77
16641,-20.255,-1.1221
16652,-21.003,-0.82785
16664,-21.606,-2.4871
16676,-23.343,-4.382
16688,-23.099,-4.2915
16699,-21.379,-5.8202
16711,-22.199,-5.0673
16723,-24.015,-6.6035
16734,-21.464,-3.47
16746,-17.777,-2.0494
16758,-20.011,-0.43309
16770,-21.208,-0.92641
16781,-19.351,-2.0611
16793,-20.436,-3.788
16805,-21.791,-5.1702
16816,-19.907,-2.9043
16828,-20.816,-1.4908
16840,-20.497,-1.7935
16852,-20.696,-2.8564
16863,-19.861,-4.4315
16875,-19.083,-3.351
16887,-19.771,-3.7107
16898,-20.758,-1.3915
16910,-20.573,-1.9617
16922,-20.964,-2.1696
16934,-23.37,-0.87888
16945,-26.688,-0.87201
16957,-21.901,-3.1766
16969,-20.965,-4.1024
16980,-18.148,-4.7939
16992,-19.227,-4.2712
17004,-22.79,-2.6062
17016,-21.889,0.29863
17027,-21.644,-1.8339
17039,-19.258,-3.969
17051,-18.342,-6.9948
17063,-19.681,-2.9457
17074,-20.649,-4.2547
17086,-23.358,-6.423
17098,-24.214,-6.0234
17109,-22.672,-3.5544
17121,-21.158,-3.7417
17133,-19.958,-4.8851
17145,-19.593,-2.9864
17156,-20.57,-2.9164
17168,-20.884,-4.5939
17180,-24.73,-2.9941
17191,-20.976,-2.848
17203,-21.392,-2.8192
17215,-22.856,-2.8212
17227,-24.278,-3.2882
17238,-19.426,-3.2031
17250,-17.807,-2.5599
17262,-19.125,-3.6456
17273,-19.88,-5.2863
17285,-19.776,-5.3938
17297,-19.577,-4.9478
17309,-20.226,-1.7975
17320,-19.161,-3.2105
17332,-20.263,-3.5402
17344,-20.626,-1.521
17355,-20.597,-1.9702
17367,-20.291,-3.2285
17379,-20.303,-3.2923
17391,-21.322,-6.4779
17402,-21.91,-5.2217
17414,-21.24,-4.4194
17426,-20.516,-4.2563
17438,-19.811,-7.0862
17449,-23.62,-5.5507
17461,-20.588,-5.9144
17473,-18.233,-4.4174
17484,-17.752,-1.1417
17496,-19.987,-3.5249
17508,-25.424,-4.289
17520,-24.782,-4.5433
17531,-21.1,-7.0266
17543,-19.667,-6.422
17555,-20.354,-4.8601
17566,-20.448,-4.0195
17578,-20.975,-5.1806
17590,-20.371,-8.9299
17602,-21.401,-5.7403
17613,-23.616,-4.9531
17625,-25.027,-2.0596
17637,-23.219,-1.8432
17648,-21.842,-4.2649
17660,-19.123,-2.5423
17672,-18.498,-3.303
17684,-19.606,-2.7807
17695,-21.898,-2.6973
17707,-18.923,-4.8651
17719,-18.407,-5.3173
17730,-20.539,-4.2491
17742,-19.162,-4.6619
17754,-19.337,-5.1535
17766,-20.703,-3.7964
17777,-22.297,-4.1695
17789,-22.295,-8.1742
17801,-21.76,-4.4098
17813,-24.055,-3.0133
17824,-25.195,-4.4107
17836,-23.611,-3.4346
17848,-23.067,-4.8641
17859,-24.323,-6.8813
17871,-24.054,-3.408
17883,-22.823,-4.5463
17895,-21.996,-2.9243
17906,-24.361,-3.2781
17918,-22.845,-4.2529
17930,-20.165,-3.4101
17941,-22.814,-5.2372
17953,-24.216,-4.5138
17965,-23.56,-4.2613
17977,-23.208,-2.0268
17988,-22.188,0.86826
18000,-25.076,-3.7259
18012,-22.91,-5.3379
18023,-18.579,-3.9097
18035,-18.438,-3.0063
18047,-20.027,-5.3859
18059,-21.137,-6.6972
18070,-20.436,-6.3905
18082,-20.534,-4.243
18094,-20.197,-5.7624
18105,-23.305,-6.0456
18117,-24.888,-4.9509
18129,-24.193,-4.4734
18141,-23.788,-2.2782
18152,-23.5,-4.4244
18164,-22.127,-4.2165
18176,-22.408,-4.0264
18188,-22.069,-6.8701
18199,-21.839,-2.1186
18211,-23.047,-2.427
18223,-25.105,-5.6803
18234,-24.582,-6.3398
18246,-23.425,-6.5081
18258,-24.139,-4.6902
18270,-21.574,-2.0526
18281,-20.848,-3.6157
18293,-21.353,-6.2023
18305,-20.184,-2.633
18316,-23.181,-2.5768
18328,-22.338,-3.9674
18340,-21.624,-3.5884
18352,-25.699,-2.9915
18363,-22.441,-6.4993
18375,-21.491,-5.3352
18387,-21.944,-1.5515
18398,-19.503,-3.0532
18410,-21.013,-4.1291
18422,-22.276,-4.5906
18434,-24.226,-4.6647
18445,-23.298,-4.2203
18457,-23.441,-4.3218
18469,-22.211,-3.6344
18480,-20.277,-5.7117
18492,-20.403,-6.8432
18504,-21.99,-6.2023
18516,-23.638,-3.8572
18527,-25.635,-4.5372
18539,-24.815,-6.6626
18551,-23.996,-3.6547
18563,-22.913,-3.5809
18574,-22.819,-6.6955
18586,-22.003,-6.68
18598,-23.761,-4.097
18609,-24.135,-1.2373
18621,-22.486,-3.7336
18633,-21.583,-4.6089
18645,-22.057,-4.141
18656,-21.924,-3.9758
18668,-24.3,-4.9133
18680,-23.122,-5.3588
18691,-23.371,-2.5288
18703,-26.381,-3.124
18715,-24.389,-5.6277
18727,-24.152,-8.3455
18738,-23.08,-9.7659
18750,-22.177,-6.0823
18762,-25.564,-4.9128
18773,-22.285,-5.4819
18785,-19.24,-6.7897
18797,-19.457,-6.8021
18809,-17.765,-5.7317
18820,-18.969,-5.9361
18832,-25.271,-8.3095
18844,-23.445,-7.9251
18855,-23.187,-4.9769
18867,-22.801,-3.9952
18879,-25.763,-4.6715
18891,-23.488,-6.7178
18902,-24.302,-4.6408
18914,-27.052,-6.042
18926,-29.513,-4.5276
18938,-25.058,-2.8868
18949,-24.108,-4.9813
18961,-22.814,-6.1462
18973,-21.735,-6.7052
18984,-23.798,-6.062
18996,-25.805,-5.7065
19008,-23.992,-2.7576
19020,-24.596,-2.3151
19031,-22.199,-3.1447
19043,-20.699,-2.6125
19055,-20.1,-2.0702
19066,-22.287,-3.4273
19078,-23.455,-4.8611
19090,-24.521,-6.0668
19102,-25.175,-3.7121
19113,-25.185,-6.0585
19125,-25.773,-6.2633
19137,-24.431,-4.7557
19148,-23.418,-5.9181
19160,-21.936,-5.5973
19172,-22.324,-7.0367
19184,-23.101,-8.3245
19195,-22.622,-7.1482
19207,-20.757,-5.0956
19219,-21.836,-5.221
19230,-25.658,-6.0909
19242,-26.861,-3.678
19254,-26.94,-4.3691
19266,-26.603,-6.9677
19277,-25.987,-5.5069
19289,-26.437,-5.7454
19301,-27.749,-5.7266
19313,-25.786,-4.1673
19324,-23.223,-5.2214
19336,-25.468,-7.4198
19348,-28.543,-6.7152
19359,-25.178,-7.0767
19371,-24.131,-6.99
19383,-23.461,-4.2916
19395,-21.697,-3.3562
19406,-21.24,-5.1393
19418,-21.047,-6.1446
19430,-23.554,-6.051
19441,-25.546,-3.9861
19453,-24.004,-4.2117
19465,-23.079,-4.3545
19477,-23.893,-5.7165
19488,-25.079,-6.2197
19500,-25.491,-5.8924
19512,-23.045,-6.6647
19523,-23.416,-6.6236
19535,-27.185,-6.338
19547,-26.98,-9.0619
19559,-25.76,-8.3291
19570,-26.025,-6.6296
19582,-24.945,-7.8931
19594,-23.355,-7.5283
19605,-23.185,-7.1438
19617,-28.879,-4.143
19629,-27.079,-3.6386
19641,-24.748,-4.461
19652,-23.805,-3.9757
19664,-25.373,-4.0578
19676,-24.545,-4.3541
19688,-23.96,-4.1107
19699,-24.079,-7.0132
19711,-24.047,-6.5056
19723,-27.167,-6.8804
19734,-26.224,-7.5447
19746,-24.992,-7.9476
19758,-26.015,-9.102
19770,-23.038,-5.9224
19781,-25.342,-5.3701
19793,-26.624,-6.5408
19805,-28.46,-6.5872
19816,-25.925,-5.7891
19828,-27.503,-6.3438
19840,-25.679,-7.5325
19852,-23.843,-8.6649
19863,-25.775,-7.5232
19875,-24.198,-5.5241
19887,-24.735,-2.9954
19898,-26.763,-2.9667
19910,-21.456,-3.1192
19922,-20.927,-5.6389
19934,-24.472,-7.2866
19945,-28.12,-6.949
19957,-27.165,-8.8711
19969,-24.653,-7.2258
19980,-26.78,-2.7806
19992,-26.451,-5.4898
20004,-24.086,-4.4668
20016,-23.135,-4.7297
20027,-25.604,-6.9768
20039,-25.811,-8.0398
20051,-28.051,-6.3478
20063,-25.419,-4.2783
20074,-27.901,-7.5569
20086,-28.151,-8.7412
20098,-27.494,-8.4591
20109,-26.945,-3.1702
20121,-26.239,-2.6788
20133,-27.146,-2.4117
20145,-26.891,-4.5753
20156,-25.722,-8.7448
20168,-23.506,-7.6779
20180,-22.205,-6.4689
20191,-26.284,-7.4456
20203,-24.696,-5.6389
20215,-28.75,-4.3802
20227,-23.36,-7.4293
20238,-24.662,-9.417
20250,-26.277,-8.84
20262,-25.029,-10.152
20273,-25.397,-7.045
20285,-25.985,-5.6548
20297,-26.055,-4.745
20309,-25.204,-6.0473
20320,-24.773,-5.5851
20332,-24.093,-5.4828
20344,-23.945,-4.5499
20355,-24.607,-8.1733
20367,-26.209,-8.5786
20379,-26.892,-5.1118
20391,-25.81,-4.9218
20402,-23.746,-6.5552
20414,-22.879,-3.3855
20426,-23.796,-4.3915
20438,-22.852,-8.3165
20449,-22.034,-6.9188
20461,-24.875,-2.6007
20473,-29.003,-4.5755
20484,-27.861,-6.4627
20496,-23.319,-2.411
20508,-22.445,-1.3518
20520,-24.694,-3.9877
20531,-23.297,-6.1681
20543,-24.305,-5.8342
20555,-28.789,-4.942
20566,-23.901,-7.0222
20578,-22.581,-7.9534
20590,-23.155,-8.1204
20602,-25.505,-8.7477
20613,-25.163,-6.4526
20625,-27.202,-5.4815
20637,-26.429,-5.9809
20648,-23.968,-9.5746
20660,-26.15,-7.1537
20672,-26.308,-7.0618
20684,-25.948,-5.5017
20695,-27.339,-7.8452
20707,-30.234,-7.4603
20719,-26.919,-7.6142
20730,-24.994,-9.8318
20742,-23.536,-6.974
20754,-24.59,-6.6803
20766,-26.024,-10.445
20777,-24.422,-8.428
20789,-24.253,-7.1045
20801,-25.012,-9.6667
20813,-25.544,-11.02
20824,-24.57,-8.775
20836,-24.543,-8.844
20848,-25.855,-9.5834
20859,-27.86,-9.082
20871,-25.421,-7.6187
20883,-26.663,-9.1084
20895,-26.067,-4.6386
20906,-25.733,-6.1443
20918,-24.227,-7.9639
20930,-25.538,-6.291
20941,-25.872,-3.9793
20953,-26.569,-5.8545
20965,-27.177,-6.0175
20977,-25.744,-5.6433
20988,-26.622,-6.5937
21000,-27.552,-6.502
21012,-24.174,-7.8605
21023,-24.654,-10.14
21035,-27.09,-7.3262
21047,-26.698,-6.0225
21059,-26.344,-7.7846
21070,-26.955,-6.4872
21082,-25.048,-5.6958
21094,-26.673,-8.3568
21105,-27.399,-10.689
21117,-26.165,-8.4154
21129,-26.431,-8.0102
21141,-23.515,-6.791
21152,-23.997,-7.1114
21164,-25.551,-7.5132
21176,-25.841,-6.5503
21188,-28.003,-7.0743
21199,-26.039,-8.8311
21211,-26.14,-10.214
21223,-24.352,-8.8025
21234,-24.278,-7.0391
21246,-27.28,-8.3047
21258,-24.419,-4.8809
21270,-25.612,-6.6539
21281,-25.491,-5.1822
21293,-26.04,-6.1756
21305,-26.469,-7.762
21316,-24.123,-7.5269
21328,-23.674,-5.9122
21340,-25.362,-6.6439
21352,-24.315,-6.3612
21363,-23.569,-8.1942
21375,-25.571,-8.2948
21387,-25.692,-7.816
21398,-24.529,-7.8298
21410,-23.958,-6.5405
21422,-27.084,-6.2157
21434,-27.272,-8.1014
21445,-23.593,-9.0726
21457,-21.966,-9.1749
21469,-22.267,-9.2056
21480,-24.173,-6.7231
21492,-25.818,-7.6856
21504,-24.189,-7.4757
21516,-22.722,-6.4636
21527,-27.743,-6.3935
21539,-27.727,-6.5537
21551,-27.256,-5.8069
21563,-27.631,-4.4965
21574,-26.302,-5.9552
21586,-26.584,-9.3623
21598,-28.595,-6.4748
21609,-30.039,-6.5755
21621,-29.282,-8.1886
21633,-29.336,-10.293
21645,-29.713,-11.698
21656,-27.521,-7.451
21668,-27.957,-5.1928
21680,-29.399,-5.8856
21691,-29.426,-9.1801
21703,-28.435,-7.3998
21715,-29.504,-3.4556
21727,-26.864,-5.5408
21738,-25.568,-10.529
21750,-26.449,-9.385
21762,-26.627,-5.7712
21773,-25.07,-5.7856
21785,-25.051,-8.1418
21797,-25.346,-7.6925
21809,-26.551,-6.5657
21820,-27.495,-6.9927
21832,-25.747,-7.101
21844,-24.279,-8.7663
21855,-29.53,-6.1492
21867,-28.27,-9.2676
21879,-28.599,-12.664
21891,-26.106,-9.1378
21902,-26.483,-9.1072
21914,-27.411,-9.6063
21926,-24.163,-8.172
21938,-23.888,-9.2362
21949,-24.306,-8.8657
21961,-24.081,-8.7582
21973,-24.39,-9.2954
21984,-27.391,-7.7498
21996,-30.609,-8.1385
22008,-28.846,-6.0514
22020,-26.719,-7.213
22031,-26.23,-8.2875
22043,-26.071,-7.901
22055,-26.389,-7.8918
22066,-26.472,-6.461
22078,-27.244,-6.0515
22090,-24.69,-7.7031
22102,-23.683,-8.6176
22113,-26.357,-7.3017
22125,-28.677,-5.1254
22137,-28.244,-7.7123
22148,-26.31,-11.325
22160,-25.024,-12.818
22172,-26.475,-10.261
22184,-32.033,-10.307
22195,-28.63,-8.6756
22207,-27.008,-7.4467
22219,-28.106,-5.825
22230,-29.596,-7.4989
22242,-27.757,-10.557
22254,-26.743,-9.6027
22266,-29.837,-6.9146
22277,-30.414,-7.458
22289,-29.182,-6.8692
22301,-27.166,-4.8198
22313,-26.436,-4.3627
22324,-24.996,-6.6252
22336,-26.027,-9.4235
22348,-29.436,-9.3142
22359,-27.878,-8.0248
22371,-29.012,-8.1983
22383,-29.534,-7.0244
22395,-30.075,-6.5706
22406,-32.256,-8.9142
22418,-27.913,-6.3932
22430,-28.393,-6.0633
22441,-29.493,-7.5357
22453,-24.094,-7.2602
22465,-24.922,-7.7592
22477,-27.84,-7.2196
22488,-29.643,-6.748
22500,-31.888,-8.7629
22512,-30.525,-10.412
22523,-29.66,-5.154
22535,-28.687,-5.5425
22547,-27.756,-8.9501
22559,-26.423,-8.8804
22570,-26.629,-10.311
22582,-26.482,-10.888
22594,-26.637,-10.823
22605,-29.321,-10.3
22617,-26.871,-10.513
22629,-27.339,-8.7007
22641,-29.643,-7.4639
22652,-27.577,-10.398
22664,-26.279,-12.89
22676,-26.91,-13.801
22688,-25.687,-12.486
22699,-27.722,-10.589
22711,-27.561,-9.4871
22723,-30.196,-10.254
22734,-29.623,-10.023
22746,-28.248,-8.0126
22758,-28.036,-6.0857
22770,-26.828,-7.205
22781,-28.031,-5.7478
22793,-27.332,-5.5889
22805,-27.711,-7.5878
22816,-30.863,-9.2894
22828,-28.67,-9.3625
22840,-26.701,-7.8652
22852,-27.703,-8.0942
22863,-30.374,-10.143
22875,-27.655,-12.061
22887,-27.557,-9.8661
22898,-28.103,-6.3115
22910,-34.382,-4.5994
22922,-27.603,-5.8396
22934,-27.128,-4.7486
22945,-27.359,-5.5216
22957,-26.38,-7.726
22969,-27.368,-8.9294
22980,-25.105,-6.992
22992,-26.058,-5.8625
23004,-28.788,-6.1089
23016,-26.529,-5.4614
23027,-26.131,-7.5978
23039,-27.463,-8.8815
23051,-28.944,-10.631
23063,-29.133,-8.0737
23074,-27.795,-9.9658
23086,-26.421,-11.178
23098,-26.158,-9.7783
23109,-25.923,-9.1477
23121,-26.467,-8.9095
23133,-26.42,-6.6788
23145,-24.961,-10.359
23156,-27.121,-8.6752
23168,-27.954,-7.5388
23180,-29.865,-6.9104
23191,-28.049,-7.5717
23203,-27.941,-8.2505
23215,-27.115,-9.2447
23227,-25.22,-9.1095
23238,-27.999,-6.2034
23250,-28.918,-4.8909
23262,-27.395,-7.805
23273,-29.238,-10.817
23285,-30.31,-7.4626
23297,-30.992,-6.4963
23309,-31.624,-8.3723
23320,-30.119,-7.6752
23332,-29.351,-7.2811
23344,-28.953,-7.612
23355,-26.654,-10.122
23367,-28.556,-8.6961
23379,-29.24,-8.6866
23391,-28.572,-11.149
23402,-27.948,-14.011
23414,-26.775,-12.216
23426,-25.93,-11.21
23438,-30.829,-9.1118
23449,-28.334,-6.9954
23461,-28.625,-6.7307
23473,-28.512,-8.1789
23484,-28.496,-8.4249
23496,-28.336,-9.1199
23508,-29.509,-10.967
23520,-29.376,-9.1833
23531,-29.523,-8.8462
23543,-29.025,-10.049
23555,-29.354,-10.627
23566,-30.43,-11.975
23578,-29.681,-11.5
23590,-31.296,-9.5637
23602,-27.982,-9.3924
23613,-27.211,-8.8505
23625,-30.337,-10.225
23637,-27.126,-10.318
23648,-27.125,-10.889
23660,-26.525,-10.171
23672,-26.332,-10.162
23684,-28.286,-11.855
23695,-28.165,-10.335
23707,-28.129,-8.5585
23719,-25.874,-10.346
23730,-24.648,-9.9465
23742,-27.727,-10.303
23754,-27.681,-10.122
23766,-24.549,-8.7831
23777,-28.218,-11.528
23789,-29.498,-7.0258
23801,-27.007,-6.438
23813,-27.682,-11.08
23824,-27.86,-7.7437
23836,-29.107,-8.4639
23848,-31.598,-10.705
23859,-28.103,-11.409
23871,-28.869,-10.79
23883,-27.599,-8.7173
23895,-27.885,-8.5441
23906,-29.37,-10.44
23918,-30.767,-13.984
23930,-29.615,-12.456
23941,-28.128,-8.9855
23953,-28.219,-10.115
23965,-28.324,-9.4087
23977,-25.074,-10.86
23988,-26.684,-11.13
