FFT,Power Spectrum
Frequency[Hz],Level-L[dB],Level-R[dB]
11.719,-4.5575,-61.744
23.438,15.389,-54.058
35.156,15.214,-41.982
46.875,16.939,-27.145
58.594,18.647,-26.432
70.313,19.12,-31.942
82.031,15.771,-29.235
93.75,19.625,-25.758
105.47,15.893,-22.599
117.19,14.057,-19.335
128.91,17.789,-19.424
140.63,21.737,-15.738
152.34,20.24,-10.506
164.06,17.464,-15.717
175.78,15.742,-15.587
187.5,20.592,-17.223
199.22,19.599,-14.858
210.94,16.354,-18.175
222.66,18.586,-15.65
234.38,19.971,-12.985
246.09,17.543,-13.446
257.81,16.033,-15.117
269.53,15.486,-17.54
281.25,16.794,-17.521
292.97,16.387,-18.48
304.69,21.142,-18.188
316.41,17.978,-14.066
328.13,16.628,-15.094
339.84,13.924,-13.468
351.56,13.851,-12.273
363.28,16.497,-15.636
375,16.062,-14.5
386.72,14.749,-13.307
398.44,17.436,-15.221
410.16,16.841,-11.054
421.88,15.572,-12.288
433.59,16.209,-13.277
445.31,15.972,-12.634
457.03,15.312,-8.9861
468.75,19.69,-11.054
480.47,19.959,-10.916
492.19,15.137,-11.542
503.91,11.938,-11.955
515.63,15.691,-12.166
527.34,17.519,-13.724
539.06,17.315,-14.5
550.78,15.171,-14.055
562.5,16.568,-14.617
574.22,17.603,-9.8819
585.94,16.157,-7.8578
597.66,19.751,-9.364
609.38,19.69,-11.011
621.09,23.139,-12.975
632.81,23.198,-14.03
644.53,19.954,-12.18
656.25,14.819,-9.3714
667.97,17.396,-7.492
679.69,15.232,-9.4725
691.41,17.37,-11.349
703.13,17.315,-10.251
714.84,15.283,-9.4641
726.56,12.944,-10.248
738.28,15.247,-9.7105
750,17.049,-10.123
761.72,11.901,-8.8465
773.44,17.444,-9.7068
785.16,16.636,-10.333
796.88,15.865,-9.8253
808.59,14.032,-7.7356
820.31,14.595,-7.0693
832.03,15.08,-8.6163
843.75,12.881,-10.639
855.47,14.145,-11.9
867.19,15.043,-8.8795
878.91,15.528,-9.3373
890.63,14.96,-11.543
902.34,13.618,-11.174
914.06,15.575,-11.177
925.78,13.129,-10.645
937.5,13.873,-6.8284
949.22,15.846,-7.005
960.94,14.484,-10.904
972.66,14.104,-10.043
984.38,13.667,-10.94
996.09,11.639,-8.3248
1007.8,16.547,-6.6193
1019.5,15.753,-8.2983
1031.3,14.563,-6.9248
1043,16.456,-5.2893
1054.7,17.854,-5.5415
1066.4,14.99,-6.7839
1078.1,14.734,-8.5946
1089.8,14.52,-8.9424
1101.6,14.005,-8.7121
1113.3,17.31,-7.8501
1125,17.741,-7.8814
1136.7,15.74,-10.618
1148.4,14.925,-8.8242
1160.2,15.135,-9.6547
1171.9,14.838,-7.5976
1183.6,14.141,-9.7374
1195.3,14.397,-11.654
1207,11.511,-8.5553
1218.8,15.388,-8.1656
1230.5,18.157,-8.5164
1242.2,13.954,-7.891
1253.9,12.696,-6.6117
1265.6,14.842,-6.0169
1277.3,13.91,-8.5696
1289.1,13.378,-8.055
1300.8,13.031,-7.9748
1312.5,11.648,-11.589
1324.2,16.219,-6.0803
1335.9,15.436,-6.0034
1347.7,15.091,-7.4418
1359.4,17.391,-8.6723
1371.1,18.834,-6.7644
1382.8,15.64,-6.5087
1394.5,14.782,-7.4336
1406.3,14.165,-5.9195
1418,13.595,-7.143
1429.7,16.054,-5.5694
1441.4,17.195,-6.5353
1453.1,15.502,-9.3817
1464.8,14.128,-7.1425
1476.6,16.914,-5.9147
1488.3,17.114,-4.5552
1500,13.866,-4.3517
1511.7,13.323,-8.0608
1523.4,16.496,-8.1886
1535.2,15.565,-4.8552
1546.9,16.788,-6.9142
1558.6,16.318,-9.2946
1570.3,12.733,-6.8705
1582,13.624,-5.2171
1593.8,13.726,-5.1998
1605.5,14.077,-6.8307
1617.2,16.006,-8.9274
1628.9,15.52,-5.7435
1640.6,15.477,-7.0965
1652.3,13.657,-7.4925
1664.1,12.528,-6.7147
1675.8,12.048,-6.9646
1687.5,13.454,-7.4762
1699.2,11.953,-5.3382
1710.9,13.215,-9.3576
1722.7,16.045,-11.605
1734.4,15.311,-9.1468
1746.1,14.883,-5.3971
1757.8,13.226,-5.5104
1769.5,16.543,-7.9265
1781.3,17.874,-9.061
1793,15.161,-8.3626
1804.7,15.044,-6.401
1816.4,15.926,-3.4402
1828.1,15.88,-5.8124
1839.8,18.198,-10.101
1851.6,19.313,-10.638
1863.3,19.02,-10.019
1875,15.785,-9.5786
1886.7,12.795,-7.8957
1898.4,13.446,-8.8841
1910.2,14.097,-7.5328
1921.9,14.565,-5.9746
1933.6,15.734,-5.5794
1945.3,16.028,-5.7843
1957,15.187,-6.4977
1968.8,15.809,-8.4812
1980.5,14.695,-9.7368
1992.2,14.616,-9.8799
2003.9,11.597,-8.9057
2015.6,14.276,-10.268
2027.3,11.936,-8.4344
2039.1,10.24,-6.9189
2050.8,9.9432,-7.2511
2062.5,12.044,-4.978
2074.2,14.086,-7.4918
2085.9,13.601,-7.1018
2097.7,14.815,-4.559
2109.4,13.899,-7.1842
2121.1,16.712,-8.3194
2132.8,15.315,-10.121
2144.5,11.682,-8.2057
2156.3,12.106,-6.2148
2168,11.008,-6.0286
2179.7,11.984,-7.927
2191.4,13.773,-6.0452
2203.1,12.717,-5.7625
2214.8,12.686,-6.2047
2226.6,8.1859,-4.8629
2238.3,12.014,-6.1271
2250,11.984,-7.0717
2261.7,15.785,-6.482
2273.4,16.781,-5.2026
2285.2,14.367,-5.224
2296.9,13.144,-7.5031
2308.6,11.743,-8.7705
2320.3,13.34,-8.8877
2332,12.689,-7.6024
2343.8,10.925,-8.7413
2355.5,10.33,-8.1714
2367.2,13.132,-6.5811
2378.9,14.537,-5.7332
2390.6,13.37,-5.8702
2402.3,15.346,-5.4068
2414.1,14.578,-11.009
2425.8,15.972,-7.6903
2437.5,12.878,-6.1094
2449.2,11.659,-6.716
2460.9,10.964,-6.6919
2472.7,10.946,-8.1005
2484.4,11.208,-6.9143
2496.1,11.04,-7.6671
2507.8,11.492,-11.398
2519.5,10.201,-7.1461
2531.3,12.266,-6.4069
2543,13.806,-8.9446
2554.7,12.539,-7.799
2566.4,8.9681,-5.5452
2578.1,11.129,-5.0427
2589.8,10.345,-8.176
2601.6,9.7273,-9.0772
2613.3,9.8872,-9.6967
2625,9.0137,-5.4687
2636.7,9.2902,-4.2008
2648.4,13.158,-5.0293
2660.2,11.587,-4.5045
2671.9,13.054,-5.169
2683.6,11.165,-8.4537
2695.3,10.092,-8.8105
2707,10.225,-6.2488
2718.8,11.336,-6.848
2730.5,14.8,-8.0396
2742.2,14.072,-7.3396
2753.9,11.749,-6.7928
2765.6,6.6634,-8.8649
2777.3,9.0667,-7.2153
2789.1,9.7703,-6.7546
2800.8,11.89,-6.8791
2812.5,10.455,-6.5074
2824.2,10.574,-5.6292
2835.9,11.5,-5.1813
2847.7,10.225,-5.5549
2859.4,10.328,-5.8271
2871.1,10.338,-6.6365
2882.8,11.411,-9.5889
2894.5,10.76,-9.2048
2906.3,9.271,-7.1418
2918,11.059,-6.2927
2929.7,9.6857,-8.3067
2941.4,9.3885,-7.984
2953.1,11.814,-8.7456
2964.8,12.128,-5.8255
2976.6,12.361,-5.6466
2988.3,10.28,-8.9217
3000,14.637,-9.4595
3011.7,14.174,-8.1903
3023.4,12.305,-10.797
3035.2,9.8482,-5.9187
3046.9,8.8197,-8.0215
3058.6,10.994,-7.9245
3070.3,8.9356,-7.8616
3082,9.2903,-8.4648
3093.8,10.372,-7.3194
3105.5,10.412,-8.1912
3117.2,10.358,-8.3108
3128.9,8.8911,-9.1438
3140.6,9.5851,-9.5144
3152.3,9.9049,-8.0762
3164.1,11.513,-7.3446
3175.8,12.074,-6.5699
3187.5,10.227,-8.6759
3199.2,9.6389,-7.77
3210.9,8.3019,-5.1444
3222.7,8.3517,-5.908
3234.4,9.1115,-5.821
3246.1,9.6259,-7.2966
3257.8,12.007,-8.6894
3269.5,11.384,-7.4172
3281.3,10.483,-6.2703
3293,11.458,-7.1323
3304.7,9.5068,-9.7919
3316.4,6.6401,-7.443
3328.1,9.895,-6.0497
3339.8,11.91,-5.291
3351.6,8.6926,-7.5405
3363.3,7.2165,-9.036
3375,10.268,-7.1898
3386.7,12.309,-8.7632
3398.4,9.8592,-7.7806
3410.2,10.293,-8.1395
3421.9,10.569,-8.1847
3433.6,5.2556,-7.0329
3445.3,8.1801,-6.4068
3457,11.99,-7.459
3468.8,10.232,-8.0335
3480.5,9.524,-4.4799
3492.2,8.6491,-4.7153
3503.9,9.7068,-6.8403
3515.6,10.673,-7.6206
3527.3,10.663,-7.6765
3539.1,8.8506,-6.8668
3550.8,10.378,-9.3174
3562.5,8.4648,-9.0734
3574.2,8.4767,-7.901
3585.9,7.6295,-6.998
3597.7,9.7231,-7.8588
3609.4,10.212,-7.9144
3621.1,6.873,-7.9173
3632.8,7.1418,-9.357
3644.5,9.5806,-8.1033
3656.3,9.6868,-9.1927
3668,8.9939,-5.8197
3679.7,11.442,-5.1709
3691.4,10.841,-4.9591
3703.1,8.4967,-4.3147
3714.8,10.109,-4.7633
3726.6,11.064,-7.4505
3738.3,7.4283,-10.677
3750,4.584,-7.5134
3761.7,6.9014,-4.8529
3773.4,10.521,-4.519
3785.2,11.312,-4.706
3796.9,7.2751,-4.8969
3808.6,6.0213,-5.4617
3820.3,3.1398,-6.4839
3832,8.0451,-6.8684
3843.8,7.6941,-7.8032
3855.5,8.8671,-7.7886
3867.2,9.6856,-6.4422
3878.9,7.2814,-7.983
3890.6,7.2596,-7.7659
3902.3,8.0018,-6.7132
3914.1,9.2382,-5.3721
3925.8,8.0114,-6.5081
3937.5,7.7247,-9.8316
3949.2,8.7391,-8.9402
3960.9,9.3866,-7.8059
3972.7,9.3694,-7.014
3984.4,9.4833,-9.0923
3996.1,6.8688,-9.6752
4007.8,5.0098,-7.4011
4019.5,6.0413,-5.0551
4031.3,7.7085,-6.0719
4043,8.1455,-5.7539
4054.7,8.9676,-6.7651
4066.4,8.6418,-9.7733
4078.1,8.75,-9.4363
4089.8,10.643,-7.1345
4101.6,10.472,-4.7132
4113.3,8.3172,-7.5764
4125,7.3887,-8.9727
4136.7,5.7999,-7.1776
4148.4,7.0782,-8.3182
4160.2,7.793,-7.3945
4171.9,10.307,-6.5029
4183.6,10.39,-5.9281
4195.3,8.3388,-5.9505
4207,6.692,-7.6975
4218.8,4.3109,-8.7571
4230.5,8.0222,-6.7856
4242.2,6.7383,-6.477
4253.9,5.7541,-6.7042
4265.6,7.8761,-6.8914
4277.3,7.5937,-7.9253
4289.1,6.8651,-7.725
4300.8,7.1739,-5.555
4312.5,7.0016,-5.4106
4324.2,9.3275,-6.1871
4335.9,10.296,-6.4709
4347.7,9.1471,-6.7833
4359.4,8.6767,-10.078
4371.1,7.1069,-9.4404
4382.8,7.8136,-8.7467
4394.5,10.415,-7.7179
4406.3,12.378,-6.6425
4418,8.8726,-7.393
4429.7,4.1727,-8.5349
4441.4,5.4374,-8.4604
4453.1,6.938,-6.3504
4464.8,7.3436,-6.0941
4476.6,5.8162,-6.0273
4488.3,9.0433,-9.6096
4500,10.309,-7.835
4511.7,9.6262,-8.6019
4523.4,7.7546,-9.402
4535.2,6.0429,-10.259
4546.9,8.1894,-9.0283
4558.6,6.0441,-8.4025
4570.3,8.9124,-8.7495
4582,7.575,-9.567
4593.8,5.3595,-10.108
4605.5,6.2195,-8.9724
4617.2,8.468,-6.2771
4628.9,10.352,-5.9383
4640.6,9.3465,-7.5113
4652.3,6.8045,-6.2987
4664.1,6.3783,-7.5413
4675.8,10.339,-10.599
4687.5,7.9648,-9.8291
4699.2,6.2737,-8.5211
4710.9,10.233,-9.337
4722.7,10.991,-6.2207
4734.4,9.034,-6.5171
4746.1,4.5347,-9.2144
4757.8,6.1419,-6.9671
4769.5,7.561,-7.6158
4781.3,6.2732,-9.5226
4793,5.4958,-8.2637
4804.7,4.7393,-7.8235
4816.4,3.6353,-8.2498
4828.1,7.9355,-6.6893
4839.8,9.7247,-6.7796
4851.6,9.6221,-6.6501
4863.3,9.7271,-7.0941
4875,9.0396,-5.8281
4886.7,7.1138,-6.7575
4898.4,5.5141,-10.172
4910.2,2.8025,-9.9168
4921.9,5.6316,-6.5644
4933.6,6.8703,-5.9243
4945.3,5.7139,-5.7204
4957,3.9363,-8.2523
4968.8,4.3,-10.377
4980.5,5.7642,-11.79
4992.2,4.9547,-6.7259
5003.9,7.3957,-6.2342
5015.6,8.2347,-7.4606
5027.3,6.4955,-7.5458
5039.1,6.6823,-12.365
5050.8,5.7723,-9.9285
5062.5,5.6792,-7.2427
5074.2,6.3832,-9.0496
5085.9,5.057,-9.4857
5097.7,5.585,-8.2806
5109.4,4.5851,-10.983
5121.1,5.6989,-8.5278
5132.8,7.4298,-6.5634
5144.5,7.6374,-9.1645
5156.3,4.2187,-11.368
5168,2.6952,-8.3077
5179.7,4.7513,-5.434
5191.4,4.5945,-5.0244
5203.1,6.3157,-6.9966
5214.8,5.3504,-7.6507
5226.6,6.1591,-10.779
5238.3,6.9339,-6.6937
5250,4.8419,-5.4453
5261.7,5.0044,-8.0317
5273.4,7.8874,-7.976
5285.2,7.6341,-8.6382
5296.9,7.6038,-8.2519
5308.6,6.4393,-9.4372
5320.3,3.8726,-8.9427
5332,3.3799,-10.246
5343.8,5.0954,-8.3625
5355.5,4.3387,-8.5191
5367.2,6.0733,-6.3603
5378.9,4.3029,-6.8691
5390.6,2.0868,-8.3033
5402.3,2.1919,-5.889
5414.1,2.259,-9.4744
5425.8,6.9462,-8.0479
5437.5,4.9608,-8.5916
5449.2,7.0122,-6.5545
5460.9,6.8501,-5.4939
5472.7,6.6248,-5.9103
5484.4,5.7711,-10.035
5496.1,6.7113,-10.369
5507.8,7.1884,-7.6711
5519.5,5.016,-6.2454
5531.3,7.4859,-8.7993
5543,7.6684,-5.7426
5554.7,4.3248,-4.4931
5566.4,5.5099,-5.628
5578.1,5.5138,-10.439
5589.8,4.8476,-10.696
5601.6,3.8426,-10.837
5613.3,2.152,-10.73
5625,5.0564,-9.21
5636.7,6.5459,-9.6244
5648.4,5.7641,-12.439
5660.2,5.1133,-9.4481
5671.9,4.2268,-8.8026
5683.6,4.872,-8.0421
5695.3,5.2827,-6.4256
5707,6.5358,-4.7333
5718.8,7.3798,-5.2798
5730.5,6.0731,-7.92
5742.2,4.7552,-6.109
5753.9,6.6791,-6.9276
5765.6,6.1382,-6.9111
5777.3,5.6427,-7.559
5789.1,7.5452,-7.6966
5800.8,6.1186,-8.0362
5812.5,5.1741,-11.717
5824.2,5.2514,-9.3866
5835.9,6.0956,-9.7472
5847.7,5.1608,-11.186
5859.4,5.5754,-9.4505
5871.1,6.5583,-9.6734
5882.8,7.114,-8.4512
5894.5,4.8151,-8.6288
5906.3,3.7514,-8.6283
5918,4.6154,-7.0441
5929.7,4.3193,-8.6985
5941.4,3.7052,-10.001
5953.1,6.4967,-8.0857
5964.8,7.7612,-9.1373
5976.6,6.4985,-8.5536
5988.3,3.7837,-7.883
6000,6.4752,-9.1676
6011.7,4.7395,-7.533
6023.4,4.9998,-8.1544
6035.2,8.2117,-10.466
6046.9,7.8828,-10.217
6058.6,6.7376,-9.0159
6070.3,7.1038,-11.026
6082,4.7952,-7.3517
6093.8,4.4253,-5.9581
6105.5,5.0665,-8.7267
6117.2,7.2624,-11.397
6128.9,7.3295,-9.0055
6140.6,6.0545,-9.2202
6152.3,6.5313,-7.8851
6164.1,5.0303,-11.08
6175.8,2.1952,-11.027
6187.5,2.9963,-9.9284
6199.2,3.2658,-11.374
6210.9,3.5209,-10.767
6222.7,4.1543,-9.1687
6234.4,7.1416,-7.0572
6246.1,8.8769,-6.8818
6257.8,6.1981,-9.453
6269.5,6.3481,-6.958
6281.3,7.1373,-5.2762
6293,7.7322,-8.789
6304.7,6.3294,-8.8041
6316.4,4.5636,-6.5039
6328.1,2.6962,-8.6784
6339.8,6.0263,-7.1554
6351.6,5.0663,-6.7261
6363.3,2.0134,-6.9168
6375,4.1089,-11.531
6386.7,5.5082,-8.7239
6398.4,3.6699,-6.5299
6410.2,0.46265,-11.273
6421.9,3.3781,-10.906
6433.6,3.9739,-10.246
6445.3,3.2658,-8.8091
6457,3.7826,-6.8183
6468.8,4.8254,-5.3341
6480.5,5.1449,-7.685
6492.2,3.045,-12.75
6503.9,4.3448,-7.2827
6515.6,5.4812,-5.9373
6527.3,4.5017,-8.8707
6539.1,4.8709,-12.111
6550.8,2.7663,-11.871
6562.5,6.3885,-9.3299
6574.2,9.1425,-7.5126
6585.9,4.9115,-8.5576
6597.7,2.0427,-10.844
6609.4,2.5305,-7.9648
6621.1,4.874,-9.449
6632.8,4.5651,-10.378
6644.5,2.6235,-9.0265
6656.3,3.5646,-8.9982
6668,5.0208,-10.658
6679.7,5.792,-8.263
6691.4,5.3969,-6.6366
6703.1,5.0221,-6.1875
6714.8,3.5382,-7.3203
6726.6,4.3167,-10.189
6738.3,1.6383,-11.388
6750,2.423,-6.0629
6761.7,5.4157,-3.7071
6773.4,7.4268,-5.708
6785.2,6.2003,-7.3359
6796.9,2.4453,-8.0415
6808.6,4.0787,-11.034
6820.3,6.0524,-11.531
6832,4.5624,-10.293
6843.8,2.4791,-8.5893
6855.5,3.2544,-10.012
6867.2,2.3009,-10.979
6878.9,3.4639,-9.1821
6890.6,2.8913,-11.527
6902.3,-0.022388,-10.933
6914.1,2.4888,-7.637
6925.8,4.6067,-6.6173
6937.5,5.3658,-10.154
6949.2,5.2764,-6.2405
6960.9,3.494,-7.2529
6972.7,1.9455,-7.6557
6984.4,1.8921,-7.0067
6996.1,2.7379,-9.7332
7007.8,1.5801,-14.364
7019.5,4.8642,-12.494
7031.3,6.7245,-11.598
7043,3.6381,-10.716
7054.7,3.5531,-10.791
7066.4,1.7318,-7.3227
7078.1,1.2146,-8.579
7089.8,1.0922,-7.2821
7101.6,4.5755,-6.8489
7113.3,4.2366,-9.055
7125,2.7603,-10.687
7136.7,1.8379,-10.771
7148.4,3.6639,-10.279
7160.2,1.4525,-10.047
7171.9,3.3312,-10.67
7183.6,4.5717,-10.369
7195.3,3.6314,-11.5
7207,4.1763,-11.252
7218.8,3.2811,-9.2842
7230.5,2.2626,-9.4142
7242.2,2.4339,-9.84
7253.9,1.2298,-7.164
7265.6,-0.26273,-7.9553
7277.3,3.2331,-8.877
7289.1,4.7044,-10.126
7300.8,4.912,-10.404
7312.5,2.9542,-10.765
7324.2,0.84007,-7.6427
7335.9,1.0852,-7.0358
7347.7,1.9597,-8.379
7359.4,2.7389,-9.5451
7371.1,3.2754,-8.885
7382.8,3.6337,-6.4327
7394.5,2.3777,-6.9601
7406.3,0.27527,-7.5995
7418,1.2179,-8.301
7429.7,3.4576,-11.645
7441.4,5.7177,-14.233
7453.1,0.75532,-9.0425
7464.8,2.5014,-10.249
7476.6,4.0979,-8.2667
7488.3,2.5961,-7.1368
7500,4.8909,-10.491
7511.7,4.8707,-10.316
7523.4,2.568,-6.4907
7535.2,3.0317,-8.0834
7546.9,2.3119,-9.094
7558.6,5.1135,-6.8447
7570.3,2.7618,-10.828
7582,1.748,-8.1247
7593.8,2.7185,-6.0673
7605.5,2.2116,-10.555
7617.2,4.0563,-10.656
7628.9,3.6929,-11.453
7640.6,1.4414,-13.08
7652.3,1.3542,-10.539
7664.1,1.087,-9.9749
7675.8,0.84442,-9.8489
7687.5,1.6031,-10.278
7699.2,0.76784,-10.53
7710.9,0.016038,-11.349
7722.7,6.0912,-8.3251
7734.4,3.9133,-7.7822
7746.1,2.6235,-12.364
7757.8,1.4868,-9.7143
7769.5,5.805,-6.6452
7781.3,7.5284,-6.5766
7793,2.9378,-9.4587
7804.7,4.3153,-11.114
7816.4,3.799,-11.922
7828.1,8.0606,-10.452
7839.8,6.3044,-10.854
7851.6,7.5405,-11.967
7863.3,8.0946,-12.053
7875,11.378,-11.496
7886.7,12.516,-9.6735
7898.4,14.911,-8.7891
7910.2,19.015,-9.4523
7921.9,21.813,-10.915
7933.6,26.408,-12.539
7945.3,31.44,-8.4481
7957,38.089,-8.5643
7968.8,46.954,-9.4256
7980.5,61.764,-11.561
7992.2,79.817,-3.2555
8003.9,81.752,-0.93007
8015.6,70.876,-7.0131
8027.3,50.856,-10.826
8039.1,40.611,-11.869
8050.8,33.366,-11.559
8062.5,27.9,-12.014
8074.2,23.084,-11.593
8085.9,19.719,-10.138
8097.7,15.689,-7.108
8109.4,13.754,-9.6997
8121.1,10.336,-11.504
8132.8,8.5679,-10.077
8144.5,8.0087,-9.0587
8156.3,5.1474,-9.5027
8168,5.0066,-10.259
8179.7,4.9816,-14.255
8191.4,2.7513,-11.52
8203.1,4.3681,-10.412
8214.8,0.87319,-10.229
8226.6,0.78635,-9.3889
8238.3,0.75445,-8.2721
8250,2.1978,-10.911
8261.7,2.8373,-10.408
8273.4,0.078779,-9.1928
8285.2,1.3005,-10.909
8296.9,2.9432,-14.42
8308.6,0.0087734,-12.31
8320.3,1.1351,-11.957
8332,-1.7367,-11.391
8343.8,-0.64478,-7.0573
8355.5,1.8019,-9.1454
8367.2,0.75504,-11.296
8378.9,2.2092,-11.101
8390.6,3.6488,-10.98
8402.3,1.0676,-9.4473
8414.1,1.6372,-6.2986
8425.8,2.8612,-9.0633
8437.5,1.6034,-8.8576
8449.2,2.5239,-8.905
8460.9,2.3739,-12.196
8472.7,1.0441,-11.316
8484.4,0.454,-11.615
8496.1,1.41,-10.958
8507.8,1.9699,-12.273
8519.5,-0.71067,-10.9
8531.3,0.26682,-10.478
8543,2.7787,-10.101
8554.7,1.7383,-9.4128
8566.4,1.2704,-11.677
8578.1,-0.18065,-11.733
8589.8,-1.0539,-11.352
8601.6,-0.62115,-12.305
8613.3,-0.37688,-12.909
8625,0.62611,-8.7257
8636.7,-1.2657,-8.2791
8648.4,0.44066,-11.526
8660.2,2.4807,-12.712
8671.9,2.5745,-11.234
8683.6,1.5807,-10.35
8695.3,-1.2815,-10.319
8707,-0.77122,-11.137
8718.8,4.1139,-11.02
8730.5,3.9289,-9.7532
8742.2,-1.0178,-8.3594
8753.9,-3.2637,-9.4524
8765.6,0.36649,-10.415
8777.3,0.26666,-9.3141
8789.1,-0.68288,-8.774
8800.8,1.5706,-8.5018
8812.5,1.7138,-9.2537
8824.2,2.4246,-9.2112
8835.9,0.94313,-9.5233
8847.7,1.0008,-10.421
8859.4,2.1506,-11.096
8871.1,1.7599,-10.283
8882.8,-1.5534,-10.092
8894.5,-1.4598,-13.348
8906.3,-0.30036,-13.293
8918,-0.53388,-11.573
8929.7,2.3734,-11.868
8941.4,2.6325,-10.691
8953.1,-0.56224,-8.7887
8964.8,-1.4259,-11.054
8976.6,-0.79719,-12.943
8988.3,-2.165,-9.5976
9000,0.00010683,-9.3141
9011.7,0.27437,-12.312
9023.4,-2.4639,-11.94
9035.2,-2.8266,-9.9139
9046.9,-0.99116,-9.0593
9058.6,1.075,-9.0196
9070.3,-1.5826,-8.69
9082,2.7645,-8.8207
9093.8,4.6122,-11.612
9105.5,1.6689,-11.914
9117.2,1.1389,-10.63
9128.9,2.7575,-11.182
9140.6,1.3899,-8.2496
9152.3,1.5937,-8.0887
9164.1,0.70908,-9.4349
9175.8,1.5513,-8.6066
9187.5,1.912,-7.9697
9199.2,3.6842,-10.072
9210.9,3.4344,-12.184
9222.7,-1.7687,-12.701
9234.4,-1.8747,-12.105
9246.1,1.4861,-11.202
9257.8,2.4095,-8.3935
9269.5,-0.25346,-8.7638
9281.3,-1.0268,-9.6057
9293,-2.3482,-8.4295
9304.7,-1.2594,-8.433
9316.4,-2.2047,-12.187
9328.1,-1.8212,-8.9231
9339.8,-1.919,-10.462
9351.6,2.3294,-8.1627
9363.3,2.1176,-10.037
9375,-1.6153,-8.7299
9386.7,-1.966,-7.4894
9398.4,-0.36021,-10.838
9410.2,0.90721,-9.1889
9421.9,0.68499,-6.2385
9433.6,0.65923,-9.0504
9445.3,-0.77336,-11.802
9457,-0.41417,-11.866
9468.8,1.3318,-10.41
9480.5,0.31456,-10.11
9492.2,-3.1762,-10.605
9503.9,-3.3627,-9.2782
9515.6,0.28175,-8.9668
9527.3,1.1659,-11.91
9539.1,0.58269,-11.348
9550.8,-0.80834,-8.6833
9562.5,-1.32,-11.159
9574.2,-1.9207,-11.284
9585.9,-1.6883,-8.8164
9597.7,2.0704,-11.731
9609.4,0.62622,-11.106
9621.1,-0.95046,-10.209
9632.8,1.2252,-14.375
9644.5,1.9925,-13.865
9656.3,0.20718,-12.2
9668,-0.44687,-12.447
9679.7,1.2828,-10.866
9691.4,-0.46362,-8.6489
9703.1,2.3324,-7.9088
9714.8,3.1052,-10.488
9726.6,2.5542,-11.497
9738.3,0.67106,-9.7556
9750,3.5255,-11.285
9761.7,3.7113,-14.67
9773.4,-1.1236,-14.411
9785.2,-3.0408,-13.785
9796.9,0.39632,-11.479
9808.6,1.0839,-8.6468
9820.3,-1.2121,-7.0094
9832,-5.495,-8.6362
9843.8,-4.7193,-13.424
9855.5,-1.8347,-11.121
9867.2,0.92153,-9.8344
9878.9,-0.20769,-12.666
9890.6,0.61292,-12.313
9902.3,-0.14039,-9.4719
9914.1,-1.4537,-13.046
9925.8,-1.5698,-13.589
9937.5,-0.76871,-9.6927
9949.2,-1.2765,-11.619
9960.9,-2.2635,-15.078
9972.7,-4.1697,-10.358
9984.4,-1.434,-7.7279
9996.1,-2.5376,-7.1417
10008,-2.7454,-8.4468
10020,-2.8132,-10.075
10031,-1.1434,-7.9565
10043,-2.4636,-8.17
10055,-3.6197,-12.789
10066,-1.1532,-10.709
10078,-0.92951,-11.019
10090,1.5418,-10
10102,2.905,-11.244
10113,-0.74963,-9.9167
10125,-1.2451,-9.4898
10137,-2.2931,-12.543
10148,-1.2504,-12.119
10160,-0.064706,-9.9131
10172,-0.44445,-11.192
10184,0.75444,-12.555
10195,-0.95741,-12.045
10207,-1.5199,-11.352
10219,-2.5876,-14.222
10230,-3.108,-13.175
10242,-4.7013,-14.157
10254,0.68427,-12.382
10266,0.77958,-11.897
10277,0.21308,-11.948
10289,-3.5703,-10.414
10301,-2.4754,-8.3949
10313,-0.045051,-7.7831
10324,-0.15925,-9.8992
10336,1.0456,-13.301
10348,1.2047,-10.163
10359,0.62651,-10.533
10371,0.55093,-10.949
10383,0.90432,-11.145
10395,1.0378,-13.335
10406,1.4596,-11.909
10418,-0.76237,-11.935
10430,-3.2613,-10.391
10441,0.92197,-11.96
10453,2.4361,-13.282
10465,0.23078,-10.692
10477,-2.5355,-10.01
10488,0.11369,-11.829
10500,-0.63872,-12.644
10512,-1.6864,-14.938
10523,-2.794,-14.828
10535,-3.3203,-13.604
10547,-1.5854,-11.455
10559,-1.5439,-12.079
10570,-1.4736,-12.004
10582,-0.13416,-12.783
10594,-1.9718,-15.165
10605,-2.6465,-12.621
10617,-3.2448,-12.499
10629,-3.4372,-12.413
10641,-1.1906,-10.712
10652,0.068513,-10.504
10664,-1.5157,-11.848
10676,-4.0448,-13.32
10688,-3.5192,-12.725
10699,-1.3258,-9.8482
10711,0.12886,-11.317
10723,0.20376,-11.962
10734,2.46,-13.561
10746,2.5785,-14.737
10758,0.37566,-13.526
10770,-2.0682,-13.9
10781,-0.10451,-12.88
10793,0.72836,-12.203
10805,1.1448,-10.58
10816,-0.0029705,-12.138
10828,-0.28505,-15.289
10840,-2.1123,-14.383
10852,0.56946,-14.387
10863,-0.99792,-11.564
10875,-0.1594,-10.662
10887,-0.22408,-11.972
10898,-3.9262,-14.099
10910,-0.86495,-13.399
10922,-1.5638,-14.363
10934,-4.5678,-11.085
10945,-3.3174,-10.195
10957,-1.8887,-12.172
10969,-4.958,-13.518
10980,-4.4274,-12.932
10992,3.0148,-10.776
11004,3.0342,-12.54
11016,-1.3394,-10.822
11027,-4.8543,-12.171
11039,-1.9058,-11.775
11051,0.19898,-12.434
11063,0.2174,-9.9401
11074,0.17303,-9.0097
11086,0.83908,-11.69
11098,-2.1296,-12.597
11109,-3.3549,-11.687
11121,-2.9131,-9.9074
11133,-1.2973,-9.6767
11145,-1.9198,-13.495
11156,-0.79794,-16.304
11168,-0.14851,-14.596
11180,-0.43449,-12.886
11191,-1.8284,-14.509
11203,-2.3948,-13.406
11215,-0.88776,-11.36
11227,1.7738,-13.716
11238,-0.96443,-11.512
11250,-0.80571,-12.667
11262,1.6491,-17.121
11273,-1.4754,-11.25
11285,-1.7356,-14.11
11297,0.52134,-12.575
11309,0.30012,-10.894
11320,-0.0389,-10.897
11332,-3.1963,-11.841
11344,-3.2583,-14.01
11355,-0.8631,-9.9183
11367,0.14787,-10.174
11379,-1.5681,-12.393
11391,-3.1217,-12.66
11402,-3.8625,-13.799
11414,-0.5371,-11.771
11426,2.2776,-11.041
11438,1.8969,-14.475
11449,-1.0962,-12.8
11461,-3.0331,-11.088
11473,-3.3554,-11.41
11484,-2.5852,-15.606
11496,-4.8091,-14.403
11508,-4.2712,-13.714
11520,-3.2299,-13.152
11531,-0.099492,-13.413
11543,-1.6336,-14.868
11555,-2.8736,-11.042
11566,-1.2723,-13.16
11578,0.93718,-12.678
11590,-2.7705,-13.001
11602,-4.7108,-13.545
11613,-3.9045,-12.911
11625,-6.366,-12.718
11637,-3.2485,-12.768
11648,-4.4442,-14.205
11660,-2.606,-14.398
11672,-0.27243,-12.462
11684,-1.6938,-13.775
11695,-3.7834,-13.351
11707,-2.3884,-12.727
11719,-2.552,-11.536
11730,-3.5924,-12.442
11742,-6.2524,-12.055
11754,-4.1021,-13.606
11766,-3.0929,-12.262
11777,-2.5665,-8.9405
11789,-1.277,-9.1722
11801,-1.6287,-10.738
11813,-4.3118,-13.735
11824,-5.1847,-14.266
11836,-3.9599,-12.628
11848,-3.1427,-12.86
11859,-0.83038,-11.988
11871,-2.4655,-12.924
11883,-6.087,-14.903
11895,-0.78145,-12.51
11906,-2.0849,-11.957
11918,-1.4364,-11.908
11930,-0.76066,-13.29
11941,-0.82687,-11.37
11953,-1.9581,-12.438
11965,0.16272,-13.484
11977,-2.515,-12.619
11988,-4.8029,-11.944
12000,-3.6156,-9.3305
12012,-2.2462,-15.603
12023,-2.8411,-13.816
12035,-2.0922,-15.393
12047,-0.21563,-11.529
12059,-1.453,-12.316
12070,-1.1098,-8.3297
12082,-2.9457,-9.0007
12094,-0.017964,-10.544
12105,-0.62872,-11.575
12117,-2.5275,-15.373
12129,-4.8624,-13.28
12141,-2.1732,-13.69
12152,-0.70657,-17.417
12164,-1.3713,-13.767
12176,-2.451,-12.423
12188,-3.7707,-14.238
12199,-2.6913,-10.57
12211,-2.1679,-11.418
12223,-2.5348,-11.919
12234,-3.2657,-9.6061
12246,-3.0282,-11.185
12258,-4.2498,-12.227
12270,-4.5357,-13.96
12281,-4.2093,-15.689
12293,-5.8799,-15.342
12305,-1.5408,-15.447
12316,-1.9205,-13.759
12328,-1.2565,-10.905
12340,-1.936,-8.4278
12352,-3.2812,-10.097
12363,-3.9584,-11.895
12375,-4.8886,-12.629
12387,-1.7739,-15.026
12398,-1.4681,-13.006
12410,-0.98401,-13.026
12422,-0.95029,-14.056
12434,-2.5704,-12.646
12445,-3.3323,-13.797
12457,-4.6068,-14.802
12469,-3.6428,-15.06
12480,-2.3856,-14.956
12492,-5.3969,-15.561
12504,-4.3085,-12.584
12516,-4.5864,-10.916
12527,-4.5644,-10.83
12539,-7.5069,-14.306
12551,-2.0902,-15.997
12563,-1.1835,-15.035
12574,-4.1039,-14.147
12586,-3.252,-14.849
12598,-4.3417,-15.274
12609,-4.5751,-9.4216
12621,-3.5165,-10.268
12633,-2.4308,-14.196
12645,-4.2353,-12.27
12656,-3.0101,-13.469
12668,-5.2226,-11.636
12680,-4.9588,-11.326
12691,-5.0788,-12.292
12703,-4.3532,-11.756
12715,-1.9708,-12.101
12727,-1.6861,-12.073
12738,-5.9371,-14.231
12750,-2.3325,-15.687
12762,-2.2668,-15.685
12773,-3.2508,-10.465
12785,-3.2036,-9.7536
12797,-2.135,-12.3
12809,-5.8714,-14.196
12820,-5.678,-11.291
12832,-3.3557,-11.926
12844,-1.8962,-14.735
12855,-3.5452,-18.455
12867,-4.7818,-12.337
12879,-4.2558,-9.1252
12891,-4.512,-9.5617
12902,-2.6834,-12.043
12914,-1.4478,-15.384
12926,-0.14028,-17.005
12938,-0.14949,-14.337
12949,-1.8723,-14.103
12961,-4.7458,-14.984
12973,-4.0939,-14.068
12984,-2.5941,-13.474
12996,-3.6913,-12.065
13008,-6.6012,-12.653
13020,-3.6047,-11.549
13031,-0.0067683,-12.506
13043,-2.8775,-10.637
13055,-5.7436,-9.1931
13066,-2.9597,-9.816
13078,-3.9864,-11.916
13090,-6.7977,-13.098
13102,-3.7739,-14.034
13113,-6.019,-13.709
13125,-1.7177,-14.109
13137,-3.2842,-12.674
13148,-7.8677,-13.982
13160,-4.3994,-15.281
13172,-4.6487,-13.493
13184,-1.8043,-11.048
13195,-1.955,-11.075
13207,-3.428,-13.577
13219,-0.89049,-11.488
13230,-3.3751,-9.9196
13242,-7.8633,-11.034
13254,-6.6467,-12.504
13266,-7.8012,-11.872
13277,-7.1099,-16.652
13289,-5.9038,-16.381
13301,-7.0855,-15.194
13313,-5.1332,-15.254
13324,-3.5805,-14.007
13336,-3.8211,-11.249
13348,-3.279,-12.632
13359,-5.2183,-12.784
13371,-6.6231,-14.594
13383,-7.3064,-13.507
13395,-6.1494,-13.024
13406,-3.5025,-12.626
13418,-4.1893,-11.642
13430,-3.7633,-11.339
13441,-4.7516,-14.205
13453,-3.4723,-13.817
13465,-2.2637,-12.473
13477,1.4626,-12.231
13488,-2.6565,-13.986
13500,-4.0199,-15.575
13512,-5.2768,-18.926
13523,-6.8384,-18.551
13535,-3.0479,-14.556
13547,-3.5354,-15.121
13559,-4.7323,-15.541
13570,-5.313,-10.628
13582,-3.9491,-11.485
13594,-5.5388,-15.65
13605,-5.995,-14.869
13617,-6.2617,-12.72
13629,-7.0344,-13.28
13641,-2.8727,-13.735
13652,-3.8904,-13.256
13664,-3.6973,-15.196
13676,-3.3978,-14.76
13688,-4.4131,-13.529
13699,-5.9481,-14.106
13711,-7.7047,-16.722
13723,-4.2678,-15.274
13734,-3.1317,-16.02
13746,-6.8432,-16.127
13758,-4.7012,-14.826
13770,-6.2215,-12.478
13781,-4.42,-9.4444
13793,-4.8068,-9.597
13805,-4.7843,-11.836
13816,-2.8939,-14.21
13828,-4.0074,-17.202
13840,-5.4808,-17.138
13852,-7.9166,-15.177
13863,-6.472,-15.025
13875,-6.4255,-14.86
13887,-4.1603,-13.885
13898,-3.8887,-14.47
13910,-5.5097,-15.481
13922,-4.818,-16.39
13934,-5.4771,-17.74
13945,-5.9724,-17.599
13957,-3.8991,-14.751
13969,-2.331,-14.44
13980,-2.9575,-17.426
13992,-5.8542,-14.458
14004,-4.9109,-15.646
14016,-6.2313,-17.159
14027,-2.8359,-15.176
14039,-3.4753,-14.899
14051,-4.0297,-14.272
14063,-3.9975,-16.65
14074,-2.2237,-16.026
14086,-4.2726,-17.657
14098,-3.8787,-18.279
14109,-7.16,-15.011
14121,-9.2377,-13.975
14133,-6.9877,-14.336
14145,-4.4549,-14.256
14156,-4.1686,-13.38
14168,-7.0982,-12.813
14180,-7.9939,-11.667
14191,-7.4692,-14.066
14203,-6.5656,-15.925
14215,-6.583,-14.064
14227,-8.7475,-13.368
14238,-4.4068,-14.354
14250,-3.9428,-16.818
14262,-5.4934,-15.442
14273,-7.1206,-13.986
14285,-5.3672,-11.909
14297,-4.8372,-12.427
14309,-8.7111,-15.822
14320,-5.3563,-18.258
14332,-3.9125,-16.886
14344,-4.1038,-15.925
14355,-7.242,-14.177
14367,-9.1957,-13.249
14379,-10.273,-10.784
14391,-11.175,-10.474
14402,-7.8636,-12.303
14414,-2.6189,-12.991
14426,-1.5142,-11.727
14438,-2.5856,-13.876
14449,-3.5701,-13.267
14461,-3.6797,-14.279
14473,-7.3333,-14.225
14484,-6.6251,-13.503
14496,-6.4913,-12.464
14508,-7.3291,-12.986
14520,-8.2785,-13.744
14531,-9.2889,-14.798
14543,-10.221,-15.276
14555,-8.1805,-14.914
14566,-7.6704,-13.396
14578,-6.9362,-15.093
14590,-6.6938,-13.866
14602,-6.8756,-12.243
14613,-5.1001,-14.357
14625,-4.7863,-14.097
14637,-6.9918,-15.343
14648,-6.3314,-14.987
14660,-6.095,-16.411
14672,-9.4316,-14.492
14684,-6.9761,-13.629
14695,-5.6983,-13.408
14707,-5.445,-12.814
14719,-4.6804,-14.763
14730,-5.5846,-13.798
14742,-5.2165,-15.237
14754,-4.2937,-13.994
14766,-2.9567,-12.922
14777,-5.9522,-13.836
14789,-7.2426,-16.33
14801,-8.233,-14.601
14813,-6.1977,-15.437
14824,-3.5776,-14.673
14836,-4.5942,-15.475
14848,-7.8295,-12.8
14859,-7.2676,-11.737
14871,-6.8156,-13.87
14883,-6.4107,-14.904
14895,-5.5023,-14.784
14906,-4.9027,-16.184
14918,-8.2599,-16.901
14930,-7.019,-15.367
14941,-5.4454,-14.216
14953,-4.5265,-16.938
14965,-4.1754,-15.612
14977,-7.9191,-13.217
14988,-7.0787,-13.796
15000,-4.4799,-13.383
15012,-3.1807,-15.037
15023,-4.2218,-14.889
15035,-6.1219,-14.948
15047,-6.6343,-10.485
15059,-10.545,-11.295
15070,-8.3144,-15.945
15082,-10.621,-15.146
15094,-8.5423,-16.418
15105,-7.5485,-16.23
15117,-7.1849,-14.092
15129,-6.0301,-10.068
15141,-7.5546,-12.807
15152,-8.378,-13.95
15164,-7.6406,-11.596
15176,-6.0812,-15.358
15188,-5.0959,-19.198
15199,-5.2349,-16.052
15211,-5.8646,-14.17
15223,-7.754,-12.159
15234,-5.1458,-13.831
15246,-5.4807,-15.549
15258,-8.0067,-14.584
15270,-7.9699,-12.44
15281,-6.3124,-11.062
15293,-4.1619,-12.875
15305,-6.6523,-14.674
15316,-7.527,-13.258
15328,-4.6083,-12.048
15340,-3.0098,-12.493
15352,-5.8657,-12.839
15363,-7.7182,-13.273
15375,-3.6444,-13.882
15387,-5.0943,-15.207
15398,-8.888,-15.956
15410,-7.3769,-16.185
15422,-7.9597,-15.565
15434,-7.7389,-14.913
15445,-3.926,-15.306
15457,-4.288,-12.886
15469,-6.294,-15.035
15480,-6.4657,-15.741
15492,-7.3103,-15.159
15504,-6.1053,-14.659
15516,-6.3093,-15.325
15527,-6.6949,-15.87
15539,-6.7181,-17.339
15551,-8.256,-15.603
15563,-9.3343,-17.068
15574,-8.5735,-19.226
15586,-9.1802,-18.614
15598,-9.5334,-15.806
15609,-9.3564,-15.921
15621,-10.583,-13.45
15633,-9.9481,-15.276
15645,-8.4723,-17.203
15656,-10.728,-15.518
15668,-8.8407,-14.262
15680,-8.8997,-13.576
15691,-8.4511,-15.998
15703,-7.4652,-14.01
15715,-8.0955,-14.289
15727,-5.9128,-16.583
15738,-6.114,-19.915
15750,-9.1324,-19.063
15762,-7.1292,-19.484
15773,-6.6991,-19.162
15785,-6.1128,-18.835
15797,-5.7838,-18.361
15809,-6.63,-14.873
15820,-7.3874,-12.922
15832,-7.5481,-13.36
15844,-8.4625,-15.724
15855,-8.7043,-17.597
15867,-7.0907,-16.38
15879,-7.4183,-14.286
15891,-9.0615,-14.598
15902,-7.881,-16.008
15914,-10.39,-17.532
15926,-9.1716,-16.98
15938,-6.5356,-19.97
15949,-7.5454,-16.287
15961,-7.2801,-14.078
15973,2.8859,-13.121
15984,22.39,-14.565
15996,33.269,-14.17
16008,31.338,-13.178
16020,13.47,-12.158
16031,-0.88597,-13.239
16043,-5.9912,-16.136
16055,-5.7444,-16.208
16066,-6.9629,-16.382
16078,-8.2675,-14.469
16090,-10.491,-14.616
16102,-8.5161,-15.414
16113,-8.9572,-14.53
16125,-5.9812,-16.52
16137,-9.4578,-18.661
16148,-9.6167,-18.064
16160,-8.1982,-19.315
16172,-6.7186,-16.083
16184,-6.9362,-14.916
16195,-7.6579,-16.392
16207,-7.3004,-17.692
16219,-7.3626,-16.219
16230,-9.4317,-15.052
16242,-7.6632,-12.129
16254,-6.8598,-14.72
16266,-10.311,-15.86
16277,-8.9648,-15.207
16289,-10.57,-18.909
16301,-10.763,-17.61
16313,-9.8022,-15.976
16324,-9.7456,-17.836
16336,-8.643,-16.47
16348,-9.8535,-16.724
16359,-7.6526,-20.471
16371,-5.5553,-16.667
16383,-7.1852,-16.203
16395,-8.6277,-14.861
16406,-5.2445,-14.713
16418,-5.3065,-16.897
16430,-5.1471,-13.552
16441,-8.6117,-14.083
16453,-12.231,-16.1
16465,-10.248,-17.192
16477,-9.7425,-14.584
16488,-6.9104,-14.336
16500,-7.1096,-19.867
16512,-10.623,-15.196
16523,-8.6861,-15.325
16535,-6.3429,-14.914
16547,-7.4517,-15.501
16559,-11.952,-14.074
16570,-10.814,-17.141
16582,-9.6767,-15.845
16594,-9.4574,-13.838
16605,-7.5912,-13.877
16617,-6.6583,-14.304
16629,-9.6703,-18.331
16641,-8.5901,-19.038
16652,-9.2529,-16.383
16664,-8.9309,-16.567
16676,-10.832,-12.43
16688,-9.0526,-14.99
16699,-7.7471,-16.213
16711,-8.3258,-13.532
16723,-11.202,-15.424
16734,-12.858,-17.945
16746,-9.1459,-16.784
16758,-8.1518,-15.288
16770,-7.8596,-12.782
16781,-9.2988,-13.402
16793,-11.462,-14.177
16805,-10.344,-14.747
16816,-10.095,-16.034
16828,-9.7894,-16.032
16840,-10.119,-12.157
16852,-8.3233,-14.716
16863,-8.5482,-13.41
16875,-9.1453,-11.91
16887,-10.428,-12.267
16898,-12.165,-15.929
16910,-11.008,-13.932
16922,-8.0903,-15.454
16934,-8.792,-20.494
16945,-8.736,-16.945
16957,-8.3637,-17.257
16969,-8.8917,-19.682
16980,-9.6883,-18.574
16992,-11.31,-15.674
17004,-12.521,-14.165
17016,-11.968,-17.087
17027,-8.9002,-15.235
17039,-9.5852,-14.917
17051,-11.565,-16.167
17063,-11.366,-19.156
17074,-12.756,-20.873
17086,-11.417,-19.06
17098,-9.4986,-17.461
17109,-9.104,-17.331
17121,-8.2482,-16.577
17133,-7.4485,-15.483
17145,-6.495,-17.065
17156,-9.6149,-16.181
17168,-9.6228,-15.854
17180,-8.3999,-17.199
17191,-10.451,-18.321
17203,-12.564,-16.846
17215,-10.178,-15.686
17227,-7.0157,-14.918
17238,-7.671,-15.167
17250,-11.107,-18.528
17262,-9.8632,-19.069
17273,-11.726,-19.104
17285,-12.689,-17.04
17297,-8.7656,-17.013
17309,-6.7605,-15.761
17320,-8.4784,-14.835
17332,-8.3978,-14.188
17344,-9.6203,-14.277
17355,-9.3985,-13.994
17367,-10.03,-18.423
17379,-10.739,-18.134
17391,-9.7438,-18.5
17402,-10.772,-17.448
17414,-11.187,-19.589
17426,-11.888,-17.899
17438,-10.354,-19.528
17449,-8.3595,-16.889
17461,-7.3957,-15.864
17473,-9.4298,-15.98
17484,-11.163,-16.343
17496,-12.478,-16.113
17508,-9.408,-15.444
17520,-8.0693,-15.768
17531,-7.349,-13.685
17543,-6.9568,-16.281
17555,-11.456,-17.965
17566,-12.484,-18.83
17578,-10.18,-18.376
17590,-8.868,-15.336
17602,-9.6168,-16.712
17613,-10.836,-16.532
17625,-12.307,-13.595
17637,-10.953,-12.896
17648,-10.768,-16.747
17660,-11.477,-15.753
17672,-9.6881,-14.296
17684,-10.686,-17.912
17695,-11.242,-18.192
17707,-11.091,-17.041
17719,-12.219,-17.487
17730,-12.399,-18.3
17742,-11.492,-18.789
17754,-10.748,-17.919
17766,-9.2355,-16.198
17777,-8.1531,-17.823
17789,-8.8079,-17.564
17801,-7.8771,-22.601
17813,-9.0643,-19.602
17824,-11.601,-18.208
17836,-11.424,-17.822
17848,-9.6964,-14.59
17859,-10.819,-13.493
17871,-12.027,-13.709
17883,-12.941,-14.371
17895,-14.589,-15.296
17906,-13.413,-20.502
17918,-13.739,-20.213
17930,-11.647,-21.427
17941,-10.026,-22.309
17953,-9.0369,-23.071
17965,-10.143,-19.772
17977,-12.469,-21.884
17988,-11.515,-17.107
18000,-10.518,-12.451
18012,-11.823,-17.239
18023,-10.994,-14.87
18035,-12.081,-15.619
18047,-13.276,-19.969
18059,-14.313,-20.014
18070,-15.321,-20.089
18082,-13.396,-21.14
18094,-12.339,-19.001
18105,-14.398,-17.163
18117,-12.881,-17.022
18129,-11.653,-18.583
18141,-12.508,-18.505
18152,-11.8,-17.855
18164,-11.778,-17.803
18176,-13.1,-18.593
18188,-10.787,-15.135
18199,-9.884,-13.625
18211,-11.997,-16.857
18223,-12.057,-19.049
18234,-15.501,-20.828
18246,-14.904,-18.915
18258,-12.38,-18.515
18270,-11.079,-17.767
18281,-11.449,-15.211
18293,-11.732,-15.268
18305,-14.091,-15.137
18316,-13.238,-14.254
18328,-14.521,-14.389
18340,-12.083,-17.079
18352,-11.77,-17.545
18363,-10.86,-15.928
18375,-12.089,-17.066
18387,-12.079,-20.002
18398,-10.408,-18.041
18410,-11.933,-16.197
18422,-11.64,-18.384
18434,-11.051,-18.05
18445,-12.524,-17.475
18457,-11.532,-19.004
18469,-10.631,-18.27
18480,-10.319,-19.566
18492,-12.546,-21.475
18504,-10.577,-18.124
18516,-11.914,-19.53
18527,-12.415,-16.599
18539,-10.047,-13.575
18551,-11.586,-13.191
18563,-12.258,-16.087
18574,-10.902,-19.117
18586,-10.925,-18.218
18598,-16.366,-16.671
18609,-13.483,-15.55
18621,-14.612,-16.749
18633,-14.615,-17.79
18645,-11.813,-18.773
18656,-14.079,-17.52
18668,-13.362,-20.368
18680,-12.591,-21.29
18691,-12.558,-18.716
18703,-12.985,-15.119
18715,-12.089,-15.22
18727,-8.934,-21.316
18738,-8.5328,-20.468
18750,-9.989,-19.516
18762,-11.306,-17.384
18773,-11.928,-18.759
18785,-13.333,-19.466
18797,-11.592,-18
18809,-8.812,-14.29
18820,-9.5141,-16.027
18832,-13.222,-15.088
18844,-13.451,-14.947
18855,-14.806,-19.888
18867,-15.25,-19.43
18879,-14.632,-22.284
18891,-10.051,-16.299
18902,-9.1859,-15.957
18914,-12.107,-17.705
18926,-12.349,-18.719
18938,-11.499,-17.043
18949,-10.191,-16.766
18961,-9.8041,-17.259
18973,-14.929,-18.619
18984,-14.764,-19.333
18996,-12.888,-13.427
19008,-10.959,-14.521
19020,-10.678,-17.765
19031,-14.476,-17.273
19043,-13.334,-17.954
19055,-13.593,-17.525
19066,-15.009,-20.21
19078,-10.651,-18.349
19090,-12.381,-18.395
19102,-15.506,-17.271
19113,-12.809,-19.271
19125,-11.883,-19.455
19137,-13.257,-19.813
19148,-13.808,-18.104
19160,-15.018,-17.931
19172,-12.996,-15.423
19184,-15.921,-15.38
19195,-14.57,-16.95
19207,-14.083,-15.538
19219,-14.829,-14.307
19230,-14.892,-15.412
19242,-14.086,-14.845
19254,-13.347,-15.328
19266,-14.303,-17.5
19277,-14.834,-18.691
19289,-13.142,-18.357
19301,-11.755,-18.408
19313,-13.221,-18.143
19324,-15.015,-13.898
19336,-13.812,-14.658
19348,-15.667,-16.72
19359,-14.012,-18.146
19371,-14.737,-16.134
19383,-11.24,-16.173
19395,-14.409,-16.092
19406,-12.067,-18.203
19418,-15.182,-18.634
19430,-14.137,-19.575
19441,-11.586,-18.238
19453,-13.857,-16.606
19465,-11.882,-16.454
19477,-12.266,-21.533
19488,-12.95,-18.42
19500,-14.097,-17.067
19512,-12.44,-17.485
19523,-15.063,-18.489
19535,-13.936,-17.919
19547,-14.066,-18.902
19559,-12.424,-17.626
19570,-12.838,-17.117
19582,-13.725,-16.338
19594,-12.158,-16.7
19605,-12.53,-17.111
19617,-13.552,-17.916
19629,-14.962,-18.489
19641,-11.812,-19.157
19652,-12.251,-19.877
19664,-14.869,-18.233
19676,-17.862,-17.578
19688,-14.737,-17.182
19699,-10.697,-19.028
19711,-11.593,-17.276
19723,-14.991,-14.696
19734,-13.977,-14.82
19746,-14.731,-16.747
19758,-11.674,-16.067
19770,-12.631,-16.131
19781,-10.874,-17.739
19793,-12.156,-17.365
19805,-15.64,-15.142
19816,-11.887,-16.963
19828,-15.447,-20.399
19840,-18.226,-20.44
19852,-13.904,-17.941
19863,-10.625,-16.521
19875,-12.89,-17.208
19887,-13.67,-18.935
19898,-11.677,-21.101
19910,-12.407,-19.174
19922,-18.126,-17.993
19934,-12.2,-19.2
19945,-12.713,-20.504
19957,-12.307,-18.058
19969,-11.864,-20.478
19980,-14.249,-21.112
19992,-13.705,-19.526
20004,-13.167,-18.731
20016,-11.7,-19.305
20027,-12.143,-19.852
20039,-15.056,-21.478
20051,-13.419,-19.06
20063,-12.475,-18.979
20074,-13.157,-20.31
20086,-10.856,-20.318
20098,-12.188,-20.852
20109,-14.959,-21.67
20121,-14.151,-18.46
20133,-13.101,-18.507
20145,-13.424,-17.982
20156,-13.211,-17.714
20168,-12.711,-17.482
20180,-14.248,-17.137
20191,-14.053,-17.103
20203,-13.407,-20.835
20215,-12.208,-18.77
20227,-11.353,-17.904
20238,-13.484,-19.664
20250,-14.544,-16.402
20262,-13.077,-16.895
20273,-14.662,-19.252
20285,-12.604,-20.815
20297,-10.066,-22.343
20309,-14.594,-21.121
20320,-12.047,-18.318
20332,-9.561,-19.993
20344,-11.486,-20.296
20355,-14.762,-17.338
20367,-16.575,-18.015
20379,-15.321,-20.362
20391,-15.24,-18.399
20402,-14.022,-19.015
20414,-13.058,-22.952
20426,-12.684,-19.53
20438,-15.953,-19.34
20449,-15.324,-19.518
20461,-16.005,-19.307
20473,-13.168,-19.253
20484,-11.114,-18.357
20496,-12.188,-19.558
20508,-13.426,-20.086
20520,-14.679,-20.164
20531,-16.577,-20.446
20543,-15.659,-19.031
20555,-14.314,-16.713
20566,-13.877,-14.917
20578,-12.453,-15.404
20590,-11.051,-18.61
20602,-11.391,-18.315
20613,-11.498,-18.48
20625,-14.248,-17.569
20637,-10.602,-16.597
20648,-11.618,-15.544
20660,-15.129,-16.492
20672,-15.54,-20.744
20684,-18.549,-21.083
20695,-14.706,-20.303
20707,-14.465,-18.14
20719,-17.079,-18.612
20730,-14.781,-20.511
20742,-15.006,-18.357
20754,-13.484,-21.189
20766,-16.916,-19.473
20777,-15.982,-17.186
20789,-17.782,-16.773
20801,-16.077,-19.319
20813,-14.234,-19.216
20824,-17.282,-18.418
20836,-17.372,-21.265
20848,-17.554,-24.337
20859,-20.175,-20.989
20871,-14.408,-17.808
20883,-13.317,-16.997
20895,-13.744,-18.621
20906,-16.41,-19.628
20918,-15.898,-21.586
20930,-13.606,-18.734
20941,-16.542,-16.944
20953,-18.239,-17.89
20965,-18.317,-18.394
20977,-13.739,-18.151
20988,-14.702,-17.505
21000,-14.854,-17.81
21012,-12.95,-17.581
21023,-13.959,-17.238
21035,-16.817,-19.467
21047,-17.682,-21.802
21059,-16.883,-16.811
21070,-14.069,-18.356
21082,-14.301,-20.87
21094,-17.488,-17.978
21105,-14.307,-16.317
21117,-13.014,-16.551
21129,-12.966,-17.409
21141,-14.494,-17.48
21152,-19.584,-21.026
21164,-14.75,-20.964
21176,-13.265,-22.388
21188,-13.82,-19.687
21199,-13.798,-19.833
21211,-15.979,-19.855
21223,-15.96,-18.65
21234,-14.693,-21.274
21246,-15.152,-21.143
21258,-15.303,-17.162
21270,-13.896,-18.269
21281,-11.763,-18.274
21293,-13.191,-17.366
21305,-17.598,-17.71
21316,-18.441,-17.305
21328,-16.152,-19.053
21340,-18.081,-20.049
21352,-19.09,-18.143
21363,-17.026,-18.075
21375,-16.312,-20.694
21387,-17.433,-19.526
21398,-15.616,-18.097
21410,-14.892,-19.507
21422,-16.617,-17.523
21434,-15.783,-17.484
21445,-16.844,-18.19
21457,-14.657,-17.364
21469,-12.37,-19.554
21480,-14.738,-20.249
21492,-18.859,-20.789
21504,-16.481,-20.181
21516,-16.459,-21.115
21527,-16.982,-18.12
21539,-13.579,-14.488
21551,-17.105,-19.068
21563,-18.065,-17.843
21574,-17.984,-17.583
21586,-16.423,-18.484
21598,-13.144,-21.796
21609,-13.962,-20.646
21621,-15.618,-17.717
21633,-15.775,-17.141
21645,-16.216,-18.845
21656,-16.482,-20.051
21668,-16.828,-20.224
21680,-17.426,-20.404
21691,-16.579,-21.586
21703,-16.326,-20.029
21715,-15.712,-16.755
21727,-15.853,-17.105
21738,-14.28,-15.109
21750,-15.527,-13.997
21762,-16.288,-19.358
21773,-16.817,-20.558
21785,-18.753,-18.466
21797,-15.933,-20.979
21809,-13.254,-20.584
21820,-14.491,-21.331
21832,-23.85,-18.336
21844,-17.929,-18.881
21855,-15.651,-20.079
21867,-15.6,-20.632
21879,-18.815,-18.281
21891,-16.623,-15.348
21902,-18.158,-15.238
21914,-16.333,-22.845
21926,-18.877,-20.717
21938,-17.491,-20.529
21949,-17.981,-18.096
21961,-16.655,-17.364
21973,-15.977,-18.381
21984,-15.009,-20.026
21996,-14.77,-15.032
22008,-15.485,-16.167
22020,-18.859,-19.573
22031,-14.912,-18.512
22043,-14.052,-19.716
22055,-16.571,-19.763
22066,-17.251,-16.852
22078,-15.981,-16.864
22090,-16.911,-16.351
22102,-17.176,-18.248
22113,-15.055,-17.705
22125,-13.837,-17.798
22137,-17.232,-20.822
22148,-17.994,-20.567
22160,-14.396,-21.168
22172,-14.667,-20.765
22184,-16.607,-21.599
22195,-17.759,-19.95
22207,-18.843,-18.563
22219,-16.694,-21.72
22230,-13.173,-20.109
22242,-16.12,-20.347
22254,-18.851,-23.477
22266,-16.498,-19.562
22277,-17.885,-20.714
22289,-15.667,-21.673
22301,-13.614,-20.671
22313,-15.049,-20.201
22324,-16.838,-17.594
22336,-17.609,-19.971
22348,-14.942,-19.275
22359,-15.834,-16.201
22371,-16.961,-17.076
22383,-18.64,-19.488
22395,-17.067,-18.365
22406,-17.019,-19.653
22418,-18.796,-19.61
22430,-15.205,-18.96
22441,-14.498,-20.453
22453,-15.393,-21.363
22465,-15.918,-21.906
22477,-16.841,-23.178
22488,-18.04,-24.575
22500,-17.136,-20.436
22512,-17.485,-17.774
22523,-16.86,-19.873
22535,-15.814,-17.895
22547,-16.35,-17.915
22559,-16.389,-19.289
22570,-13.213,-22.598
22582,-14.557,-21.149
22594,-16.606,-20.184
22605,-16.654,-22.129
22617,-18.481,-23.805
22629,-16.271,-21.011
22641,-20.459,-22.249
22652,-16.283,-22.642
22664,-15.925,-22.292
22676,-18.526,-22.577
22688,-16.35,-20.508
22699,-14.448,-18.906
22711,-12.083,-19.012
22723,-16.64,-17.287
22734,-17.881,-16.766
22746,-14.258,-16.076
22758,-16.888,-19.878
22770,-17.815,-17.448
22781,-18.972,-19.119
22793,-17.38,-24.423
22805,-16.648,-21.622
22816,-15.107,-22.253
22828,-14.864,-20.092
22840,-16.953,-21.056
22852,-19.754,-21.456
22863,-18.09,-19.918
22875,-16.684,-20.031
22887,-15.633,-19.77
22898,-16.552,-20.417
22910,-16.812,-21.474
22922,-16.346,-19.456
22934,-18.123,-20.062
22945,-19.677,-21.423
22957,-20,-19.888
22969,-18.345,-21.284
22980,-18.302,-19.001
22992,-16.534,-16.143
23004,-15.477,-17.709
23016,-16.987,-20.461
23027,-16.308,-20.098
23039,-15.953,-20.227
23051,-19.097,-21.222
23063,-24.809,-21.698
23074,-20.862,-21.028
23086,-24.588,-19.878
23098,-20.035,-19.686
23109,-18.368,-19.259
23121,-20.625,-18.905
23133,-17.837,-21.38
23145,-16.77,-21.726
23156,-21.309,-20.859
23168,-18.516,-18.673
23180,-14.268,-18.455
23191,-16.44,-21.462
23203,-20.451,-20.074
23215,-19.652,-20.815
23227,-15.357,-19.846
23238,-13.701,-20.779
23250,-17.419,-19.515
23262,-16.861,-20.401
23273,-15.257,-22.669
23285,-17.672,-22.734
23297,-17.333,-21.681
23309,-17.617,-20.242
23320,-19.362,-20.628
23332,-18.062,-22.272
23344,-19.408,-21.233
23355,-20.561,-21.014
23367,-17.382,-20.233
23379,-15.139,-22.913
23391,-17.875,-21.34
23402,-19.238,-20.943
23414,-20.064,-18.274
23426,-20.46,-18.468
23438,-22.908,-22.032
23449,-18.231,-20.039
23461,-15.821,-21.234
23473,-18.786,-19.553
23484,-18.218,-20.168
23496,-15.862,-19.7
23508,-17.097,-19.329
23520,-16.941,-20.817
23531,-17.726,-20.091
23543,-16.496,-19.529
23555,-18.398,-21.619
23566,-16.419,-22.898
23578,-19.308,-20.291
23590,-18.593,-20.225
23602,-17.699,-21.826
23613,-16.827,-22.345
23625,-17.623,-21.804
23637,-17.607,-23.617
23648,-19.283,-19.921
23660,-19.064,-20.051
23672,-17.813,-19.464
23684,-21.177,-20.763
23695,-18.77,-20.214
23707,-17.65,-21.49
23719,-16.768,-21.138
23730,-17.082,-18.492
23742,-20.27,-18.303
23754,-16.47,-18.485
23766,-16.26,-19.812
23777,-18.501,-20.808
23789,-18.212,-20.605
23801,-17.027,-25.373
23813,-18.07,-23.442
23824,-16.44,-22.748
23836,-18.595,-19.267
23848,-18.026,-20.726
23859,-16.458,-26.572
23871,-16.337,-20.194
23883,-17.301,-18.227
23895,-18.379,-19.933
23906,-21.304,-20.065
23918,-20.314,-22.056
23930,-18.547,-18.056
23941,-16.248,-19.48
23953,-20.002,-21.742
23965,-19.546,-19.452
23977,-16.292,-21.974
23988,-13.511,-20.767
