FFT,Power Spectrum
Frequency[Hz],Level-L[dB],Level-R[dB]
11.719,-23.698,-26.751
23.438,-3.7315,-6.0638
35.156,-2.6432,-2.0149
46.875,4.3786,2.4722
58.594,10.919,7.0619
70.313,10.481,8.9948
82.031,8.1252,7.3978
93.75,11.69,8.561
105.47,11.352,7.6821
117.19,8.0767,7.5276
128.91,9.3348,8.7732
140.63,11.741,9.2447
152.34,9.7807,7.4572
164.06,7.6119,7.427
175.78,7.2438,7.8144
187.5,11.546,7.8432
199.22,11.863,6.4831
210.94,11.102,5.8575
222.66,8.3542,6.5728
234.38,12.13,8.2008
246.09,10.829,7.5179
257.81,6.3621,3.6492
269.53,6.2302,5.9168
281.25,7.6708,6.2193
292.97,9.2395,5.5592
304.69,9.6688,5.9457
316.41,6.5855,6.6332
328.13,7.1022,6.6101
339.84,9.4689,6.6744
351.56,5.7354,4.1165
363.28,6.8804,7.0732
375,8.0946,8.6176
386.72,5.4008,6.6187
398.44,7.6253,7.349
410.16,6.7337,5.9274
421.88,4.595,3.7834
433.59,6.6069,5.5554
445.31,9.6085,4.8362
457.03,8.8064,4.8842
468.75,3.4434,3.7545
480.47,4.1429,4.2714
492.19,3.3528,5.2954
503.91,2.4465,7.6767
515.63,3.6797,6.9213
527.34,3.4618,2.6903
539.06,6.0908,3.8761
550.78,6.3208,4.5693
562.5,6.8645,3.34
574.22,6.6582,6.0941
585.94,5.5447,4.8687
597.66,7.624,2.7266
609.38,7.0336,3.8591
621.09,5.3226,3.9052
632.81,6.4938,4.6102
644.53,8.6517,2.9869
656.25,7.0573,1.8952
667.97,4.2168,5.1356
679.69,5.7508,6.8839
691.41,8.9785,6.7356
703.13,7.6228,4.5399
714.84,3.8063,3.4809
726.56,3.8597,0.93129
738.28,5.5153,3.3398
750,5.4255,6.5548
761.72,6.4677,8.01
773.44,7.4952,6.9187
785.16,8.9022,8.0954
796.88,10.295,8.8472
808.59,8.0402,5.8876
820.31,6.0013,5.5261
832.03,6.6737,8.6125
843.75,5.9754,5.1531
855.47,8.1334,3.1978
867.19,9.0116,4.1556
878.91,9.14,6.1958
890.63,10.574,7.1808
902.34,7.0424,4.5145
914.06,17.341,7.4356
925.78,19.501,5.3696
937.5,10.228,6.167
949.22,9.8531,5.7248
960.94,8.6126,6.8771
972.66,3.3987,4.6759
984.38,7.1157,6.7663
996.09,4.1297,4.8328
1007.8,3.7599,5.6306
1019.5,5.4489,5.5262
1031.3,6.5447,4.481
1043,7.4452,7.7919
1054.7,5.3916,7.6506
1066.4,4.4752,3.698
1078.1,3.1755,1.8711
1089.8,1.189,5.0413
1101.6,4.6153,3.2655
1113.3,5.1387,3.8278
1125,7.9927,8.864
1136.7,8.9285,6.7064
1148.4,6.7849,6.4348
1160.2,7.7052,6.8055
1171.9,8.4518,5.9797
1183.6,6.7516,4.9475
1195.3,6.9572,4.754
1207,7.2105,1.7767
1218.8,8.1643,3.711
1230.5,8.5066,4.2298
1242.2,6.2243,1.8558
1253.9,2.5776,3.7822
1265.6,4.063,3.7587
1277.3,5.2661,1.093
1289.1,5.6331,3.3506
1300.8,5.8543,4.9036
1312.5,5.2076,3.6562
1324.2,3.7074,4.5226
1335.9,4.3942,5.727
1347.7,3.9151,5.1288
1359.4,0.27386,2.7048
1371.1,2.8071,5.7211
1382.8,2.0829,6.7726
1394.5,4.3328,1.484
1406.3,2.9266,0.23246
1418,4.6802,1.6628
1429.7,4.2356,1.946
1441.4,4.2758,0.38284
1453.1,1.9929,1.2901
1464.8,5.5489,3.1091
1476.6,4.8938,5.7503
1488.3,6.2822,6.7245
1500,6.5143,5.0642
1511.7,3.263,3.3767
1523.4,5.0535,3.5325
1535.2,3.9135,5.5403
1546.9,2.4015,4.0931
1558.6,5.2873,3.2606
1570.3,5.7818,4.9603
1582,4.9352,7.4909
1593.8,4.23,6.3716
1605.5,3.5366,2.8941
1617.2,5.1122,3.7599
1628.9,5.3559,4.3243
1640.6,3.5147,1.0787
1652.3,1.3097,1.4508
1664.1,0.043744,0.3469
1675.8,3.1435,-0.6078
1687.5,-0.076643,0.28642
1699.2,1.604,-0.079574
1710.9,1.3295,2.839
1722.7,5.4448,6.284
1734.4,6.5889,3.9197
1746.1,4.2508,2.6081
1757.8,4.785,0.39692
1769.5,4.9247,2.3253
1781.3,6.4572,1.4968
1793,4.6473,1.4878
1804.7,3.4548,2.5618
1816.4,4.6456,5.2452
1828.1,7.1333,3.2936
1839.8,6.1357,-0.081739
1851.6,4.8549,1.8499
1863.3,6.5294,0.33299
1875,8.1083,3.2528
1886.7,5.0599,4.2085
1898.4,2.3366,3.239
1910.2,3.6708,1.8513
1921.9,3.2083,0.43709
1933.6,2.3537,2.4645
1945.3,4.193,3.7375
1957,4.835,2.9389
1968.8,4.2119,2.1296
1980.5,0.0089941,2.9999
1992.2,0.53192,0.35757
2003.9,1.8204,-0.46739
2015.6,0.63675,2.991
2027.3,0.12416,0.66368
2039.1,2.7524,1.3116
2050.8,1.6653,-1.1365
2062.5,4.1121,-0.53167
2074.2,2.5542,1.3651
2085.9,-0.16083,1.8915
2097.7,1.2388,2.7977
2109.4,3.3704,1.5778
2121.1,4.439,1.6861
2132.8,4.3649,1.3293
2144.5,3.3602,2.9187
2156.3,2.5664,2.4244
2168,5.9967,3.7248
2179.7,4.5324,2.8168
2191.4,3.6905,1.1954
2203.1,4.7315,0.303
2214.8,3.3242,2.6789
2226.6,1.8735,4.5922
2238.3,2.4023,4.1129
2250,2.0871,1.4635
2261.7,3.1283,2.9475
2273.4,4.9855,1.424
2285.2,3.5644,1.929
2296.9,0.55483,2.6494
2308.6,-0.97881,3.5895
2320.3,0.63334,4.3933
2332,2.1982,3.6956
2343.8,2.9736,2.707
2355.5,3.1438,3.7163
2367.2,0.074449,3.6456
2378.9,-0.83211,2.457
2390.6,-2.1041,1.2346
2402.3,-1.2271,3.0394
2414.1,2.012,-2.1527
2425.8,2.3991,2.1146
2437.5,0.69834,0.028496
2449.2,1.3771,2.5679
2460.9,-0.19897,2.0148
2472.7,0.32331,-0.61683
2484.4,3.6771,-0.27539
2496.1,1.5713,-0.61793
2507.8,-0.16469,0.86864
2519.5,1.2138,0.81489
2531.3,1.7744,1.8942
2543,0.15956,3.4863
2554.7,-1.3783,2.0982
2566.4,1.2405,2.7881
2578.1,1.4235,1.9412
2589.8,0.49397,0.4402
2601.6,1.3726,-0.48222
2613.3,0.87488,1.769
2625,1.6164,1.2748
2636.7,0.04146,0.43816
2648.4,2.1298,0.13624
2660.2,2.8036,1.7288
2671.9,-0.57576,2.5141
2683.6,-1.7769,2.3564
2695.3,-2.8107,0.65366
2707,-1.7074,1.1892
2718.8,0.35075,1.5011
2730.5,4.0813,2.057
2742.2,2.5742,2.1478
2753.9,1.1644,-0.0028234
2765.6,5.8346,-1.4882
2777.3,3.9062,0.82661
2789.1,0.64228,1.3925
2800.8,0.39299,-2.0031
2812.5,2.3959,-1.7806
2824.2,-2.3981,1.0416
2835.9,2.4442,3.7311
2847.7,1.3872,1.3622
2859.4,4.3429,2.3537
2871.1,2.9391,1.1451
2882.8,1.4269,-2.8705
2894.5,2.4067,1.5739
2906.3,2.7501,0.51276
2918,1.4763,0.94426
2929.7,-0.20801,0.92935
2941.4,1.4917,-1.0873
2953.1,2.5668,0.72204
2964.8,2.3838,0.97948
2976.6,-0.99812,-0.26468
2988.3,0.48132,0.98551
3000,1.3924,1.184
3011.7,-0.0095542,-2.3074
3023.4,-1.1209,-0.18089
3035.2,-1.2404,-1.783
3046.9,0.19409,-1.1708
3058.6,-2.0057,1.0453
3070.3,0.29357,1.8212
3082,-0.30067,0.29805
3093.8,-0.91292,0.2925
3105.5,-0.85574,-0.30001
3117.2,-0.038237,-0.33365
3128.9,1.2601,-1.0252
3140.6,1.1223,2.2299
3152.3,-1.4988,2.1751
3164.1,1.0878,-0.8376
3175.8,1.622,-1.6131
3187.5,0.060471,0.41448
3199.2,1.3412,1.5528
3210.9,0.037727,-0.96037
3222.7,0.67354,-2.4125
3234.4,0.99038,-1.6331
3246.1,0.33635,-1.4986
3257.8,1.0056,-1.7965
3269.5,1.3527,1.588
3281.3,0.70913,1.7962
3293,1.4138,-1.5728
3304.7,0.30427,-0.090676
3316.4,-2.7612,2.2163
3328.1,-6.1874,0.88894
3339.8,0.78411,-3.9414
3351.6,1.0195,-3.4167
3363.3,-0.95029,-0.8441
3375,-3.4865,2.0008
3386.7,-2.775,1.7794
3398.4,-4.3725,-0.48275
3410.2,-2.4517,-0.61836
3421.9,0.60229,1.4002
3433.6,0.10748,2.4517
3445.3,-1.1754,3.0459
3457,-5.1673,0.95404
3468.8,-3.4836,1.1887
3480.5,-2.6498,-0.6406
3492.2,-3.4958,2.4909
3503.9,0.31375,4.4264
3515.6,-1.9687,0.61492
3527.3,-5.4688,-0.98424
3539.1,-3.2443,-1.8228
3550.8,-1.7898,-0.57734
3562.5,-3.2733,0.14001
3574.2,-4.6456,-2.2465
3585.9,-1.7545,-1.5672
3597.7,-1.1497,0.16547
3609.4,-2.9974,0.76336
3621.1,-4.6047,0.025632
3632.8,-0.9822,-0.77766
3644.5,-1.381,-2.572
3656.3,-2.5799,-3.4997
3668,1.7994,-2.7764
3679.7,-1.008,-5.1174
3691.4,-2.4594,-5.2508
3703.1,0.12864,-0.67266
3714.8,-1.6762,-0.8383
3726.6,-4.9366,-1.5211
3738.3,-2.0959,-2.6511
3750,-0.38045,-2.4463
3761.7,-0.19827,0.66954
3773.4,-2.5905,2.0028
3785.2,-6.3219,-2.0573
3796.9,-5.1337,-2.1515
3808.6,-2.8327,-1.909
3820.3,-3.9485,-3.4124
3832,-5.2848,-3.8414
3843.8,-5.8944,-3.7434
3855.5,-2.1879,-0.96401
3867.2,-0.079272,-0.023503
3878.9,-0.82271,-2.3718
3890.6,0.7484,-3.8204
3902.3,1.0637,-4.1114
3914.1,-0.94934,-6.0135
3925.8,-1.5712,-3.1118
3937.5,-1.6843,-1.1667
3949.2,-3.503,-2.0682
3960.9,-1.7783,-0.53973
3972.7,-1.3775,-2.5781
3984.4,-1.9524,-3.5902
3996.1,-1.5199,-0.13711
4007.8,-0.19155,-3.1396
4019.5,-2.0499,-2.6935
4031.3,0.089364,-2.8475
4043,2.1057,-4.4942
4054.7,-0.52086,-4.7342
4066.4,-5.3452,-3.6218
4078.1,-1.5748,-1.1712
4089.8,0.18424,-1.0294
4101.6,-2.1248,-3.5284
4113.3,-2.2258,0.17286
4125,-3.4287,-0.26121
4136.7,-0.87339,-3.0006
4148.4,0.25865,-5.0839
4160.2,-2.7457,-4.7748
4171.9,-4.7197,-2.7858
4183.6,-2.1751,-3.1483
4195.3,-2.0413,-5.6213
4207,-2.8973,-3.1554
4218.8,-0.70868,-3.9469
4230.5,-4.0244,-4.8447
4242.2,-4.6111,-4.0672
4253.9,-3.6327,-1.3195
4265.6,-2.8283,-2.8474
4277.3,-0.88616,-3.2629
4289.1,-3.8587,-3.195
4300.8,-1.3498,-1.6605
4312.5,-3.4492,-2.3812
4324.2,-5.7773,-7.0189
4335.9,-4.5382,-5.9262
4347.7,-3.5175,-3.1089
4359.4,-3.7056,-1.6754
4371.1,-3.4574,-1.3322
4382.8,-2.2512,-3.4089
4394.5,-2.1897,-4.8497
4406.3,-1.7858,-3.5741
4418,-3.2125,-1.3894
4429.7,-1.1879,-1.7123
4441.4,-1.5001,-1.5564
4453.1,-4.5049,-1.6348
4464.8,-6.1949,-2.1942
4476.6,-4.7657,-3.7365
4488.3,-4.1758,-3.4846
4500,-5.8207,-4.4618
4511.7,-5.0779,-3.3389
4523.4,-1.9783,-3.7444
4535.2,-2.9847,-5.3885
4546.9,-4.1072,-5.1258
4558.6,-4.9903,-4.2366
4570.3,-2.8144,-3.2698
4582,-6.6113,-2.4856
4593.8,-4.8776,-2.9647
4605.5,2.8053,-2.4297
4617.2,1.5531,-1.0037
4628.9,-2.6803,-1.6599
4640.6,-0.37717,-4.7061
4652.3,-3.5044,-2.8674
4664.1,-0.55937,-2.5604
4675.8,-0.51832,-5.5382
4687.5,-3.9904,-5.5089
4699.2,-3.413,-5.1565
4710.9,-2.267,-7.4749
4722.7,-3.1819,-4.1333
4734.4,-4.297,-2.5618
4746.1,-2.3946,-3.2383
4757.8,-2.3772,-3.5266
4769.5,-0.51308,-3.08
4781.3,-2.3055,-4.3515
4793,-9.4178,-5.3171
4804.7,-8.7303,-3.2388
4816.4,-7.7685,-2.8549
4828.1,-4.4062,-2.59
4839.8,-1.3049,-4.0775
4851.6,-2.0975,-6.1195
4863.3,-2.4637,-3.6746
4875,-0.31327,-4.2512
4886.7,-1.0127,-5.2752
4898.4,-2.1311,-5.0959
4910.2,-1.521,-5.76
4921.9,-0.9751,-6.8314
4933.6,-0.46942,-6.2038
4945.3,-3.4123,-3.8179
4957,-2.622,-2.5776
4968.8,-5.1107,-3.8102
4980.5,-6.9761,-7.6184
4992.2,-5.6049,-3.9314
5003.9,-2.7033,-2.6761
5015.6,-4.5973,-4.7068
5027.3,-6.7189,-4.3396
5039.1,-6.0651,-3.4016
5050.8,-4.2328,-3.8171
5062.5,-6.7997,-4.512
5074.2,-3.704,-5.775
5085.9,-3.3103,-3.9604
5097.7,-2.9271,-1.1152
5109.4,-1.8114,-1.1291
5121.1,-4.5092,-1.7296
5132.8,-2.2751,-2.5006
5144.5,-1.895,-2.3555
5156.3,-5.0588,-2.1906
5168,-3.7294,-2.6541
5179.7,-3.4315,-3.1472
5191.4,-4.2616,-1.2882
5203.1,-2.0753,-2.2251
5214.8,-2.6711,-5.319
5226.6,-4.349,-6.3584
5238.3,-6.223,-7.2728
5250,-3.8437,-7.3191
5261.7,-1.5926,-6.8413
5273.4,-1.8899,-7.2948
5285.2,-3.8702,-5.236
5296.9,-3.827,-4.7644
5308.6,-5.7308,-3.311
5320.3,-2.6086,-4.8966
5332,-2.1347,-4.3639
5343.8,-2.5242,-5.1223
5355.5,-6.9633,-5.9679
5367.2,-6.6928,-5.271
5378.9,-7.4091,-4.893
5390.6,-6.0021,-3.0054
5402.3,-5.8486,-2.9921
5414.1,-1.6476,-3.1248
5425.8,-4.8987,-3.6363
5437.5,-2.1415,-3.4124
5449.2,-1.1675,-3.7208
5460.9,-2.9918,-4.7377
5472.7,-2.1463,-5.1555
5484.4,-3.4517,-6.0879
5496.1,-4.04,-4.5336
5507.8,-4.7915,-4.8795
5519.5,-3.9785,-4.2444
5531.3,-5.3263,-1.3051
5543,-9.8567,-1.6934
5554.7,-5.1351,-3.5359
5566.4,-4.6005,-4.6043
5578.1,-8.0424,-6.884
5589.8,-6.6982,-4.4195
5601.6,-9.6576,-3.6256
5613.3,-5.6174,-4.8239
5625,-4.8758,-8.2621
5636.7,-4.4181,-7.4298
5648.4,-6.9493,-8.3366
5660.2,-4.5548,-8.8682
5671.9,-3.7025,-5.5944
5683.6,-4.6788,-3.8225
5695.3,-4.8605,-6.4392
5707,-4.1782,-5.9138
5718.8,-4.6669,-7.5416
5730.5,-5.5255,-4.7169
5742.2,-4.8038,-5.1746
5753.9,-3.4033,-5.9995
5765.6,-3.7571,-5.0546
5777.3,-6.0015,-7.5595
5789.1,-5.1084,-7.8927
5800.8,-4.7682,-5.2783
5812.5,-7.1609,-4.8455
5824.2,-4.9294,-5.0345
5835.9,-4.5945,-3.6543
5847.7,-3.3538,-4.8925
5859.4,-4.436,-5.5608
5871.1,-4.3175,-7.2694
5882.8,-1.5395,-5.7891
5894.5,-4.7848,-5.4555
5906.3,-6.9366,-7.468
5918,-1.8776,-8.3826
5929.7,-0.92547,-6.3074
5941.4,-3.2318,-4.7617
5953.1,-5.2669,-5.9804
5964.8,-7.7126,-7.2186
5976.6,-3.9896,-5.0982
5988.3,-4.9604,-6.1745
6000,-7.0993,-7.8846
6011.7,-4.3112,-7.2524
6023.4,-4.4373,-6.9216
6035.2,-4.8596,-7.7339
6046.9,-5.1944,-7.1015
6058.6,-3.8338,-5.5456
6070.3,-4.0876,-5.9438
6082,-6.445,-6.9042
6093.8,-7.2708,-7.5156
6105.5,-7.1406,-9.7625
6117.2,-4.6287,-9.4703
6128.9,-4.1778,-8.2243
6140.6,-5.7341,-8.351
6152.3,-6.2021,-5.9729
6164.1,-4.9926,-6.6012
6175.8,-3.3793,-2.9415
6187.5,-4.5945,-4.8155
6199.2,-4.9586,-4.6012
6210.9,-4.8314,-5.1673
6222.7,-4.1623,-9.259
6234.4,-4.9847,-7.7456
6246.1,-8.5625,-8.0423
6257.8,-4.6655,-8.6174
6269.5,-3.2584,-10.123
6281.3,-2.141,-9.1414
6293,-2.8452,-8.016
6304.7,-6.7675,-7.5428
6316.4,-6.3318,-7.4123
6328.1,-9.4221,-8.0756
6339.8,-8.2272,-6.0498
6351.6,-5.1452,-6.8424
6363.3,-4.7978,-7.4989
6375,-6.1193,-5.9674
6386.7,-5.5431,-4.296
6398.4,-5.3918,-6.1283
6410.2,-5.7364,-8.8551
6421.9,-5.6876,-7.272
6433.6,-8.5583,-6.9248
6445.3,-3.4878,-4.6315
6457,-1.4411,-6.6782
6468.8,-4.6589,-8.0055
6480.5,-5.8162,-6.343
6492.2,-5.3967,-5.547
6503.9,-3.2095,-6.2664
6515.6,-4.5077,-4.5537
6527.3,-7.7612,-3.8326
6539.1,-8.5583,-3.8252
6550.8,-8.294,-3.886
6562.5,-7.1466,-4.2089
6574.2,-6.5345,-7.698
6585.9,-6.9929,-6.9095
6597.7,-4.1209,-6.8582
6609.4,-3.2179,-7.2297
6621.1,-2.3534,-7.1372
6632.8,-5.9428,-6.3378
6644.5,-5.2345,-6.4206
6656.3,-5.0968,-7.164
6668,-8.8828,-7.5738
6679.7,-6.488,-9.5357
6691.4,-7.055,-7.4926
6703.1,-5.3433,-8.1191
6714.8,-5.7334,-6.6649
6726.6,-7.651,-6.1569
6738.3,-6.0397,-6.7729
6750,-6.6349,-6.7577
6761.7,-7.3126,-7.9715
6773.4,-5.198,-6.7951
6785.2,-4.7554,-6.6656
6796.9,-6.4838,-7.0431
6808.6,-7.1619,-8.857
6820.3,-6.3307,-9.5725
6832,-9.7066,-7.1904
6843.8,-8.7722,-5.1245
6855.5,-5.7078,-6.0682
6867.2,-6.2892,-7.7415
6878.9,-4.9375,-8.6663
6890.6,-4.64,-10.532
6902.3,-7.0052,-8.7948
6914.1,-6.4782,-5.6203
6925.8,-5.8606,-4.6888
6937.5,-8.1873,-5.1006
6949.2,-7.0739,-6.3566
6960.9,-8.1798,-8.0325
6972.7,-8.86,-9.5396
6984.4,-7.1643,-9.6537
6996.1,-6.9622,-9.8515
7007.8,-7.1334,-9.6638
7019.5,-8.8824,-6.104
7031.3,-7.4846,-5.7741
7043,-6.2423,-8.9238
7054.7,-6.2603,-6.5982
7066.4,-5.226,-6.2183
7078.1,-8.2917,-7.6318
7089.8,-7.4551,-6.9381
7101.6,-6.0735,-10.151
7113.3,-4.9255,-4.8947
7125,-4.3552,-5.7978
7136.7,-4.6176,-9.0752
7148.4,-8.9937,-8.444
7160.2,-11.069,-7.3291
7171.9,-8.9087,-6.9675
7183.6,-9.1668,-5.9793
7195.3,-7.637,-8.7865
7207,-5.7423,-10.382
7218.8,-7.1669,-8.1486
7230.5,-8.6483,-5.7688
7242.2,-8.202,-5.5941
7253.9,-7.1219,-7.7865
7265.6,-5.3433,-9.4537
7277.3,-5.5702,-7.3038
7289.1,-8.011,-6.448
7300.8,-7.095,-9.4276
7312.5,-5.3249,-11.276
7324.2,-8.0335,-10.233
7335.9,-8.8129,-9.0945
7347.7,-7.5558,-7.642
7359.4,-10.889,-8.029
7371.1,-6.6126,-10.802
7382.8,-5.8919,-12.691
7394.5,-9.9704,-9.4658
7406.3,-6.3242,-6.5937
7418,-6.9576,-7.6349
7429.7,-7.7341,-6.1989
7441.4,-6.6994,-6.3329
7453.1,-5.9674,-9.0577
7464.8,-6.6742,-7.466
7476.6,-9.488,-6.8253
7488.3,-9.3544,-7.4721
7500,-5.24,-4.1402
7511.7,-6.4031,-6.1593
7523.4,-7.8415,-7.4699
7535.2,-9.8209,-7.6878
7546.9,-7.9876,-11.012
7558.6,-7.6999,-9.0459
7570.3,-6.3589,-6.9521
7582,-4.8587,-9.0903
7593.8,-5.0232,-10.905
7605.5,-7.9263,-11.119
7617.2,-9.2331,-12.211
7628.9,-9.9624,-8.548
7640.6,-11.072,-8.5066
7652.3,-10.308,-9.0332
7664.1,-9.753,-7.4626
7675.8,-6.3638,-7.2927
7687.5,-9.7663,-7.4504
7699.2,-7.2737,-6.3043
7710.9,-9.2349,-5.8492
7722.7,-7.4701,-8.1329
7734.4,-6.8672,-6.2109
7746.1,-7.8826,-7.9122
7757.8,-6.6087,-9.7515
7769.5,-5.7121,-10.11
7781.3,-6.772,-11.515
7793,-8.4604,-12.115
7804.7,-9.3672,-8.0722
7816.4,-11.114,-8.0332
7828.1,-10.264,-9.6956
7839.8,-7.1693,-12.257
7851.6,-7.2027,-8.5428
7863.3,-7.4074,-7.2008
7875,-4.5278,-7.8611
7886.7,-4.2304,-10.581
7898.4,-7.3057,-12.196
7910.2,-10.83,-10.515
7921.9,-11.805,-11.179
7933.6,-8.1673,-8.8898
7945.3,-9.5221,-10.205
7957,-12.404,-9.8204
7968.8,-10.256,-13.448
7980.5,-7.5578,-12.878
7992.2,-6.5848,-12.491
8003.9,-7.1783,-9.6901
8015.6,-8.342,-11.794
8027.3,-8.6158,-10.454
8039.1,-13.886,-9.0285
8050.8,-7.8239,-8.4103
8062.5,-7.5435,-8.112
8074.2,-10.326,-7.5899
8085.9,-8.9291,-7.4183
8097.7,-7.4193,-10.394
8109.4,-6.3563,-9.8984
8121.1,-7.4091,-7.8423
8132.8,-9.3445,-7.7015
8144.5,-9.0101,-9.3647
8156.3,-6.2296,-11.314
8168,-5.1895,-10.748
8179.7,-6.7214,-9.8988
8191.4,-5.9195,-11.412
8203.1,-8.4088,-8.4445
8214.8,-8.3351,-4.8838
8226.6,-7.2665,-5.8404
8238.3,-8.9003,-9.916
8250,-9.3522,-9.534
8261.7,-7.9087,-9.5915
8273.4,-9.7249,-12.441
8285.2,-9.7035,-10.741
8296.9,-7.1211,-9.1002
8308.6,-7.2016,-8.2509
8320.3,-10.015,-9.0762
8332,-10.394,-8.858
8343.8,-11.768,-12.136
8355.5,-7.3544,-11.096
8367.2,-9.431,-8.78
8378.9,-12.241,-9.8938
8390.6,-12.316,-8.234
8402.3,-10.864,-8.5568
8414.1,-9.5906,-10.912
8425.8,-8.3349,-11.329
8437.5,-9.9238,-9.9568
8449.2,-11.361,-8.6851
8460.9,-10.737,-10.027
8472.7,-13.025,-7.2169
8484.4,-11.258,-9.5679
8496.1,-11.144,-12.389
8507.8,-11.384,-11.401
8519.5,-7.0653,-10.761
8531.3,-7.3749,-10.756
8543,-7.9873,-9.4002
8554.7,-10.1,-7.1775
8566.4,-11.609,-10.338
8578.1,-12.153,-15.51
8589.8,-9.5068,-10.115
8601.6,-8.2529,-8.2834
8613.3,-10.511,-8.4604
8625,-10.492,-7.1754
8636.7,-9.9541,-7.7014
8648.4,-9.7474,-10.156
8660.2,-9.2624,-10.119
8671.9,-9.2839,-12.834
8683.6,-10.201,-12.539
8695.3,-12.536,-11.39
8707,-10.498,-13.104
8718.8,-11.413,-13.557
8730.5,-11.121,-10.752
8742.2,-7.9945,-8.5123
8753.9,-7.539,-8.9046
8765.6,-10.396,-10.721
8777.3,-9.2065,-13.305
8789.1,-8.2141,-13.401
8800.8,-9.2884,-11.551
8812.5,-10.363,-10.457
8824.2,-11.437,-12.733
8835.9,-10.808,-11.48
8847.7,-11.889,-11.786
8859.4,-9.7477,-14.556
8871.1,-8.2046,-10.317
8882.8,-8.9112,-10.235
8894.5,-11.652,-11.756
8906.3,-8.4155,-8.2234
8918,-10.214,-7.4463
8929.7,-10.012,-9.3297
8941.4,-11.348,-11.78
8953.1,-11.224,-11.665
8964.8,-8.2854,-12.587
8976.6,-8.4275,-9.8269
8988.3,-10.78,-9.634
9000,-9.3468,-10.975
9011.7,-9.4093,-10.16
9023.4,-11.525,-9.0041
9035.2,-12.205,-7.9016
9046.9,-11.807,-12.041
9058.6,-9.5202,-12.853
9070.3,-11.252,-11.278
9082,-9.7986,-9.9626
9093.8,-10.929,-10.11
9105.5,-10.613,-8.0802
9117.2,-11.175,-10.741
9128.9,-11.889,-11.083
9140.6,-9.8115,-9.7007
9152.3,-10.669,-8.617
9164.1,-13.193,-9.0343
9175.8,-13.689,-11.386
9187.5,-11.307,-9.306
9199.2,-8.6865,-9.2713
9210.9,-13.215,-11.976
9222.7,-13.546,-10.345
9234.4,-9.5366,-11.162
9246.1,-11.091,-12.719
9257.8,-11.166,-14.602
9269.5,-9.7094,-13.241
9281.3,-12.413,-9.0588
9293,-12.031,-9.4152
9304.7,-11.005,-11.267
9316.4,-9.9735,-11.764
9328.1,-8.8017,-11.213
9339.8,-10.082,-10.829
9351.6,-8.7229,-12.384
9363.3,-7.9451,-12.233
9375,-7.733,-10.733
9386.7,-9.93,-10.046
9398.4,-7.6093,-10.723
9410.2,-10.483,-11.095
9421.9,-12.074,-12.975
9433.6,-12.541,-11.751
9445.3,-13.357,-11.398
9457,-12.733,-13.951
9468.8,-11.649,-12.485
9480.5,-13.535,-10.889
9492.2,-14.784,-11.617
9503.9,-11.016,-13.942
9515.6,-12.685,-10.775
9527.3,-10.998,-12.12
9539.1,-9.9619,-11.438
9550.8,-12.625,-12.828
9562.5,-12.59,-12.326
9574.2,-12.699,-11.563
9585.9,-9.633,-8.5025
9597.7,-7.8467,-11.699
9609.4,-10.852,-12.238
9621.1,-10.898,-9.8554
9632.8,-9.7309,-9.9274
9644.5,-13.18,-11.077
9656.3,-12.837,-10.004
9668,-11.743,-11.781
9679.7,-9.0413,-13.215
9691.4,-8.7801,-12.507
9703.1,-10.251,-13.237
9714.8,-7.7816,-13.471
9726.6,-8.6231,-13.052
9738.3,-11.806,-13.549
9750,-11.858,-14.527
9761.7,-12.414,-14.203
9773.4,-11.829,-9.8237
9785.2,-11.501,-12.433
9796.9,-10.919,-12.87
9808.6,-12.554,-14.065
9820.3,-10.474,-12.884
9832,-9.5786,-12.142
9843.8,-10.476,-11.721
9855.5,-10.957,-12.005
9867.2,-11.694,-14.315
9878.9,-10.864,-13.211
9890.6,-12.6,-12.49
9902.3,-11.554,-10.802
9914.1,-11.606,-11.707
9925.8,-10.078,-14.215
9937.5,-8.6287,-13.319
9949.2,-10.453,-14.01
9960.9,-12.07,-13.23
9972.7,-10.283,-11.151
9984.4,-10.109,-11.824
9996.1,-12.864,-10.1
10008,-14.374,-13.356
10020,-12.45,-15.778
10031,-10.003,-13.957
10043,-9.2885,-13.471
10055,-10.531,-14.35
10066,-8.6288,-11.503
10078,-9.6673,-11.119
10090,-9.5138,-12.019
10102,-10.926,-14.798
10113,-11.401,-14.619
10125,-13.281,-12.887
10137,-12.627,-14.739
10148,-12.223,-13.716
10160,-12.354,-11.456
10172,-12.273,-11.934
10184,-10.532,-13.903
10195,-9.2149,-13.177
10207,-11.852,-12.028
10219,-13.148,-9.6748
10230,-14.371,-11.959
10242,-12.251,-11.842
10254,-13.776,-11.82
10266,-10.17,-12.183
10277,-11.361,-11.955
10289,-17.003,-13.953
10301,-14.554,-11.132
10313,-9.493,-10.331
10324,-12.842,-11.515
10336,-14.272,-13.264
10348,-11.244,-15.111
10359,-11.139,-15.035
10371,-10.969,-12.918
10383,-9.7177,-11.375
10395,-10.829,-11.902
10406,-9.4918,-10.899
10418,-12.155,-11.307
10430,-13.138,-14.306
10441,-10.818,-13.765
10453,-14.515,-13.916
10465,-12.199,-15.659
10477,-9.8238,-16.001
10488,-11.955,-16.453
10500,-11.102,-12.594
10512,-13.219,-11.552
10523,-14.842,-9.6133
10535,-13.451,-10.735
10547,-12.978,-13.387
10559,-11.543,-12.196
10570,-12.323,-11.828
10582,-12.632,-11.817
10594,-13.612,-9.4496
10605,-10.768,-10.136
10617,-7.5713,-10.416
10629,-8.0064,-10.099
10641,-11.361,-12.658
10652,-12.505,-16.744
10664,-11.401,-14.57
10676,-12.354,-11.32
10688,-12.018,-12.468
10699,-10.632,-14.88
10711,-10.835,-14.257
10723,-13.122,-13.221
10734,-12.993,-13.158
10746,-10.813,-13.443
10758,-11.583,-13.283
10770,-13.209,-12.108
10781,-13.192,-10.79
10793,-11.889,-13.524
10805,-12.733,-12.771
10816,-10.069,-12.69
10828,-7.9791,-11.15
10840,-11.684,-11.776
10852,-13.445,-13.95
10863,-12.921,-14.174
10875,-11.602,-14.646
10887,-13.751,-12.692
10898,-13.117,-10.545
10910,-11.013,-11.624
10922,-7.8557,-11.326
10934,-7.5264,-15.072
10945,-9.8684,-13.934
10957,-8.4718,-11.904
10969,-9.279,-15.693
10980,-11.67,-12.943
10992,-11.375,-11.439
11004,-11.646,-10.795
11016,-13.039,-12.916
11027,-12.406,-13.483
11039,-10.203,-14.611
11051,-9.4556,-16.266
11063,-13.621,-14.047
11074,-14.944,-14.112
11086,-14.358,-18.012
11098,-15.23,-14.784
11109,-11.731,-11.361
11121,-11.53,-14.069
11133,-15.017,-17.149
11145,-15.604,-15.43
11156,-13.432,-12.958
11168,-12.344,-11.688
11180,-10.127,-12.953
11191,-11.459,-13.099
11203,-12.961,-15.267
11215,-10.752,-16.923
11227,-9.6026,-15.139
11238,-9.6489,-12.993
11250,-10.746,-13.759
11262,-11.085,-15.289
11273,-15.231,-16.032
11285,-11.714,-14.456
11297,-11.591,-14.169
11309,-11.769,-14.869
11320,-11.777,-14.644
11332,-11.486,-13.785
11344,-14.795,-14.087
11355,-14.242,-11.88
11367,-14.125,-12.004
11379,-14.91,-13.914
11391,-14.506,-13.597
11402,-9.7892,-15.025
11414,-8.8717,-15.277
11426,-12.54,-14.534
11438,-13.291,-15.02
11449,-12.92,-14.422
11461,-13.643,-14.13
11473,-10.887,-14.468
11484,-12.671,-13.774
11496,-12.487,-16.636
11508,-14.087,-17.724
11520,-13.732,-16.553
11531,-12.248,-15.621
11543,-13.096,-14.071
11555,-13.185,-15.561
11566,-9.9666,-16.62
11578,-12.833,-15.062
11590,-16.439,-15.099
11602,-14.229,-16.577
11613,-13.892,-15.761
11625,-11.693,-13.653
11637,-13.986,-13.564
11648,-16.696,-14.769
11660,-15.502,-13.468
11672,-12.044,-12.988
11684,-13.134,-13.023
11695,-12.671,-15.26
11707,-9.916,-17.105
11719,-10.909,-14.11
11730,-15.56,-14.108
11742,-15.331,-15.449
11754,-12.758,-13.275
11766,-9.0749,-11.423
11777,-8.796,-11.82
11789,-11.287,-13.949
11801,-12.686,-14.768
11813,-13.266,-16.187
11824,-10.982,-11.818
11836,-9.5937,-10.855
11848,-10.928,-12.08
11859,-13.323,-14.919
11871,-10.806,-15.316
11883,-9.0823,-16.062
11895,-9.2932,-15.271
11906,-11.191,-17.454
11918,-12.044,-16.339
11930,-11.503,-15.007
11941,-10.655,-12.99
11953,-9.0478,-14.096
11965,-7.9526,-12.719
11977,-1.1496,-11.971
11988,1.8467,-14.56
12000,-3.4004,-14.952
12012,-10.63,-16.178
12023,-13.276,-15.228
12035,-11.58,-15.264
12047,-13.968,-15.866
12059,-15.152,-15.65
12070,-14.773,-16.479
12082,-14.765,-14.899
12094,-13.541,-12.1
12105,-12.701,-12.375
12117,-13.216,-15.168
12129,-11.83,-15.152
12141,-9.217,-13.079
12152,-10.78,-12.891
12164,-10.904,-14.83
12176,-10.899,-15.519
12188,-13.929,-13.472
12199,-14.203,-11.833
12211,-13.048,-13.045
12223,-13.045,-17.245
12234,-12.818,-19.703
12246,-11.484,-16.845
12258,-14.259,-14.951
12270,-12.812,-18.057
12281,-10.622,-17.19
12293,-10.229,-14.421
12305,-11.568,-15.137
12316,-12.994,-13.789
12328,-14.891,-11.468
12340,-15.422,-15.951
12352,-14.8,-13.815
12363,-12.177,-14.326
12375,-11.686,-13.982
12387,-10.98,-15.168
12398,-13.475,-14.361
12410,-12.11,-13.641
12422,-15.34,-17.108
12434,-13,-16.078
12445,-11.006,-18.105
12457,-12.049,-14.399
12469,-12.566,-15.424
12480,-14.57,-17.8
12492,-14.046,-12.692
12504,-11.602,-14.188
12516,-12.384,-15.345
12527,-14.798,-12.99
12539,-13.263,-14.999
12551,-14.245,-16.046
12563,-12.903,-16.227
12574,-9.8179,-19.575
12586,-11.316,-17.729
12598,-11.294,-14.449
12609,-10.543,-13.545
12621,-10.539,-13.623
12633,-12.213,-15.609
12645,-11.117,-14.985
12656,-12.242,-14.824
12668,-12.158,-13.773
12680,-11.119,-17.15
12691,-10.864,-17.619
12703,-11.431,-14.451
12715,-10.834,-14.251
12727,-13.126,-15.845
12738,-15.697,-14.742
12750,-16.006,-15.546
12762,-14.021,-17.622
12773,-13.013,-14.202
12785,-11.228,-11.521
12797,-13.382,-11.519
12809,-13.23,-11.936
12820,-14.051,-13.982
12832,-13.556,-15.884
12844,-13.2,-14.657
12855,-12.785,-13.406
12867,-12.265,-15.377
12879,-13.064,-18.483
12891,-13.14,-16.741
12902,-12.976,-18.961
12914,-13.557,-18.353
12926,-14.747,-16.502
12938,-13.081,-13.565
12949,-12.331,-11.836
12961,-13.081,-15.09
12973,-14.14,-16.475
12984,-16.078,-16.315
12996,-15.708,-15.417
13008,-14.112,-13.548
13020,-15.22,-13.931
13031,-11.958,-17.816
13043,-11.669,-17.938
13055,-13.156,-13.869
13066,-13.768,-15.832
13078,-16.66,-17.384
13090,-14.642,-17.213
13102,-11.805,-18.31
13113,-13.627,-19.816
13125,-16.138,-15.685
13137,-14.364,-14.455
13148,-12.187,-15.865
13160,-11.161,-15.225
13172,-10.512,-16.201
13184,-8.6203,-19.146
13195,-10.233,-18.225
13207,-16.249,-18.766
13219,-16.164,-18.642
13230,-17.258,-18.454
13242,-14.674,-19.492
13254,-15.449,-15.114
13266,-16.5,-16.516
13277,-17.293,-18.552
13289,-17.802,-19.203
13301,-12.54,-17.113
13313,-11.509,-16.515
13324,-12.085,-17.714
13336,-13.475,-16.22
13348,-12.743,-15.622
13359,-12.348,-16.327
13371,-14.243,-14.563
13383,-17.369,-14.127
13395,-13.676,-16.26
13406,-14.896,-16.2
13418,-16.955,-16.809
13430,-15.814,-12.905
13441,-14.716,-12.767
13453,-11.741,-15.073
13465,-10.446,-15.841
13477,-12.037,-15.987
13488,-16.424,-16.486
13500,-14.515,-16.9
13512,-13.071,-16.755
13523,-13.239,-17.158
13535,-17.792,-16.857
13547,-15.049,-15.791
13559,-13.024,-15.337
13570,-13.49,-16.426
13582,-13.178,-14.03
13594,-11.039,-13.604
13605,-14.24,-15.771
13617,-13.196,-15.934
13629,-12.709,-17.479
13641,-14.997,-18.085
13652,-13.184,-16.638
13664,-14.225,-15.42
13676,-14.239,-16.951
13688,-13.994,-13.241
13699,-12.122,-14.187
13711,-9.6827,-17.553
13723,-11.514,-18.264
13734,-16.547,-16.559
13746,-14.497,-14.939
13758,-15.949,-15.329
13770,-15.012,-16.939
13781,-15.154,-17.404
13793,-14.808,-16.868
13805,-12.548,-17.262
13816,-9.2065,-19.572
13828,0.39307,-16.042
13840,-1.8958,-16.14
13852,-11.348,-15.312
13863,-13.483,-14.905
13875,-15.887,-19.047
13887,-16.161,-14.384
13898,-13.726,-15.069
13910,-14.178,-21.194
13922,-17.302,-19.746
13934,-16.149,-18.755
13945,-12.021,-17.915
13957,-11.774,-18.451
13969,-13.934,-18.027
13980,-17.875,-16.675
13992,-16.665,-18.374
14004,-17.888,-17.426
14016,-16.102,-15.421
14027,-15.789,-19.606
14039,-14.68,-19.176
14051,-14.665,-20.703
14063,-14.612,-17.641
14074,-16.711,-15.865
14086,-17.619,-17.947
14098,-14.753,-18.252
14109,-14.17,-18.058
14121,-16.543,-17.796
14133,-17.457,-15.693
14145,-14.429,-17.6
14156,-16.209,-18.264
14168,-13.423,-18.67
14180,-14.743,-16.744
14191,-17.828,-16.549
14203,-17.964,-14.851
14215,-18.555,-15.29
14227,-17.421,-15.681
14238,-14.857,-17.27
14250,-16.203,-19.847
14262,-16.341,-19.594
14273,-16.119,-17.319
14285,-14.585,-17.297
14297,-15.588,-16.396
14309,-18.689,-17.031
14320,-16.997,-15.901
14332,-16.45,-15.852
14344,-17.394,-16.124
14355,-18.458,-17.439
14367,-18.812,-18.701
14379,-18.196,-17.968
14391,-17.344,-13.414
14402,-19.398,-13.333
14414,-16.384,-16.9
14426,-16.818,-18.215
14438,-18.166,-15.687
14449,-19.582,-16.412
14461,-20.653,-16.714
14473,-19.242,-15.133
14484,-21.202,-14.016
14496,-17.659,-17.924
14508,-15.955,-22.045
14520,-14.534,-16.627
14531,-16.455,-14.515
14543,-19.617,-17.35
14555,-19.955,-15.252
14566,-18.233,-16.909
14578,-19.974,-19.669
14590,-20.998,-19.265
14602,-19.499,-17.077
14613,-17.17,-18.498
14625,-18.402,-21.311
14637,-17.325,-21.008
14648,-16.226,-16.893
14660,-17.668,-17.538
14672,-16.997,-16.081
14684,-19.534,-14.19
14695,-20.467,-16.295
14707,-18.944,-17.02
14719,-16.313,-18.534
14730,-16.261,-18.143
14742,-18.548,-18.824
14754,-19.215,-21.981
14766,-19.322,-20.481
14777,-17.798,-18.689
14789,-19.226,-18.651
14801,-18.977,-18.84
14813,-17.147,-17.933
14824,-15.683,-19.297
14836,-16.911,-18.332
14848,-17.862,-17.395
14859,-17.959,-17.918
14871,-17.416,-19.849
14883,-16.251,-20.35
14895,-17.825,-18.349
14906,-17.6,-14.402
14918,-15.428,-15.793
14930,-17.316,-18.233
14941,-18.872,-18.748
14953,-20.143,-21.809
14965,-21.548,-20.107
14977,-18.001,-18.564
14988,-17.445,-18.073
15000,-19.399,-16.509
15012,-19.024,-18.37
15023,-19.303,-18.138
15035,-17.39,-15.533
15047,-19.185,-17.428
15059,-15.324,-21.229
15070,-14.67,-21.532
15082,-18.229,-20.252
15094,-20.066,-21.358
15105,-18.293,-21.391
15117,-17.829,-19.219
15129,-17.128,-17.963
15141,-15.186,-17.166
15152,-16.78,-18.207
15164,-17.28,-19.351
15176,-18.928,-19.276
15188,-21.383,-20.511
15199,-19.964,-18.09
15211,-17.967,-16.497
15223,-19.008,-19.645
15234,-19.268,-18.798
15246,-18.48,-17.126
15258,-18.803,-16.13
15270,-17.881,-17.605
15281,-17.411,-17.089
15293,-22.215,-17.525
15305,-18.829,-18.128
15316,-18.402,-19.948
15328,-20.123,-19.721
15340,-18.515,-19.958
15352,-17.858,-19.823
15363,-16.979,-20.112
15375,-17.119,-17.64
15387,-21.026,-17.327
15398,-20.564,-19.473
15410,-20.009,-17.532
15422,-19.172,-16.79
15434,-16.77,-19.054
15445,-16.001,-21.194
15457,-18.608,-21.06
15469,-18.648,-18.36
15480,-17.892,-18.731
15492,-18.991,-17.316
15504,-20.075,-18.788
15516,-19.069,-17.664
15527,-17.237,-17.698
15539,-22.962,-20.807
15551,-16.773,-19.931
15563,-15.9,-17.234
15574,-18.214,-17.315
15586,-19.37,-19.482
15598,-20.125,-18.683
15609,-22.468,-19.231
15621,-19.921,-18.616
15633,-15.883,-17.17
15645,-18.798,-19.099
15656,-21.884,-21.79
15668,-19.778,-19.696
15680,-18.008,-22.198
15691,-19.235,-23.497
15703,-20.502,-22.151
15715,-21.858,-20.639
15727,-21.763,-20.585
15738,-18.481,-24.547
15750,-18.412,-20.889
15762,-19.413,-19.625
15773,-17.788,-20.349
15785,-18.289,-21.538
15797,-21.426,-21.755
15809,-21.953,-21.041
15820,-21.439,-20.473
15832,-21.058,-20.331
15844,-22.054,-18.982
15855,-21.089,-18.82
15867,-21.748,-22.463
15879,-18.364,-23.547
15891,-18.113,-22.994
15902,-20.204,-20.617
15914,-19.791,-19.928
15926,-20.402,-17.974
15938,-19.183,-17.422
15949,-18.861,-19.238
15961,-19.622,-19.841
15973,-19.906,-20.706
15984,-19.749,-20.14
15996,-17.815,-19.928
16008,-15.683,-21.587
16020,-18.516,-21.912
16031,-21.404,-20.185
16043,-19.555,-20.516
16055,-18.891,-21
16066,-17.417,-19.052
16078,-16.811,-22.305
16090,-18.15,-25.83
16102,-18.045,-24.034
16113,-16.282,-24.094
16125,-15.486,-22.443
16137,-19.095,-21.034
16148,-20.801,-19.621
16160,-22.673,-20.823
16172,-21.866,-22.114
16184,-19.271,-20.332
16195,-18.804,-20.662
16207,-19.019,-18.918
16219,-17.831,-18.706
16230,-19.008,-23.773
16242,-19.516,-22.977
16254,-21.243,-21.404
16266,-19.621,-22.499
16277,-19.419,-23.988
16289,-20.239,-22.894
16301,-20.475,-21.96
16313,-20.085,-22.113
16324,-19.391,-16.994
16336,-19.238,-18.429
16348,-20.657,-20.515
16359,-25.358,-20.234
16371,-19.705,-21.37
16383,-17.045,-20.735
16395,-19.101,-19.961
16406,-21.506,-18.901
16418,-21.303,-19.575
16430,-21.492,-23.063
16441,-25.489,-20.904
16453,-21.335,-24.278
16465,-18.437,-26.675
16477,-18.213,-24.276
16488,-21.659,-21.733
16500,-23.813,-18.015
16512,-22.314,-20.563
16523,-19.416,-24.182
16535,-19.202,-20.852
16547,-21.857,-20.208
16559,-20.51,-21.388
16570,-18.409,-22.118
16582,-20.78,-23
16594,-16.705,-20.078
16605,-19.038,-20.835
16617,-19.525,-20.371
16629,-19.185,-18.249
16641,-20.065,-19.922
16652,-21.022,-20.614
16664,-22.197,-20.14
16676,-21.145,-19.015
16688,-22.179,-22.459
16699,-22.256,-26.806
16711,-18.674,-28.912
16723,-19.773,-22.556
16734,-20.544,-19.174
16746,-20.859,-23.652
16758,-21.379,-19.895
16770,-21.256,-19.27
16781,-19.776,-22.076
16793,-18.402,-20.174
16805,-19.38,-21.175
16816,-20.884,-23.449
16828,-20.108,-22.625
16840,-21.097,-19.213
16852,-20.269,-19.926
16863,-19.611,-21.353
16875,-19.909,-21.345
16887,-20.673,-24.473
16898,-17.652,-22.208
16910,-19.308,-20.046
16922,-22.262,-20.86
16934,-20.066,-18.867
16945,-20.087,-18.701
16957,-18.577,-22.108
16969,-18.244,-22.352
16980,-19.408,-21.105
16992,-20.218,-23.129
17004,-20.137,-22.675
17016,-20.029,-21.328
17027,-18.048,-22.186
17039,-17.914,-21.129
17051,-20.854,-23.947
17063,-20.943,-22.897
17074,-20.031,-21.981
17086,-19.899,-20.472
17098,-19.078,-23.823
17109,-19.706,-21.627
17121,-23.461,-22.276
17133,-21.533,-21.729
17145,-20.355,-20.3
17156,-17.636,-21.84
17168,-20.116,-21.813
17180,-20.741,-22.039
17191,-19.753,-21.26
17203,-21.28,-21.945
17215,-21.408,-22.454
17227,-20.541,-22.155
17238,-24.697,-22.447
17250,-22.441,-21.506
17262,-22.013,-22.075
17273,-21.415,-21.005
17285,-19.83,-21.399
17297,-22.576,-20.992
17309,-23.298,-19.851
17320,-22.54,-19.743
17332,-22.867,-20.586
17344,-21.475,-19.965
17355,-22.133,-22.637
17367,-23.179,-23.291
17379,-22.767,-23.017
17391,-24.52,-22.807
17402,-23.481,-22.66
17414,-20.398,-22.166
17426,-21.816,-20.173
17438,-25.095,-21.363
17449,-23.794,-24.981
17461,-23.813,-22.771
17473,-24.518,-24.235
17484,-23.788,-24.341
17496,-24.693,-23.434
17508,-21.972,-22.377
17520,-17.734,-19.128
17531,-20.265,-18.775
17543,-21.416,-21.865
17555,-20.417,-21.237
17566,-18.54,-20.668
17578,-20.342,-23.536
17590,-23.471,-22.579
17602,-22.397,-24.78
17613,-22.021,-20.466
17625,-24.024,-19.601
17637,-21.808,-20.441
17648,-22.754,-22.767
17660,-24.507,-22.8
17672,-25.016,-21.84
17684,-19.468,-20.091
17695,-18.659,-21.812
17707,-21.183,-23.95
17719,-21.919,-21.693
17730,-22.709,-21.034
17742,-23.484,-21.08
17754,-22.188,-20.973
17766,-23.187,-23.017
17777,-22.677,-23.444
17789,-22.064,-21.713
17801,-25.4,-22.119
17813,-26.708,-22.756
17824,-23.249,-22.844
17836,-22.592,-22.43
17848,-22.524,-24.048
17859,-19.628,-23.816
17871,-21.186,-23.826
17883,-21.686,-23.113
17895,-22.703,-20.892
17906,-23.315,-22.357
17918,-22.964,-21.194
17930,-25.129,-23.727
17941,-21.368,-24.376
17953,-22.665,-23.67
17965,-25.364,-22.218
17977,-23.861,-22.063
17988,-21.029,-23.239
18000,-19.129,-21.103
18012,-20.817,-21.292
18023,-24.248,-24.201
18035,-22.394,-26.229
18047,-19.937,-24.157
18059,-21.219,-23.174
18070,-23.14,-24.874
18082,-26.295,-22.765
18094,-25.73,-24.308
18105,-22.897,-24.011
18117,-20.599,-23.952
18129,-20.738,-21.514
18141,-21.835,-22.216
18152,-22.396,-25.496
18164,-24.199,-27.944
18176,-24.275,-23.381
18188,-27.247,-22.471
18199,-25.364,-27.167
18211,-24.815,-24.503
18223,-24.373,-25.4
18234,-19.532,-22.532
18246,-18.22,-23.487
18258,-21.374,-24.671
18270,-21.925,-24.03
18281,-24.212,-23.704
18293,-23.194,-21.597
18305,-21.747,-22.729
18316,-21.339,-20.628
18328,-21.215,-19.846
18340,-24.78,-25.41
18352,-21.939,-25.024
18363,-22.889,-27.371
18375,-24.292,-24.988
18387,-25.491,-23.818
18398,-25.132,-23.308
18410,-22.259,-23.56
18422,-22.904,-24.775
18434,-23.253,-24.159
18445,-21.81,-24.821
18457,-22.515,-24.237
18469,-23.919,-23.625
18480,-22.411,-23.967
18492,-22.427,-24.361
18504,-20.832,-21.025
18516,-23.272,-19.074
18527,-22.457,-20.975
18539,-22.189,-29.379
18551,-21.206,-23.118
18563,-22.559,-24.101
18574,-25.065,-23.591
18586,-21.836,-23.848
18598,-23.269,-25.058
18609,-23.041,-25.195
18621,-21.998,-24.865
18633,-25.159,-23.456
18645,-22.704,-22.593
18656,-22.833,-22.587
18668,-21.234,-25.125
18680,-21.371,-25.163
18691,-23.86,-25.715
18703,-24.263,-25.477
18715,-25.218,-24.945
18727,-24.491,-24.245
18738,-24.659,-25.354
18750,-24.131,-23.158
18762,-25.251,-24.645
18773,-22.981,-24.716
18785,-23.225,-25.458
18797,-22.608,-25.152
18809,-25.777,-24.517
18820,-24.233,-26.787
18832,-22.25,-25.551
18844,-22.265,-24.38
18855,-26.374,-20.9
18867,-22.589,-22.154
18879,-22.467,-27.149
18891,-24.91,-26.058
18902,-27.447,-22.449
18914,-26.226,-20.818
18926,-25.777,-23.121
18938,-24.266,-26.436
18949,-22.643,-25.119
18961,-23.373,-26.144
18973,-24.26,-22.88
18984,-25.273,-22.445
18996,-24.21,-26.159
19008,-22.458,-26.041
19020,-22.496,-26.484
19031,-24.174,-24.183
19043,-27.005,-24.336
19055,-26.03,-25.306
19066,-21.969,-25.502
19078,-22.141,-25.507
19090,-24.77,-25.905
19102,-24.545,-23.759
19113,-23.414,-25.084
19125,-21.669,-25.254
19137,-23.401,-24.368
19148,-23.765,-25.705
19160,-24.255,-25.111
19172,-24.396,-24.484
19184,-22.054,-22.691
19195,-21.862,-23.198
19207,-24.307,-25.962
19219,-24.225,-26.134
19230,-26.395,-27.343
19242,-25.182,-24.355
19254,-22.777,-22.197
19266,-21.65,-22.461
19277,-23.571,-25.18
19289,-24.671,-25.693
19301,-25.541,-25.131
19313,-26.214,-23.986
19324,-26.789,-22.115
19336,-25.54,-25.191
19348,-27.149,-27.312
19359,-28.217,-25.896
19371,-26.05,-24.949
19383,-24.901,-23.164
19395,-24.068,-21.785
19406,-24.043,-26.059
19418,-24.632,-29.702
19430,-26.662,-27.626
19441,-26.685,-24.247
19453,-25.093,-24.221
19465,-23.923,-24.556
19477,-23.673,-29.745
19488,-22.499,-24.215
19500,-22.537,-22.898
19512,-25.315,-23.579
19523,-27.019,-22.57
19535,-24.386,-24.998
19547,-25.015,-25.959
19559,-25.189,-25.257
19570,-23.741,-24.692
19582,-22.474,-25.305
19594,-21.517,-24.943
19605,-21.608,-22.503
19617,-24.479,-24.251
19629,-24.923,-24.894
19641,-27.075,-25.386
19652,-25.129,-23.939
19664,-24.594,-22.666
19676,-23.564,-24.078
19688,-26.371,-26.351
19699,-28.667,-23.495
19711,-27.811,-23.015
19723,-27.524,-26.126
19734,-25.972,-28.256
19746,-24.239,-26.753
19758,-22.716,-25.804
19770,-24.987,-25.234
19781,-28.468,-25.968
19793,-23.455,-26.636
19805,-22.53,-26.989
19816,-24.217,-26.755
19828,-21.134,-26.775
19840,-22.429,-27.089
19852,-27.358,-26.458
19863,-23.547,-25.901
19875,-23.069,-25.006
19887,-26.451,-23.128
19898,-24.284,-27.235
19910,-22.842,-25.374
19922,-25.063,-24.68
19934,-24.498,-24.357
19945,-23.946,-25.455
19957,-25.988,-25.723
19969,-23.239,-25.706
19980,-24.441,-27.549
19992,-21.234,-24.868
20004,-23.579,-24.325
20016,-28.96,-24.299
20027,-24.645,-23.26
20039,-24.638,-23.504
20051,-23.136,-23.018
20063,-22.905,-28.497
20074,-23.5,-27.555
20086,-25.653,-24.152
20098,-26.232,-21.565
20109,-26.578,-23.896
20121,-25.194,-24.857
20133,-25.093,-25.969
20145,-23.583,-30.315
20156,-25.358,-27.692
20168,-25.524,-26.972
20180,-25.661,-27.416
20191,-26.116,-26.505
20203,-25.41,-26.454
20215,-26.289,-28.271
20227,-24.126,-28.285
20238,-22.969,-24.916
20250,-26.496,-23.692
20262,-26.292,-23.256
20273,-22.63,-23.509
20285,-25.339,-25.427
20297,-27.017,-26.608
20309,-25.101,-26.638
20320,-25.201,-24.552
20332,-24.139,-25.864
20344,-26.52,-27.105
20355,-27.609,-26.243
20367,-25.767,-24.918
20379,-25.892,-23.67
20391,-25.881,-28.387
20402,-24.942,-24.063
20414,-25.736,-25.774
20426,-24.685,-26.664
20438,-24.281,-26.84
20449,-24.953,-24.917
20461,-26.992,-22.808
20473,-25.023,-22.863
20484,-23.622,-25.35
20496,-24.924,-27.424
20508,-26.241,-24.73
20520,-27.432,-23.247
20531,-27.239,-24.964
20543,-27.856,-26.872
20555,-24.946,-29.273
20566,-25.799,-26.722
20578,-26.955,-24.653
20590,-25.29,-26.6
20602,-23.558,-24.149
20613,-25.17,-26.241
20625,-27.118,-31.016
20637,-28.992,-28.011
20648,-26.171,-24.847
20660,-25.579,-25.803
20672,-25.421,-25.293
20684,-27.97,-24.461
20695,-25.773,-25.06
20707,-25.177,-24.454
20719,-23.987,-26.984
20730,-25.25,-25.741
20742,-25.835,-27.219
20754,-26.983,-24.331
20766,-26.413,-24.801
20777,-27.486,-26.414
20789,-27.244,-24.613
20801,-27.401,-23.831
20813,-24.494,-26.725
20824,-22.278,-27.404
20836,-23.402,-26.337
20848,-25.308,-28.429
20859,-23.849,-27.949
20871,-28.496,-24.287
20883,-25.809,-25.927
20895,-27.334,-27.486
20906,-26.25,-26.516
20918,-27.435,-25.893
20930,-26.968,-24.031
20941,-25.471,-24.565
20953,-25.81,-29.719
20965,-27.824,-29.885
20977,-25.165,-30.05
20988,-24.947,-26.83
21000,-27.404,-27.177
21012,-27.759,-28.359
21023,-25.664,-28.272
21035,-27.998,-25.964
21047,-26.398,-27.575
21059,-26.203,-25.666
21070,-26.585,-26.16
21082,-28.578,-24.833
21094,-24.911,-24.409
21105,-24.748,-22.049
21117,-27.112,-25.165
21129,-25.439,-30.795
21141,-26.461,-29.155
21152,-29.151,-27.774
21164,-25.48,-27.578
21176,-22.368,-28.804
21188,-24.039,-28.56
21199,-24.106,-29.094
21211,-25.271,-27.035
21223,-26.199,-23.96
21234,-27.545,-23.817
21246,-29.735,-24.135
21258,-28.602,-27.714
21270,-28.984,-26.579
21281,-25.708,-27.81
21293,-25.31,-25.436
21305,-27.553,-25.213
21316,-27.794,-26.571
21328,-27.296,-26.122
21340,-29.586,-25.426
21352,-28.793,-27.974
21363,-26.157,-27.471
21375,-25.448,-27.86
21387,-25.346,-25.727
21398,-24.769,-27.837
21410,-26.602,-26.641
21422,-24.889,-27.459
21434,-24.118,-28.8
21445,-24.225,-27.059
21457,-21.095,-27.294
21469,-23.782,-28.226
21480,-25.984,-26.195
21492,-24.834,-27.584
21504,-23.294,-29.656
21516,-23.944,-27.507
21527,-24.267,-26.451
21539,-25.099,-26.741
21551,-27.767,-27.453
21563,-25.347,-27.23
21574,-26.606,-27.53
21586,-26.133,-23.8
21598,-26.178,-24.291
21609,-29.26,-28.036
21621,-26.414,-27.757
21633,-24.22,-26.851
21645,-24.495,-29.696
21656,-27.165,-29.595
21668,-26.68,-26.067
21680,-26.995,-26.074
21691,-27.985,-27.783
21703,-26.59,-28.231
21715,-27.568,-27.727
21727,-27.598,-28.412
21738,-27.188,-29.052
21750,-26.525,-26.531
21762,-27.856,-28.966
21773,-26.678,-26.001
21785,-25.821,-24.995
21797,-24.328,-28.775
21809,-24.022,-26.747
21820,-25.512,-26.628
21832,-24.851,-25.447
21844,-23.953,-25.392
21855,-24.747,-26.235
21867,-27.673,-26.163
21879,-28.546,-26.227
21891,-27.603,-28.156
21902,-29.145,-29.378
21914,-30.589,-28.121
21926,-29.797,-27.984
21938,-28.884,-23.574
21949,-25.523,-24.551
21961,-25.403,-28.567
21973,-27.144,-28.844
21984,-26.961,-27.805
21996,-24.445,-27.786
22008,-22.909,-28.613
22020,-26.096,-26.093
22031,-27.422,-25.655
22043,-25.332,-23.843
22055,-25.412,-25.128
22066,-25.684,-25.364
22078,-26.008,-24.595
22090,-27.939,-25.403
22102,-27.722,-31.624
22113,-28.313,-31.167
22125,-25.006,-28.632
22137,-22.288,-25.262
22148,-24.308,-27.442
22160,-26.068,-27.333
22172,-26.434,-27.34
22184,-28.229,-28.841
22195,-26.692,-28.238
22207,-28.401,-26.173
22219,-26.462,-25.009
22230,-25.728,-25.546
22242,-25.708,-27.307
22254,-25.387,-27.526
22266,-23.405,-24.539
22277,-24.132,-25.295
22289,-24.284,-25.639
22301,-25.442,-26.679
22313,-24.262,-28.735
22324,-26.834,-26.206
22336,-30.638,-28.032
22348,-28.942,-25.509
22359,-25.767,-27.648
22371,-25.008,-28.684
22383,-27.671,-26.157
22395,-27.326,-26.801
22406,-25.85,-29.384
22418,-24.69,-29.721
22430,-27.018,-27.249
22441,-27.613,-25.224
22453,-27.519,-24.765
22465,-29.369,-25.846
22477,-25.776,-25.354
22488,-26.463,-28.742
22500,-29.708,-28.67
22512,-25.212,-27.049
22523,-25.127,-25.945
22535,-28.317,-27.613
22547,-31.263,-28.78
22559,-26.511,-29.746
22570,-25.005,-28.913
22582,-29.369,-28.59
22594,-27.149,-26.824
22605,-25.862,-24.825
22617,-26.849,-23.856
22629,-28.235,-26.724
22641,-24.256,-29.904
22652,-25.315,-30.643
22664,-28.843,-29.157
22676,-27.146,-26.113
22688,-30.406,-27.416
22699,-26.382,-30.791
22711,-25.126,-27.756
22723,-25.887,-29.389
22734,-28.985,-29.165
22746,-29.251,-27.477
22758,-29.816,-28.495
22770,-27.748,-28.441
22781,-29.11,-29.773
22793,-29.61,-27.839
22805,-27.846,-27.367
22816,-26.238,-26.701
22828,-26.629,-28.246
22840,-25.302,-27.401
22852,-25.679,-27.724
22863,-29.872,-29.74
22875,-30.93,-29.108
22887,-29.377,-26.471
22898,-26.288,-27.929
22910,-25.111,-29.886
22922,-25.336,-26.92
22934,-24.185,-26.162
22945,-25.536,-28.013
22957,-27.849,-30.162
22969,-23.928,-28.349
22980,-26.431,-26.895
22992,-30.694,-28.997
23004,-30.165,-28.179
23016,-29.55,-24.972
23027,-28.671,-30.615
23039,-28.755,-27.284
23051,-26.783,-24.218
23063,-27.112,-26.114
23074,-28.543,-28.813
23086,-32.513,-29.763
23098,-28.329,-29.367
23109,-31.573,-29.666
23121,-27.162,-29.729
23133,-27.629,-30.434
23145,-24.957,-28.488
23156,-26.091,-24.223
23168,-29.185,-27.966
23180,-31.99,-30.563
23191,-28.374,-30.091
23203,-28.229,-32.738
23215,-29.62,-32.637
23227,-28.578,-30.285
23238,-27.225,-27.875
23250,-28.046,-27.257
23262,-27.262,-29.529
23273,-27.175,-32.261
23285,-29.07,-30.092
23297,-28.17,-28.86
23309,-26.947,-28.234
23320,-25.848,-30.309
23332,-25.44,-30.204
23344,-25.876,-29.291
23355,-25.427,-28.369
23367,-26.335,-27.58
23379,-26.173,-26.534
23391,-26.998,-30.016
23402,-29.05,-30.525
23414,-28.786,-28.913
23426,-28.235,-29.346
23438,-31.36,-27.041
23449,-28.427,-26.395
23461,-26.793,-28.322
23473,-27.405,-29.76
23484,-27.985,-31.587
23496,-30.566,-26.555
23508,-26.747,-28.694
23520,-27.282,-27.017
23531,-29.904,-27.841
23543,-29.552,-25.729
23555,-27.787,-27.699
23566,-31.145,-29.344
23578,-28.219,-30.254
23590,-31.184,-30.123
23602,-28.412,-30.128
23613,-27.536,-31.009
23625,-28.054,-30.201
23637,-26.973,-29.024
23648,-26.459,-28.793
23660,-29.472,-25.889
23672,-26.852,-26.529
23684,-26.052,-28.002
23695,-25.663,-29.88
23707,-25.288,-32.46
23719,-28.684,-30.339
23730,-28.165,-29.96
23742,-27.038,-28.551
23754,-28.031,-25.955
23766,-28.367,-26.007
23777,-27.745,-28.508
23789,-31.098,-29.399
23801,-31.394,-30.189
23813,-31.255,-31.84
23824,-29.068,-31.97
23836,-27.057,-30.221
23848,-28.831,-29.505
23859,-30.703,-30.32
23871,-30.846,-33.484
23883,-27.497,-30.071
23895,-24.99,-25.695
23906,-24.871,-24.948
23918,-24.617,-27.891
23930,-16.167,-28.637
23941,-13.694,-29.787
23953,-20.45,-28.73
23965,-25.89,-25.911
23977,-26.947,-24.988
23988,-27.547,-28.354
