FFT,Power Spectrum
Frequency[Hz],Level-L[dB],Level-R[dB]
11.719,-3.4795,-61.84
23.438,16.62,-54.719
35.156,12.95,-42.332
46.875,15.262,-28.02
58.594,19.018,-26.386
70.313,17.987,-31.609
82.031,22.088,-27.816
93.75,23.112,-27.181
105.47,19.902,-25.976
117.19,15.662,-20.965
128.91,18.766,-21.288
140.63,23.465,-15.244
152.34,19.886,-10.682
164.06,14.201,-13.873
175.78,15.21,-15.736
187.5,20.544,-18.212
199.22,23.426,-17.05
210.94,17.733,-19.277
222.66,16.449,-18.275
234.38,19.906,-15.574
246.09,18.547,-13.541
257.81,15.243,-13.371
269.53,16.846,-15.514
281.25,17.973,-18.359
292.97,15.369,-18.138
304.69,16.425,-16.892
316.41,14.293,-15.48
328.13,16.996,-15.853
339.84,16.474,-14.512
351.56,14.78,-13.623
363.28,14.743,-14.924
375,15.43,-13.494
386.72,16.998,-15.83
398.44,17.56,-13.119
410.16,15.336,-12.408
421.88,15.861,-13.048
433.59,14.837,-13.555
445.31,16.294,-10.387
457.03,15.018,-10.449
468.75,18.492,-10.887
480.47,18.588,-9.9728
492.19,14.717,-10.002
503.91,14.433,-9.4463
515.63,18.107,-9.7721
527.34,21.185,-11.207
539.06,18.617,-11.34
550.78,17.562,-9.6884
562.5,16.603,-11.875
574.22,19.501,-8.558
585.94,20.41,-7.5139
597.66,19.133,-11.089
609.38,23.609,-12.806
621.09,27.402,-12.526
632.81,24.2,-7.6788
644.53,19.586,-6.7117
656.25,18.464,-9.8783
667.97,22.416,-11.416
679.69,22.51,-9.5682
691.41,17.9,-8.9584
703.13,16.618,-9.9249
714.84,15.371,-11.74
726.56,14.073,-9.8894
738.28,12.859,-9.1342
750,14.649,-9.1829
761.72,14.466,-10.812
773.44,14.273,-13.332
785.16,15.139,-10.845
796.88,12.317,-7.7768
808.59,15.315,-9.4779
820.31,17.746,-11.15
832.03,17.934,-10.223
843.75,18.18,-8.4524
855.47,18.663,-6.7471
867.19,18.838,-10.614
878.91,17.027,-9.8587
890.63,16.283,-10.774
902.34,15.969,-10.807
914.06,18.253,-9.925
925.78,18.665,-9.245
937.5,16.771,-7.7595
949.22,17.431,-8.089
960.94,17.908,-8.0272
972.66,16.766,-8.159
984.38,26.541,-10.098
996.09,37.725,-9.5165
1007.8,36.023,-7.9332
1019.5,21.655,-7.084
1031.3,14.999,-7.4614
1043,15.186,-6.6006
1054.7,13.055,-7.722
1066.4,15.735,-5.5802
1078.1,18.097,-7.6539
1089.8,18.097,-10.298
1101.6,15.504,-8.3307
1113.3,13.987,-6.4742
1125,19.046,-7.4792
1136.7,18.516,-7.7627
1148.4,15.891,-9.1536
1160.2,15.11,-7.6545
1171.9,15.587,-6.4062
1183.6,19.34,-5.2864
1195.3,19.306,-6.5647
1207,16.786,-6.961
1218.8,18.523,-7.9398
1230.5,20.775,-10.814
1242.2,19.71,-10.457
1253.9,18.672,-8.6139
1265.6,16.925,-10.952
1277.3,15.921,-8.8811
1289.1,15.906,-7.4274
1300.8,15.634,-6.7485
1312.5,15.539,-7.8188
1324.2,15.627,-8.9244
1335.9,13.826,-8.2092
1347.7,12.852,-9.4117
1359.4,12.759,-11.04
1371.1,10.984,-6.892
1382.8,14.041,-5.5335
1394.5,17.801,-9.3494
1406.3,17.676,-8.3032
1418,19.385,-7.9399
1429.7,14.768,-5.4697
1441.4,10.764,-6.3059
1453.1,16.748,-6.8994
1464.8,18.47,-7.2234
1476.6,16.663,-7.5851
1488.3,14.544,-6.8898
1500,14.294,-7.1897
1511.7,11.787,-9.6009
1523.4,15.234,-8.9877
1535.2,13.782,-7.9564
1546.9,12.349,-7.4606
1558.6,14.84,-8.9948
1570.3,15.555,-8.9617
1582,17.005,-6.5597
1593.8,16.684,-6.595
1605.5,17.502,-7.0042
1617.2,18.107,-5.1479
1628.9,15.937,-7.465
1640.6,11.881,-8.7868
1652.3,11.109,-9.0231
1664.1,16.339,-10.291
1675.8,19.305,-8.9717
1687.5,19.153,-7.5749
1699.2,17.102,-8.079
1710.9,15.382,-6.1208
1722.7,17.213,-4.2188
1734.4,16.489,-6.1954
1746.1,13.489,-8.3743
1757.8,12.067,-8.2878
1769.5,13.948,-9.4877
1781.3,15.675,-7.0136
1793,17.594,-6.775
1804.7,17.653,-6.2449
1816.4,18.077,-8.8116
1828.1,15.35,-8.2105
1839.8,16.838,-8.6669
1851.6,15.007,-11.27
1863.3,13.544,-10.198
1875,15.229,-5.8805
1886.7,15.629,-5.7323
1898.4,17.01,-6.2884
1910.2,14.471,-6.1239
1921.9,13.444,-7.8315
1933.6,10.666,-9.2262
1945.3,12.744,-8.0617
1957,11.929,-5.7698
1968.8,12.151,-6.4758
1980.5,13.597,-8.1442
1992.2,15.86,-9.119
2003.9,15.97,-6.0738
2015.6,12.289,-7.487
2027.3,11.549,-8.208
2039.1,11.69,-8.2699
2050.8,13.505,-5.8723
2062.5,13.082,-4.152
2074.2,13.491,-6.8078
2085.9,12.38,-13.093
2097.7,8.9236,-7.6746
2109.4,8.5839,-5.5355
2121.1,11.07,-5.243
2132.8,12.784,-5.2598
2144.5,13.002,-5.1389
2156.3,11.294,-7.4807
2168,10.163,-5.3169
2179.7,9.9335,-3.758
2191.4,12.964,-6.6174
2203.1,16.402,-5.9604
2214.8,14.929,-8.6942
2226.6,12.087,-9.2698
2238.3,8.8423,-7.9736
2250,11.31,-6.1188
2261.7,13.1,-5.6753
2273.4,10.768,-5.1911
2285.2,9.9817,-6.6261
2296.9,14.13,-8.8602
2308.6,14.681,-8.3379
2320.3,14.189,-8.0133
2332,13.035,-8.2655
2343.8,10.166,-6.4335
2355.5,12.695,-6.3154
2367.2,13.981,-6.9912
2378.9,9.9509,-7.6705
2390.6,11.501,-7.1095
2402.3,13.363,-7.1771
2414.1,11.838,-8.4645
2425.8,9.0341,-8.9154
2437.5,8.822,-6.8666
2449.2,10.218,-8.8689
2460.9,9.3026,-6.6225
2472.7,9.7022,-7.4799
2484.4,13.888,-8.4872
2496.1,14.539,-7.1363
2507.8,12.077,-8.4924
2519.5,14.596,-6.7744
2531.3,15.05,-7.5378
2543,8.7139,-4.7925
2554.7,11.535,-3.6652
2566.4,11.911,-8.6324
2578.1,10.597,-6.9214
2589.8,12.115,-7.2456
2601.6,12.124,-6.288
2613.3,10.17,-6.4799
2625,9.3565,-5.0259
2636.7,9.9428,-7.0155
2648.4,15.069,-9.3726
2660.2,14.627,-8.3565
2671.9,11.347,-7.5127
2683.6,12.155,-8.5504
2695.3,10.503,-6.0988
2707,8.722,-7.1581
2718.8,8.9045,-7.9659
2730.5,14.304,-7.3918
2742.2,14.518,-6.0345
2753.9,12.062,-5.298
2765.6,10.72,-4.0069
2777.3,9.585,-4.7965
2789.1,8.0145,-6.801
2800.8,10.511,-8.7414
2812.5,12.021,-9.3123
2824.2,10.872,-4.8618
2835.9,7.5132,-3.9408
2847.7,9.8873,-7.3295
2859.4,9.6346,-7.4075
2871.1,7.6163,-8.5813
2882.8,5.9342,-6.0202
2894.5,6.5105,-3.9654
2906.3,9.861,-8.2502
2918,10.31,-11.724
2929.7,7.7123,-9.723
2941.4,13.54,-6.9191
2953.1,13.81,-6.7375
2964.8,7.8147,-8.9779
2976.6,10.62,-8.4177
2988.3,10.515,-6.1888
3000,10.599,-7.0736
3011.7,10.639,-6.1507
3023.4,13.043,-6.8332
3035.2,12.84,-6.7401
3046.9,9.9326,-6.2835
3058.6,7.1686,-6.2444
3070.3,9.0987,-8
3082,9.1522,-6.9406
3093.8,10.522,-4.9699
3105.5,10.86,-7.2561
3117.2,9.0047,-9.4256
3128.9,11.763,-8.6495
3140.6,8.9352,-9.711
3152.3,10.778,-7.5331
3164.1,12.465,-6.3645
3175.8,10.174,-6.9692
3187.5,9.7885,-7.0502
3199.2,9.7359,-9.1037
3210.9,8.2708,-10.489
3222.7,7.9366,-10.241
3234.4,7.1808,-9.0272
3246.1,11.346,-7.0545
3257.8,13.165,-6.0607
3269.5,13.225,-6.3805
3281.3,12.323,-6.267
3293,10.774,-6.3259
3304.7,9.4823,-6.3271
3316.4,11.272,-8.4416
3328.1,9.8043,-11.214
3339.8,8.6915,-8.3999
3351.6,7.463,-7.4504
3363.3,8.9168,-7.1688
3375,11.044,-8.2011
3386.7,11.168,-6.3333
3398.4,8.9897,-5.732
3410.2,8.934,-8.9052
3421.9,8.1615,-7.3788
3433.6,9.3442,-6.2353
3445.3,10.071,-5.2632
3457,12.924,-6.2259
3468.8,12.708,-7.1959
3480.5,10.296,-6.7968
3492.2,9.9436,-6.1351
3503.9,10.926,-7.4275
3515.6,11.086,-5.9003
3527.3,7.0047,-7.2565
3539.1,10.091,-8.4274
3550.8,10.644,-8.5711
3562.5,10.735,-10.259
3574.2,10.507,-7.6749
3585.9,6.7879,-5.9499
3597.7,11.184,-8.4958
3609.4,14.067,-7.4108
3621.1,12.605,-8.1541
3632.8,10.813,-7.3558
3644.5,7.1831,-7.8003
3656.3,7.2425,-7.6604
3668,8.5508,-8.1304
3679.7,7.0208,-8.1585
3691.4,5.8938,-7.0621
3703.1,7.7809,-6.9995
3714.8,8.1249,-7.1395
3726.6,8.8826,-9.0364
3738.3,7.541,-8.0132
3750,5.4507,-8.5568
3761.7,7.4829,-4.2121
3773.4,9.1245,-3.2173
3785.2,9.0208,-5.3155
3796.9,9.1975,-8.9526
3808.6,10.773,-10.501
3820.3,9.9209,-8.0298
3832,8.0719,-6.4643
3843.8,7.7818,-7.4104
3855.5,7.8495,-7.71
3867.2,8.4947,-8.9203
3878.9,9.8739,-8.1032
3890.6,11.184,-8.1041
3902.3,8.582,-10.868
3914.1,7.5118,-7.0401
3925.8,9.0634,-9.0864
3937.5,5.8789,-7.2393
3949.2,5.7719,-6.4354
3960.9,7.1172,-7.0758
3972.7,7.1153,-8.9655
3984.4,6.4168,-8.7849
3996.1,5.1677,-7.8568
4007.8,6.1475,-8.3324
4019.5,8.1798,-8.3354
4031.3,10.142,-7.7135
4043,9.7945,-5.1878
4054.7,6.0005,-5.7553
4066.4,4.2229,-5.6454
4078.1,4.3789,-7.2813
4089.8,8.4984,-8.0303
4101.6,12.498,-6.5958
4113.3,11.369,-6.3887
4125,8.6879,-6.194
4136.7,10.059,-6.3553
4148.4,10.222,-7.9095
4160.2,9.7814,-8.541
4171.9,7.5898,-10.517
4183.6,8.6774,-7.7166
4195.3,5.765,-7.1125
4207,10.832,-8.1367
4218.8,5.1324,-10.178
4230.5,8.6206,-6.576
4242.2,9.9183,-3.4674
4253.9,7.6046,-3.3969
4265.6,7.9379,-7.5857
4277.3,7.9558,-9.1242
4289.1,7.8126,-11.097
4300.8,10.056,-11.001
4312.5,13.279,-10.194
4324.2,11.478,-10.6
4335.9,8.0093,-10.242
4347.7,8.4845,-10.173
4359.4,8.0866,-8.9272
4371.1,9.3715,-9.4305
4382.8,10.955,-8.2328
4394.5,7.286,-6.6223
4406.3,7.6727,-8.0647
4418,8.3651,-9.5817
4429.7,8.3675,-10.34
4441.4,7.4371,-5.6825
4453.1,7.3247,-5.5361
4464.8,6.6517,-7.4487
4476.6,8.4195,-11.107
4488.3,9.769,-8.9315
4500,9.4184,-8.5997
4511.7,10.094,-8.4147
4523.4,10.511,-5.8716
4535.2,10.03,-7.5382
4546.9,5.2779,-8.0629
4558.6,4.1921,-7.7908
4570.3,5.6671,-6.7217
4582,4.5134,-6.609
4593.8,4.8822,-6.2704
4605.5,7.3269,-9.0468
4617.2,8.2878,-10.133
4628.9,9.4375,-8.0514
4640.6,6.4501,-5.2654
4652.3,8.7431,-4.0454
4664.1,9.8912,-6.2889
4675.8,9.1284,-8.8992
4687.5,7.6597,-6.7572
4699.2,6.6868,-10.026
4710.9,4.7793,-9.6182
4722.7,9.5434,-7.4204
4734.4,9.6484,-7.3982
4746.1,6.6346,-8.5094
4757.8,6.8701,-6.926
4769.5,9.53,-5.6932
4781.3,8.7807,-6.2899
4793,8.4635,-8.5632
4804.7,6.7704,-11.884
4816.4,6.7611,-9.0822
4828.1,8.1246,-6.8243
4839.8,8.922,-9.6169
4851.6,7.2523,-6.3466
4863.3,8.3333,-7.6586
4875,8.0496,-9.6409
4886.7,7.1216,-9.8966
4898.4,6.522,-8.0302
4910.2,7.9001,-7.558
4921.9,8.7258,-7.519
4933.6,7.1517,-7.3937
4945.3,7.0003,-7.9992
4957,7.7743,-8.1814
4968.8,4.816,-7.3388
4980.5,4.3055,-6.5466
4992.2,5.5862,-7.1682
5003.9,5.8716,-8.7992
5015.6,5.2903,-10.95
5027.3,7.2114,-6.211
5039.1,8.9781,-5.0275
5050.8,7.6462,-8.5305
5062.5,4.0044,-9.2497
5074.2,5.4973,-9.8343
5085.9,6.1788,-8.4331
5097.7,7.9871,-6.7689
5109.4,5.8221,-5.9704
5121.1,5.587,-5.0778
5132.8,6.7587,-7.7431
5144.5,7.0424,-10.972
5156.3,6.5407,-9.3795
5168,7.3672,-7.7552
5179.7,5.7522,-7.8308
5191.4,4.8911,-5.028
5203.1,4.152,-6.8386
5214.8,4.1901,-8.0809
5226.6,4.81,-9.1668
5238.3,6.9075,-6.6982
5250,7.4371,-4.5117
5261.7,6.583,-2.9888
5273.4,5.6227,-5.6697
5285.2,8.1449,-8.2807
5296.9,9.7676,-9.2183
5308.6,9.5761,-6.4829
5320.3,8.7726,-5.78
5332,8.7039,-9.6383
5343.8,6.4243,-9.3952
5355.5,4.6515,-9.0518
5367.2,5.522,-6.8274
5378.9,7.4045,-7.317
5390.6,4.7655,-8.3464
5402.3,9.6269,-7.0391
5414.1,7.4569,-7.144
5425.8,6.5184,-6.606
5437.5,5.6208,-6.8904
5449.2,6.2157,-10.787
5460.9,5.4219,-7.9565
5472.7,4.8136,-7.5448
5484.4,6.936,-10.13
5496.1,7.4639,-10.241
5507.8,8.8775,-7.6859
5519.5,8.7819,-7.1069
5531.3,3.1721,-7.0231
5543,1.21,-10.17
5554.7,5.4595,-7.9466
5566.4,7.722,-5.863
5578.1,7.4901,-7.0788
5589.8,6.8251,-7.7371
5601.6,7.0284,-8.3565
5613.3,7.823,-9.1295
5625,7.4592,-11.231
5636.7,3.9539,-11.453
5648.4,5.5629,-9.2291
5660.2,4.4439,-7.0658
5671.9,2.6238,-7.6638
5683.6,1.5545,-6.3968
5695.3,4.4731,-4.5214
5707,5.9075,-7.6032
5718.8,5.33,-9.4589
5730.5,6.5325,-9.8579
5742.2,4.7524,-8.1709
5753.9,6.9915,-8.5806
5765.6,7.698,-11.059
5777.3,5.9761,-10.088
5789.1,5.6541,-8.0269
5800.8,6.2798,-7.9661
5812.5,7.0212,-10.773
5824.2,8.3753,-8.8364
5835.9,7.3698,-8.5366
5847.7,5.143,-9.0363
5859.4,3.8657,-12.476
5871.1,1.7227,-11.661
5882.8,5.1058,-8.344
5894.5,9.1295,-9.0202
5906.3,8.2966,-10.007
5918,7.4846,-6.2949
5929.7,5.802,-6.2365
5941.4,4.1177,-8.3322
5953.1,2.5091,-11.506
5964.8,4.7606,-8.0977
5976.6,5.9001,-9.8808
5988.3,6.1653,-7.0808
6000,6.2624,-7.3694
6011.7,4.6319,-10.555
6023.4,1.9127,-11.011
6035.2,6.7785,-9.7238
6046.9,7.8447,-7.5426
6058.6,5.2102,-9.5108
6070.3,6.1886,-12.023
6082,3.152,-11.468
6093.8,4.1607,-9.2088
6105.5,5.5204,-9.1255
6117.2,6.6128,-6.3877
6128.9,6.0057,-8.3215
6140.6,4.3119,-7.596
6152.3,4.2736,-7.4655
6164.1,4.9992,-11.265
6175.8,6.5779,-10.05
6187.5,6.7137,-7.5095
6199.2,6.0157,-7.4134
6210.9,3.7423,-10.269
6222.7,5.1896,-9.7917
6234.4,6.4787,-9.0341
6246.1,4.4382,-7.4158
6257.8,6.4867,-6.8726
6269.5,3.1166,-9.0614
6281.3,2.0066,-8.0771
6293,4.9782,-6.3719
6304.7,5.4741,-6.9245
6316.4,3.52,-10.7
6328.1,4.1178,-10.219
6339.8,4.4671,-7.8446
6351.6,3.9134,-9.0961
6363.3,6.3789,-9.5534
6375,5.4318,-10.577
6386.7,6.181,-9.5749
6398.4,5.2409,-8.5072
6410.2,4.1528,-8.7659
6421.9,6.4,-9.8672
6433.6,6.3184,-8.3087
6445.3,3.2369,-7.9512
6457,5.239,-7.7662
6468.8,6.9766,-7.7983
6480.5,6.0723,-8.9791
6492.2,7.0907,-9.5264
6503.9,6.9695,-10.838
6515.6,3.1691,-12.392
6527.3,2.5115,-10.681
6539.1,5.9128,-8.9137
6550.8,5.7037,-8.0364
6562.5,4.0809,-10.37
6574.2,2.374,-9.9543
6585.9,0.87343,-7.4319
6597.7,-0.4078,-6.7708
6609.4,2.8661,-8.0309
6621.1,6.3928,-7.5755
6632.8,6.1953,-9.5246
6644.5,3.53,-9.3038
6656.3,4.1616,-7.3778
6668,5.0676,-10.492
6679.7,3.3108,-10.924
6691.4,0.52449,-6.6344
6703.1,1.5946,-6.9948
6714.8,3.1939,-8.8966
6726.6,3.2563,-9.0012
6738.3,4.0887,-9.3121
6750,3.2403,-7.2862
6761.7,3.4447,-7.2659
6773.4,5.0624,-7.7242
6785.2,6.0598,-8.833
6796.9,2.5012,-10.611
6808.6,1.5106,-11.223
6820.3,6.0585,-8.7795
6832,6.3064,-6.7848
6843.8,6.9218,-9.6499
6855.5,6.9744,-12.524
6867.2,6.7055,-9.9696
6878.9,4.6795,-8.7352
6890.6,5.8534,-11.217
6902.3,5.1755,-5.6948
6914.1,1.181,-6.8256
6925.8,4.1029,-9.2458
6937.5,2.2236,-9.4512
6949.2,2.3835,-7.7491
6960.9,2.01,-7.4823
6972.7,4.4451,-9.5146
6984.4,4.667,-9.8876
6996.1,4.7852,-7.2283
7007.8,3.6696,-9.6227
7019.5,3.5282,-12.392
7031.3,2.4072,-11.707
7043,4.8099,-10.921
7054.7,3.7542,-8.9621
7066.4,2.8342,-9.2143
7078.1,4.7354,-10.655
7089.8,3.4144,-8.4558
7101.6,4.3769,-8.2096
7113.3,4.1889,-9.0787
7125,0.88966,-8.0405
7136.7,3.6003,-9.7935
7148.4,3.8167,-9.7689
7160.2,3.7537,-8.0002
7171.9,0.35476,-9.2591
7183.6,-1.4613,-6.6135
7195.3,0.15498,-7.8434
7207,1.1219,-9.0797
7218.8,1.5014,-7.3557
7230.5,1.7115,-8.98
7242.2,4.5596,-8.773
7253.9,4.7454,-10.808
7265.6,2.8058,-9.0396
7277.3,4.4889,-9.4737
7289.1,4.478,-9.1261
7300.8,0.95015,-13.342
7312.5,2.8685,-7.3345
7324.2,3.8427,-7.7678
7335.9,5.0857,-8.7479
7347.7,6.1879,-10.318
7359.4,4.4902,-10.943
7371.1,1.6148,-7.9772
7382.8,2.5026,-8.1245
7394.5,3.9967,-9.5041
7406.3,5.978,-8.6565
7418,4.9659,-6.3468
7429.7,3.5947,-7.3031
7441.4,2.1457,-9.9451
7453.1,3.3527,-9.7818
7464.8,2.2027,-6.7583
7476.6,3.7041,-6.1676
7488.3,2.6926,-9.2478
7500,0.883,-13.614
7511.7,2.8864,-12.644
7523.4,4.8228,-10.53
7535.2,3.825,-9.3354
7546.9,3.6615,-7.8278
7558.6,3.4906,-9.149
7570.3,3.3761,-9.0054
7582,2.1906,-8.5158
7593.8,2.2816,-10.875
7605.5,-0.22939,-10.009
7617.2,0.82744,-9.703
7628.9,2.4526,-12.214
7640.6,2.5906,-13.332
7652.3,1.7986,-11.768
7664.1,1.0876,-9.9149
7675.8,2.8826,-8.8546
7687.5,3.373,-7.6128
7699.2,2.7152,-6.5091
7710.9,1.4527,-6.9817
7722.7,1.0811,-8.3548
7734.4,1.8131,-9.2996
7746.1,3.6042,-9.4329
7757.8,1.047,-12.477
7769.5,2.224,-9.7693
7781.3,3.9645,-9.2836
7793,2.017,-10.276
7804.7,5.714,-11.111
7816.4,2.6035,-11.019
7828.1,0.75376,-11.015
7839.8,-0.90908,-12.165
7851.6,-0.50593,-10.91
7863.3,0.53058,-8.6875
7875,3.0228,-9.6495
7886.7,3.9461,-10.423
7898.4,1.9615,-11.942
7910.2,0.57624,-10.961
7921.9,0.92411,-9.7487
7933.6,0.28612,-8.9784
7945.3,4.1709,-9.1511
7957,4.0804,-10.724
7968.8,3.5154,-8.9338
7980.5,2.067,-9.902
7992.2,2.3001,-12.893
8003.9,3.4427,-8.8984
8015.6,2.6177,-8.0656
8027.3,2.4823,-6.8121
8039.1,4.2698,-5.0104
8050.8,1.9424,-6.6362
8062.5,3.1992,-7.8411
8074.2,3.6048,-9.2719
8085.9,5.1041,-9.1317
8097.7,3.7769,-8.676
8109.4,-0.72449,-11.243
8121.1,-0.29366,-12.248
8132.8,1.0619,-10.558
8144.5,2.3941,-11.701
8156.3,1.9099,-9.9089
8168,4.1493,-9.6281
8179.7,4.6135,-10.359
8191.4,2.94,-13.469
8203.1,0.69512,-9.48
8214.8,1.2182,-6.1156
8226.6,4.1574,-5.3984
8238.3,4.1535,-8.2639
8250,1.7535,-7.1965
8261.7,0.78538,-7.3292
8273.4,2.6755,-10.78
8285.2,3.4079,-10.75
8296.9,-1.0593,-9.5587
8308.6,1.9073,-10.474
8320.3,0.91933,-8.8778
8332,1.5759,-11.461
8343.8,0.0001486,-8.8905
8355.5,-0.24272,-7.143
8367.2,2.657,-6.6834
8378.9,1.5356,-11.979
8390.6,-0.14167,-10.856
8402.3,0.58101,-8.1443
8414.1,-0.26924,-8.4087
8425.8,-0.62832,-12.172
8437.5,0.054224,-6.5892
8449.2,1.3788,-9.9348
8460.9,0.036882,-11.017
8472.7,-0.37056,-12.608
8484.4,2.0138,-14.679
8496.1,0.018579,-12.431
8507.8,1.9515,-12.219
8519.5,0.49431,-10.027
8531.3,1.0006,-8.5419
8543,0.12609,-7.9674
8554.7,3.4346,-9.1273
8566.4,3.1669,-12.83
8578.1,2.8514,-11.065
8589.8,2.6136,-9.7628
8601.6,3.2733,-9.9313
8613.3,2.8238,-7.7385
8625,2.6119,-9.4641
8636.7,3.656,-10.173
8648.4,1.0133,-11.244
8660.2,2.2279,-7.2675
8671.9,2.9568,-7.8028
8683.6,1.4377,-13.006
8695.3,-2.793,-11.588
8707,-1.6979,-12.417
8718.8,0.045,-11.472
8730.5,-1.084,-9.6273
8742.2,-3.2188,-12.535
8753.9,0.6976,-10.956
8765.6,-0.10293,-14.075
8777.3,-2.5206,-10.495
8789.1,-2.9098,-12.062
8800.8,-1.2925,-12.996
8812.5,0.53073,-11.706
8824.2,2.0977,-11.424
8835.9,1.8783,-11.385
8847.7,4.8049,-9.8392
8859.4,3.1766,-9.7777
8871.1,2.222,-12.503
8882.8,0.83864,-9.6037
8894.5,0.98999,-8.9716
8906.3,0.57933,-12.772
8918,-0.33228,-11.739
8929.7,-2.0772,-10.356
8941.4,0.11046,-9.233
8953.1,2.0962,-7.873
8964.8,3.6352,-7.6901
8976.6,4.6656,-8.1194
8988.3,1.9891,-9.2651
9000,2.0055,-11.256
9011.7,3.7883,-11.167
9023.4,-2.3859,-8.9176
9035.2,0.79027,-10.722
9046.9,1.9044,-9.6001
9058.6,-0.35673,-9.6942
9070.3,1.6957,-11.118
9082,2.3985,-11.599
9093.8,3.8739,-8.5122
9105.5,1.6156,-10.475
9117.2,0.56583,-13.878
9128.9,2.2219,-13.699
9140.6,1.3681,-10.238
9152.3,4.3253,-10.361
9164.1,2.1188,-9.0723
9175.8,0.65187,-7.5076
9187.5,-0.1894,-9.3498
9199.2,-0.55003,-10.973
9210.9,0.20581,-11.321
9222.7,1.4838,-11.551
9234.4,1.6539,-7.5865
9246.1,1.0847,-7.4962
9257.8,0.31683,-9.9723
9269.5,-2.743,-9.9118
9281.3,1.1007,-10.693
9293,2.9246,-9.8974
9304.7,2.3807,-11.77
9316.4,2.2305,-9.9109
9328.1,1.6957,-8.7048
9339.8,2.3951,-10.471
9351.6,0.15713,-11.836
9363.3,0.16411,-11.055
9375,0.55312,-12.113
9386.7,0.024681,-13.771
9398.4,-0.095191,-9.4371
9410.2,1.5924,-9.1928
9421.9,-1.1044,-11.373
9433.6,0.95601,-12.175
9445.3,1.1128,-10.564
9457,-3.6857,-8.9347
9468.8,-1.0274,-6.7856
9480.5,-3.1941,-8.5985
9492.2,-3.111,-10.521
9503.9,-3.3286,-8.9811
9515.6,-2.1276,-8.6057
9527.3,-4.0095,-10.932
9539.1,0.64425,-12.48
9550.8,-2.0804,-13.882
9562.5,1.3629,-14.343
9574.2,1.5111,-12.691
9585.9,-1.9448,-11.171
9597.7,1.1993,-10.929
9609.4,-0.57887,-11.347
9621.1,-2.0877,-11.887
9632.8,-0.32612,-12.106
9644.5,0.80164,-9.8147
9656.3,1.1625,-9.7515
9668,0.38919,-11.858
9679.7,2.4048,-10.67
9691.4,0.14701,-9.8618
9703.1,-2.0639,-9.9725
9714.8,-0.86128,-11.722
9726.6,0.37617,-11.199
9738.3,-0.8658,-12.007
9750,0.55066,-14.462
9761.7,-0.93977,-11.694
9773.4,-1.6799,-8.5392
9785.2,-0.20169,-9.3339
9796.9,-0.56928,-10.214
9808.6,-0.31781,-8.5512
9820.3,0.61541,-11.755
9832,-1.3007,-14.434
9843.8,-1.031,-13.149
9855.5,0.36352,-12.051
9867.2,-1.3136,-11.697
9878.9,-0.55783,-13.974
9890.6,0.93144,-11.794
9902.3,0.81139,-10.412
9914.1,2.0517,-9.6901
9925.8,-0.16639,-11.184
9937.5,-1.1819,-11.361
9949.2,1.0791,-9.7246
9960.9,-0.66007,-10.125
9972.7,-0.87951,-12.489
9984.4,0.19561,-9.7618
9996.1,-2.5919,-10.808
10008,1.2315,-8.952
10020,0.56606,-8.9777
10031,0.55315,-13.371
10043,-1.0914,-12.13
10055,-0.4564,-12.755
10066,-0.027291,-13.432
10078,0.57961,-10.688
10090,-0.82717,-7.5257
10102,-0.45807,-10.816
10113,-1.1553,-11.587
10125,-5.246,-8.0084
10137,-3.6755,-5.7708
10148,-0.9757,-8.5362
10160,1.2424,-12.855
10172,1.1994,-13.506
10184,-2.1934,-9.9615
10195,-0.19141,-10.645
10207,0.39083,-11.776
10219,-0.47403,-10.496
10230,-0.42299,-10.219
10242,0.14592,-11.579
10254,-2.0413,-10.839
10266,-1.3248,-9.3958
10277,-0.46503,-10.95
10289,-1.4641,-14.627
10301,-0.31234,-12.904
10313,1.0404,-13.931
10324,-2.6813,-11.974
10336,-1.5375,-14.942
10348,-0.90576,-13.991
10359,-0.18046,-12.955
10371,-0.70255,-12.847
10383,-0.024902,-10.018
10395,2.4592,-10.199
10406,2.6051,-12.314
10418,-0.012192,-11.49
10430,1.5224,-11.852
10441,1.9963,-12.587
10453,0.029013,-16.33
10465,-1.0652,-10.178
10477,0.56731,-8.4631
10488,0.28263,-13.679
10500,0.15544,-11.315
10512,1.1468,-10.076
10523,1.012,-11.266
10535,-3.7065,-12.196
10547,-3.014,-8.5499
10559,-0.92334,-10.267
10570,-2.0472,-12.341
10582,-1.9607,-10.642
10594,-0.5053,-11.717
10605,-0.30928,-10.626
10617,-2.1287,-14.109
10629,-2.2359,-13.196
10641,1.4079,-10.461
10652,2.585,-7.218
10664,0.048723,-8.8301
10676,-2.4509,-16.131
10688,-1.8657,-13.158
10699,-0.8383,-12.234
10711,0.18988,-9.3631
10723,0.67896,-10.73
10734,-2.0559,-12.388
10746,-3.0361,-10.804
10758,-2.6444,-10.997
10770,1.4887,-13.257
10781,2.591,-12.171
10793,1.6688,-8.0474
10805,1.3786,-9.8113
10816,0.84625,-9.284
10828,0.3983,-8.479
10840,0.80404,-10.525
10852,-2.0434,-10.985
10863,-3.26,-10.968
10875,-1.0742,-9.2661
10887,-0.52709,-10.613
10898,-4.5341,-14.107
10910,-1.9117,-12.77
10922,1.4448,-14.261
10934,1.0626,-14.191
10945,-2.037,-12.585
10957,-1.9339,-12.406
10969,-2.2931,-10.719
10980,-0.82667,-8.674
10992,-1.6946,-8.2209
11004,-2.0015,-10.283
11016,-3.9417,-14.221
11027,-2.1413,-15.923
11039,-0.98819,-13.06
11051,-4.0464,-9.9718
11063,-1.5463,-12.927
11074,-0.979,-15.354
11086,-1.1688,-12.667
11098,-1.3259,-10.224
11109,2.7514,-9.1391
11121,1.4373,-11.045
11133,0.88846,-12.546
11145,0.030546,-13.101
11156,-1.2107,-15.465
11168,0.5887,-13.995
11180,0.75268,-13.001
11191,0.34353,-15.357
11203,-1.4381,-13.65
11215,-5.0261,-13.892
11227,-5.3477,-12.685
11238,-3.1676,-8.9742
11250,-1.9723,-9.1431
11262,-0.94802,-11.488
11273,-3.883,-12.192
11285,-1.937,-12.694
11297,-1.4135,-13.344
11309,-3.7105,-12.837
11320,-1.2222,-10.897
11332,-3.0073,-11.645
11344,-2.4946,-11.936
11355,-2.8259,-11.618
11367,-4.9576,-10.771
11379,-2.8531,-12.161
11391,-0.27598,-10.638
11402,-0.74736,-11.252
11414,-2.8118,-10.69
11426,-0.29573,-10.442
11438,-0.39768,-10.584
11449,-1.4736,-9.9033
11461,-0.47233,-9.678
11473,-2.558,-9.8978
11484,-1.7765,-10.825
11496,-1.4464,-13.296
11508,-3.4168,-11.543
11520,-4.3939,-11.078
11531,-1.9992,-12.351
11543,-1.8587,-10.744
11555,-3.4789,-11.992
11566,0.2811,-12.094
11578,0.0952,-11.703
11590,-0.33585,-12.196
11602,-2.2145,-10.796
11613,-1.9891,-10.666
11625,-2.6379,-13.625
11637,-4.6094,-14.611
11648,-5.5141,-15.159
11660,-5.4535,-13.973
11672,-6.2213,-12.519
11684,-3.7361,-13.068
11695,-2.6656,-12.081
11707,-0.82462,-9.8372
11719,0.51115,-11.67
11730,-0.58058,-11.262
11742,0.41043,-8.8321
11754,-1.2607,-10.689
11766,-2.9199,-11.795
11777,-2.9204,-13.515
11789,-3.6416,-13.088
11801,-2.1507,-13.545
11813,-2.7302,-14.062
11824,-5.0972,-14.857
11836,-2.8229,-14.209
11848,-2.8877,-14.029
11859,-1.3442,-14.159
11871,-0.84055,-13.25
11883,-1.0611,-11.636
11895,-3.3612,-12.446
11906,-2.8979,-12.92
11918,-0.50935,-11.08
11930,0.7909,-10.476
11941,-2.8706,-10.412
11953,0.091404,-14.401
11965,-0.076909,-11.565
11977,-0.8863,-10.18
11988,-3.8031,-10.013
12000,-8.0587,-10.079
12012,-3.7723,-13.183
12023,-1.1797,-11.383
12035,-0.77801,-11.37
12047,-0.92831,-10.823
12059,0.5784,-9.476
12070,-0.044521,-8.4079
12082,-1.4564,-11.52
12094,-0.80973,-14.288
12105,0.75282,-13.837
12117,-2.6119,-12.973
12129,-1.894,-12.656
12141,-0.58677,-11.041
12152,-1.961,-11.256
12164,-2.0229,-14.26
12176,0.10216,-12.198
12188,-2.1316,-12.556
12199,-4.0901,-13.591
12211,-3.3476,-13.345
12223,-3.3589,-14.015
12234,-4.2985,-13.971
12246,-4.9823,-12.36
12258,-3.034,-11.003
12270,0.16558,-10.784
12281,0.00030785,-13.387
12293,-3.7449,-12.412
12305,-5.9584,-10.687
12316,-4.0225,-13.807
12328,0.28556,-13.908
12340,-0.24833,-12.916
12352,-1.9537,-11.651
12363,-1.2813,-12.488
12375,-4.8043,-16.876
12387,-4.7458,-17.784
12398,-2.7766,-16.367
12410,-1.8951,-14.511
12422,-0.62563,-15.993
12434,-0.8873,-12.31
12445,0.73495,-9.9261
12457,1.1116,-11.589
12469,-2.0934,-13.524
12480,-4.1668,-14.013
12492,-5.1251,-16.799
12504,-4.0823,-14.814
12516,-1.0219,-15.746
12527,-0.32193,-12.68
12539,-1.8465,-12.502
12551,-5.4269,-16.675
12563,-6.0025,-13.322
12574,-5.7447,-10.144
12586,-2.221,-13.28
12598,-1.7613,-13.425
12609,-2.3762,-12.421
12621,-2.4424,-11.422
12633,-2.1679,-13.354
12645,-3.2164,-13.506
12656,-3.2923,-11.064
12668,0.29317,-11.03
12680,-4.0829,-13.65
12691,-4.8018,-13.056
12703,-3.8028,-15.694
12715,-3.6435,-14.763
12727,-1.9748,-12.214
12738,-1.788,-12.765
12750,-5.4366,-13.208
12762,-6.8193,-14.176
12773,-5.1686,-12.297
12785,-3.4811,-11.631
12797,-3.3814,-14.932
12809,-1.5468,-13.327
12820,-0.7808,-15.677
12832,-2.6887,-12.673
12844,-3.9309,-9.5732
12855,-5.1298,-10.73
12867,-4.2009,-10.264
12879,-2.5123,-11.811
12891,-4.3826,-13.193
12902,-5.5259,-13.723
12914,-4.5486,-12.585
12926,-2.8342,-15.713
12938,-0.72467,-17.454
12949,-6.4845,-16.094
12961,-0.31669,-16.888
12973,-3.8292,-14.531
12984,-3.6088,-14.46
12996,-3.8196,-13.874
13008,-4.1656,-12.088
13020,-3.6,-13.008
13031,-4.7172,-16.348
13043,-6.0957,-13.463
13055,-2.6818,-12.042
13066,-3.9437,-12.998
13078,-5.8788,-14.132
13090,-2.7335,-12.412
13102,-3.2748,-12.267
13113,-4.9296,-15.482
13125,-2.9351,-12.624
13137,-2.649,-14.635
13148,-4.6488,-16.066
13160,-0.95388,-15.18
13172,-1.3374,-15.747
13184,-0.95025,-17.716
13195,-3.6967,-14.099
13207,-2.5729,-12.868
13219,-5.2733,-12.326
13230,-4.2274,-13.087
13242,-2.5789,-11.559
13254,-4.918,-13.456
13266,-3.5756,-10.547
13277,-2.9502,-9.703
13289,-3.7269,-11.519
13301,-1.1374,-15.324
13313,-1.6919,-19.808
13324,-6.065,-15.543
13336,-5.5042,-13.798
13348,-3.1705,-12.169
13359,-1.808,-10.472
13371,-0.80209,-11.119
13383,-1.2938,-14.023
13395,-3.5846,-11.023
13406,-3.6399,-11.291
13418,-4.7906,-13.402
13430,-4.76,-12.764
13441,-5.9275,-15.594
13453,-2.1387,-15.979
13465,-4.2091,-16.901
13477,-4.7199,-14.245
13488,-6.3425,-12.162
13500,-4.1216,-12.074
13512,-6.1831,-12.899
13523,-2.2925,-13.674
13535,-0.13688,-14.805
13547,-1.7587,-15.347
13559,-1.6783,-13.191
13570,-3.1958,-12.631
13582,-4.3513,-13.22
13594,-4.7811,-9.8936
13605,-4.7639,-11.334
13617,-4.8159,-13.523
13629,-2.5031,-12.428
13641,-2.9163,-13.76
13652,-4.27,-12.168
13664,-4.0589,-10.339
13676,-3.6197,-12.083
13688,-3.6791,-11.805
13699,-6.0514,-13.166
13711,-4.6513,-13.341
13723,-4.8579,-16.573
13734,-5.4883,-15.315
13746,-3.8015,-13.467
13758,-4.2705,-12.59
13770,-4.5155,-13.257
13781,-5.0049,-15.383
13793,-8.1945,-15.416
13805,-3.1195,-14.843
13816,-3.0137,-13.298
13828,-2.8053,-13.419
13840,-1.9599,-14.399
13852,-3.6688,-18.161
13863,-6.8225,-16.074
13875,-7.9051,-20.647
13887,-5.6306,-16.291
13898,-6.1126,-13.32
13910,-5.1496,-15.168
13922,-2.6761,-15.18
13934,-3.1839,-14.024
13945,-3.3509,-16.263
13957,-1.8863,-15.547
13969,-3.4742,-17.769
13980,-5.515,-10.082
13992,-4.966,-9.669
14004,-4.6516,-14.308
14016,-4.6143,-19.292
14027,-5.7281,-15.67
14039,-3.9823,-13.428
14051,-2.6124,-13.611
14063,-4.4095,-13.418
14074,-4.9449,-12.317
14086,-3.9893,-12.488
14098,-3.3672,-12.787
14109,-3.4232,-14.367
14121,-5.246,-12.755
14133,-4.2684,-14.086
14145,-2.8804,-14.078
14156,-3.3307,-13.294
14168,-0.81065,-12.25
14180,-0.29309,-14.804
14191,-4.4902,-15.411
14203,-4.4474,-15.614
14215,-5.6354,-15.085
14227,-6.5144,-14.032
14238,-5.6456,-12.785
14250,-6.1823,-11.238
14262,-4.2628,-15.212
14273,-4.4985,-15.617
14285,-4.7243,-13.571
14297,-5.4572,-12.963
14309,-6.6972,-13.361
14320,-2.5169,-15.492
14332,-2.7847,-13.128
14344,-4.5596,-12.242
14355,-3.4875,-14.787
14367,-3.5281,-15.085
14379,-5.636,-12.459
14391,-3.4507,-12.792
14402,-4.1365,-16.148
14414,-4.3585,-12.355
14426,-5.9951,-10.16
14438,-5.2357,-13.068
14449,-4.5575,-15.026
14461,-4.6514,-13.261
14473,-4.1825,-14.702
14484,-7.7166,-13.724
14496,-8.0079,-13.296
14508,-6.4095,-13.622
14520,-6.1118,-15.422
14531,-7.1266,-14.995
14543,-6.3203,-15.635
14555,-6.9159,-18.469
14566,-8.4269,-14.761
14578,-5.89,-12.849
14590,-5.379,-12.421
14602,-5.5216,-13.989
14613,-6.1154,-15.846
14625,-5.7007,-14
14637,-7.4782,-13.25
14648,-7.9919,-11.633
14660,-4.7114,-11.237
14672,-4.5154,-12.523
14684,-6.9493,-14.798
14695,-7.3672,-16.495
14707,-9.1798,-17.025
14719,-4.8636,-15.18
14730,-3.3154,-16.243
14742,-4.307,-16.473
14754,-5.1715,-13.666
14766,-4.2948,-12.408
14777,-3.2773,-14.137
14789,-5.5908,-15.359
14801,-1.5281,-11.634
14813,-1.6372,-13.25
14824,-4.6642,-13.839
14836,-3.7247,-13.309
14848,-4.7684,-12.267
14859,-6.9881,-15.427
14871,-6.1899,-15.896
14883,-6.0273,-12.622
14895,-7.7122,-13.541
14906,-6.0718,-12.968
14918,-5.9968,-15.296
14930,-6.1405,-15.105
14941,-6.9561,-19.166
14953,-7.999,-14.984
14965,-5.6411,-14.264
14977,-6.3283,-14.453
14988,-6.4891,-13.318
15000,-4.5888,-12.999
15012,-7.8669,-15.491
15023,-8.6096,-14.773
15035,-5.872,-16.922
15047,-5.1307,-16.129
15059,-4.765,-14.667
15070,-3.272,-16.385
15082,-2.827,-15.075
15094,-6.4277,-14.752
15105,-5.1329,-16.511
15117,-5.3984,-11.413
15129,-7.478,-10.141
15141,-5.5902,-14.794
15152,-5.2536,-15.618
15164,-4.0722,-13.413
15176,-3.8601,-11.946
15188,-6.6532,-13.118
15199,-5.5897,-14.115
15211,-4.4121,-14.228
15223,-6.5126,-16.014
15234,-7.7495,-13.756
15246,-6.4419,-15.012
15258,-4.2449,-17.977
15270,-6.2945,-17.164
15281,-8.995,-18.582
15293,-4.7111,-17.963
15305,-5.6449,-15.767
15316,-7.8472,-17.089
15328,-7.5033,-13.452
15340,-5.8262,-12.604
15352,-4.9905,-15.424
15363,-5.7828,-18.689
15375,-5.794,-17.112
15387,-5.4461,-15.231
15398,-8.0609,-16.574
15410,-10.667,-15.747
15422,-10.099,-13.064
15434,-9.1868,-13.917
15445,-8.4785,-16.318
15457,-6.9558,-13.606
15469,-5.9577,-13.988
15480,-5.2174,-13.264
15492,-4.7267,-14.574
15504,-6.0571,-15.381
15516,-6.728,-13.552
15527,-9.1102,-13.874
15539,-8.0047,-17.322
15551,-6.4703,-16.321
15563,-8.6005,-15.312
15574,-9.2907,-16.055
15586,-12.342,-17.256
15598,-8.3181,-19.256
15609,-4.5695,-17.001
15621,-5.2003,-12.479
15633,-6.9838,-12.404
15645,-9.9414,-13.08
15656,-8.6168,-12.914
15668,-9.1369,-15.984
15680,-8.2606,-15.017
15691,-6.5399,-15.924
15703,-9.1747,-17.614
15715,-11.397,-15.338
15727,-9.8315,-16.669
15738,-8.212,-15.484
15750,-9.1403,-13.001
15762,-7.8897,-13.496
15773,-7.1292,-14.001
15785,-6.574,-13.178
15797,-7.1649,-13.792
15809,-6.9393,-15.592
15820,-6.4978,-14.428
15832,-8.507,-13.74
15844,-8.3875,-15.409
15855,-7.6669,-16.692
15867,-4.2851,-14.233
15879,-7.6124,-14.355
15891,-8.2607,-13.754
15902,-5.7101,-15.866
15914,-7.0591,-12.619
15926,-9.8539,-13.915
15938,-9.5969,-16.152
15949,-8.763,-15.476
15961,-10.01,-15.729
15973,-9.0692,-17.239
15984,-6.915,-14.858
15996,-2.8302,-13.348
16008,-5.6562,-14.838
16020,-5.3671,-18.776
16031,-7.8089,-18.402
16043,-7.9198,-16.337
16055,-9.9292,-16.701
16066,-11.515,-14.92
16078,-11.22,-15.335
16090,-10.599,-15.445
16102,-9.0303,-16.953
16113,-8.2139,-16.345
16125,-6.5407,-12.81
16137,-8.5526,-13.572
16148,-10.84,-13.766
16160,-6.0154,-15.349
16172,-4.6136,-17.994
16184,-8.295,-19.302
16195,-7.4451,-15.947
16207,-9.4765,-13.16
16219,-8.4875,-12.827
16230,-8.6686,-12.793
16242,-8.4237,-12.808
16254,-7.5099,-14.444
16266,-9.0517,-15.045
16277,-9.0393,-14.217
16289,-9.7815,-17.321
16301,-10.973,-17.821
16313,-8.5049,-14.283
16324,-10.235,-13.585
16336,-10.385,-14.754
16348,-7.5655,-14.677
16359,-6.8236,-15.051
16371,-8.2321,-15.472
16383,-6.644,-13.635
16395,-9.0768,-12.489
16406,-8.2031,-14.523
16418,-6.634,-19.063
16430,-6.2205,-17.858
16441,-7.1922,-15.555
16453,-7.4004,-15.404
16465,-6.8369,-17.164
16477,-8.1271,-17.352
16488,-12.176,-17.482
16500,-10.785,-19.278
16512,-10.003,-17.316
16523,-8.3147,-16.783
16535,-8.8147,-20.056
16547,-10.304,-18.414
16559,-11.308,-14.847
16570,-10.343,-14.852
16582,-7.752,-15.691
16594,-6.6242,-14.062
16605,-7.9918,-13.961
16617,-7.1254,-15.02
16629,-7.8336,-17.362
16641,-7.7211,-16.062
16652,-8.7499,-13.424
16664,-12.415,-15.52
16676,-9.482,-13.673
16688,-9.3768,-13.919
16699,-4.6821,-15.123
16711,-6.3337,-14.142
16723,-11.13,-14.1
16734,-7.6812,-16.198
16746,-9.6599,-16.929
16758,-8.6885,-15.355
16770,-10.176,-14.59
16781,-10.445,-15.474
16793,-12.303,-16.81
16805,-9.9782,-17.885
16816,-9.9723,-15.296
16828,-9.7924,-14.956
16840,-9.5731,-15.988
16852,-11.099,-15.856
16863,-11.815,-14.598
16875,-9.4398,-15.03
16887,-9.8022,-15.298
16898,-10.504,-18.028
16910,-12.562,-18.985
16922,-11.071,-16.187
16934,-9.4754,-18.357
16945,-11.42,-16.411
16957,-10.076,-19.737
16969,-9.9466,-19.049
16980,-9.7518,-17.181
16992,-11.991,-15.403
17004,-11.987,-12.794
17016,-8.5894,-18.27
17027,-10.501,-17.557
17039,-11.653,-16.337
17051,-10.433,-16.747
17063,-10.974,-19.899
17074,-10.826,-20.93
17086,-11.488,-18.019
17098,-9.8626,-17.032
17109,-8.0752,-18.031
17121,-11.222,-22.238
17133,-10.315,-18.664
17145,-9.6604,-18.381
17156,-10.708,-17.425
17168,-11.897,-16.309
17180,-9.8393,-15.598
17191,-7.6952,-16.232
17203,-8.4388,-17.623
17215,-8.6839,-16.696
17227,-8.6508,-20.643
17238,-8.5876,-17.513
17250,-8.3491,-16.491
17262,-9.7693,-15.299
17273,-8.0628,-17.485
17285,-8.2008,-18.266
17297,-11.119,-21.015
17309,-7.245,-18.159
17320,-8.753,-16.167
17332,-10.229,-19.383
17344,-10.133,-17.595
17355,-10.081,-15.065
17367,-8.7196,-15.835
17379,-9.3351,-18.365
17391,-12.084,-14.47
17402,-9.1109,-11.187
17414,-9.5343,-14.031
17426,-10.602,-16.862
17438,-12.551,-18.179
17449,-11.215,-18.635
17461,-9.45,-17.628
17473,-7.8225,-16.859
17484,-9.391,-17.804
17496,-13.235,-17.364
17508,-9.1391,-17.843
17520,-9.4484,-17.797
17531,-13.341,-18.493
17543,-13.298,-19.699
17555,-13.282,-13.995
17566,-12.843,-13.427
17578,-14.174,-17.848
17590,-11.242,-18.08
17602,-10.086,-16.461
17613,-9.8021,-14.93
17625,-8.0227,-15.075
17637,-9.0414,-13.873
17648,-6.8073,-16.064
17660,-6.7337,-15.415
17672,-9.0297,-15.335
17684,-13.641,-15.859
17695,-12.049,-16.051
17707,-8.3888,-17.086
17719,-10.623,-17.772
17730,-11.626,-16.993
17742,-8.6768,-15.655
17754,-6.661,-18.041
17766,-7.6437,-18.248
17777,-10.502,-14.896
17789,-11.078,-12.502
17801,-8.3842,-14.483
17813,-10.584,-14.66
17824,-13.562,-15.119
17836,-12.758,-17.841
17848,-12.27,-17.41
17859,-10.215,-15.299
17871,-12.049,-16.182
17883,-10.331,-15.356
17895,-10.406,-15.06
17906,-10.323,-16.532
17918,-10.269,-17.781
17930,-10.233,-18.446
17941,-12.364,-16.639
17953,-11.631,-14.16
17965,-11.378,-16.273
17977,-11.988,-17.964
17988,-12.053,-16.479
18000,-11.69,-16.64
18012,-12.034,-15.73
18023,-10.339,-12.95
18035,-11.496,-14.941
18047,-10.993,-18.683
18059,-8.3444,-17.092
18070,-10.806,-18.255
18082,-9.2733,-17.621
18094,-11.585,-15.343
18105,-12.503,-13.641
18117,-10.356,-15.238
18129,-11.355,-16.467
18141,-9.3614,-15.152
18152,-8.1339,-17.343
18164,-10.518,-18.154
18176,-9.6333,-16.684
18188,-9.515,-17.169
18199,-9.2264,-21.311
18211,-8.7746,-16.728
18223,-12.185,-17.297
18234,-11.982,-20.549
18246,-14.386,-20.977
18258,-13.823,-20.192
18270,-13.913,-17.468
18281,-13.209,-16.628
18293,-13.679,-19.714
18305,-12.341,-17.121
18316,-12.943,-18.297
18328,-12.736,-18.413
18340,-12.282,-15.956
18352,-12.221,-18.157
18363,-12.34,-19.386
18375,-10.771,-18.36
18387,-10.301,-16.536
18398,-9.2405,-17.272
18410,-11.717,-18.322
18422,-11.153,-18.016
18434,-11.056,-18.644
18445,-11.231,-18.856
18457,-10.567,-18.1
18469,-12.606,-16.799
18480,-12.02,-15.215
18492,-11.385,-13.514
18504,-11.048,-14.284
18516,-12.656,-15.439
18527,-12.598,-16.15
18539,-7.4812,-17.858
18551,-7.8627,-18.392
18563,-11.422,-16.676
18574,-12.889,-19.161
18586,-12.042,-19.123
18598,-11.35,-16.909
18609,-10.471,-14.975
18621,-10.474,-14.999
18633,-11.438,-17.284
18645,-13.559,-15.657
18656,-11.264,-15.594
18668,-11.305,-16.531
18680,-13.202,-15.467
18691,-14.474,-15.275
18703,-11.558,-16.847
18715,-14.484,-17.459
18727,-11.689,-16.624
18738,-9.6993,-16.478
18750,-9.8174,-16.512
18762,-11.358,-18.825
18773,-12.379,-18.034
18785,-10.485,-18.877
18797,-10.405,-18.077
18809,-12.4,-15.741
18820,-9.1185,-14.445
18832,-9.729,-14.676
18844,-12.94,-15.636
18855,-9.6276,-15.828
18867,-10.187,-17.906
18879,-11.618,-17.993
18891,-14.92,-15.957
18902,-14.762,-17.107
18914,-13.366,-17.067
18926,-14.36,-17.556
18938,-11.758,-22.907
18949,-10.243,-20.782
18961,-13.591,-17.808
18973,-14.806,-18.848
18984,-14.883,-16.807
18996,-9.6932,-14.135
19008,-9.011,-16.08
19020,-14.187,-18.632
19031,-12.097,-18.345
19043,-13.81,-19.093
19055,-14.34,-17.952
19066,-10.686,-17.496
19078,-11.201,-17.289
19090,-13.849,-17.193
19102,-11.056,-17.609
19113,-12.139,-18.315
19125,-12.049,-18.298
19137,-13.491,-17.364
19148,-10.915,-17.372
19160,-11.362,-18.891
19172,-10.291,-20.168
19184,-9.7035,-19.226
19195,-9.4028,-17.478
19207,-11.024,-17.42
19219,-12.121,-15.647
19230,-12.877,-15.872
19242,-14.625,-16.337
19254,-11.992,-20.416
19266,-10.156,-17.983
19277,-10.433,-14.923
19289,-10.828,-18.636
19301,-11.218,-16.83
19313,-13.98,-15.652
19324,-12.916,-15.327
19336,-12.335,-19.513
19348,-15.262,-17.746
19359,-12.55,-14.454
19371,-12.898,-17.512
19383,-14.162,-20.522
19395,-15.341,-19.246
19406,-15.836,-17.059
19418,-14.151,-17.005
19430,-12.965,-17.816
19441,-11.561,-20.808
19453,-12.629,-18.168
19465,-11.788,-16.832
19477,-10.792,-17.759
19488,-12.041,-19.982
19500,-12.849,-17.579
19512,-9.2037,-16.142
19523,-9.6151,-21.597
19535,-10.447,-18.229
19547,-13.494,-18.497
19559,-13.254,-17.403
19570,-8.5518,-16.487
19582,-9.24,-17.894
19594,-12.461,-17.137
19605,-15.079,-18.642
19617,-12.987,-19.076
19629,-14.82,-20.413
19641,-12.971,-19.843
19652,-15.398,-18.98
19664,-13.333,-15.522
19676,-13.026,-14.597
19688,-14.954,-16.668
19699,-15.435,-16.459
19711,-13.743,-18.556
19723,-14.911,-20.802
19734,-13.362,-17.33
19746,-11.347,-18.656
19758,-12.912,-20.243
19770,-15.327,-16.702
19781,-14.079,-16.092
19793,-16.674,-20.203
19805,-8.1989,-23.222
19816,-7.3031,-23.851
19828,-10.684,-21.12
19840,-12.902,-15.392
19852,-15.139,-14.624
19863,-11.242,-18.172
19875,-10.449,-20.211
19887,-14.822,-19.786
19898,-13.381,-18.717
19910,-12.728,-17.367
19922,-12.842,-16.129
19934,-14.174,-16.885
19945,-16.173,-16.877
19957,-14.842,-16.801
19969,-10.185,-18.203
19980,-10.379,-21.709
19992,-11.992,-17.159
20004,-12.51,-13.46
20016,-14.824,-18.207
20027,-13.177,-18.611
20039,-13.162,-21.374
20051,-12.642,-15.98
20063,-12.603,-18.041
20074,-13.456,-20.151
20086,-12.963,-18.629
20098,-13.912,-17.012
20109,-10.028,-15.369
20121,-8.9725,-14.549
20133,-11.116,-17.868
20145,-12.928,-21.516
20156,-13.212,-21.798
20168,-11.164,-17.935
20180,-16.168,-15.959
20191,-15.368,-15.154
20203,-15.388,-16.259
20215,-14.013,-17.051
20227,-12.248,-19.212
20238,-13.028,-20.344
20250,-13.892,-18.711
20262,-13.346,-17.798
20273,-15.707,-16.974
20285,-16.145,-15.925
20297,-15.639,-16.639
20309,-16.284,-18.031
20320,-16.481,-20.973
20332,-15.312,-20.914
20344,-16.136,-20.698
20355,-15.889,-18.165
20367,-14.258,-22.079
20379,-13.709,-20.864
20391,-16.904,-19.073
20402,-18.625,-19.927
20414,-15.211,-17.346
20426,-11.981,-17.348
20438,-12.135,-19.776
20449,-16.49,-20.659
20461,-15.759,-15.833
20473,-14.616,-17.24
20484,-14.1,-17.943
20496,-15.284,-16.38
20508,-16.71,-17.774
20520,-14.781,-16.511
20531,-14.18,-17.526
20543,-17.655,-17.162
20555,-17.898,-17.083
20566,-17.025,-19.366
20578,-17.497,-20.149
20590,-15.594,-20.582
20602,-15.317,-22.731
20613,-14.507,-19.981
20625,-13.557,-17.507
20637,-13.762,-17.342
20648,-12.823,-17.895
20660,-12.847,-20.498
20672,-14.746,-18.89
20684,-16.752,-18.608
20695,-15.501,-17.04
20707,-16.092,-17.305
20719,-13.319,-20.054
20730,-12.311,-18.967
20742,-14.634,-20.904
20754,-17.608,-18.454
20766,-13.506,-19.299
20777,-13.312,-21.678
20789,-15.026,-18.418
20801,-11.41,-21.515
20813,-14.528,-17.557
20824,-14.247,-16.435
20836,-10.789,-18.08
20848,-10.991,-17.898
20859,-16.094,-18.556
20871,-15.152,-19.502
20883,-17.008,-18.333
20895,-18.88,-18.114
20906,-13.521,-19.885
20918,-14.481,-19.435
20930,-17.598,-19.287
20941,-16.771,-17.316
20953,-16.24,-16.306
20965,-17.461,-14.938
20977,-12.046,-16.31
20988,-10.646,-18.07
21000,-12.546,-17.692
21012,-16.041,-16.7
21023,-16.794,-18.387
21035,-14.331,-19.825
21047,-10.609,-20.956
21059,-14.582,-21.896
21070,-14.018,-22.316
21082,-14.487,-22.193
21094,-15.877,-17.468
21105,-13.089,-15.767
21117,-13.891,-18.961
21129,-12.794,-17.636
21141,-12.451,-19.708
21152,-12.797,-20.74
21164,-14.387,-20.21
21176,-16.591,-17.892
21188,-11.236,-16.153
21199,-10.529,-17.948
21211,-17.505,-17.438
21223,-14.294,-20.036
21234,-14.958,-17.318
21246,-13.803,-17.632
21258,-13.377,-19.163
21270,-16.433,-17.488
21281,-15.103,-19.906
21293,-13.86,-18.83
21305,-14.735,-20.093
21316,-14.376,-19.021
21328,-15.453,-18.147
21340,-15.897,-21.829
21352,-13.854,-21.033
21363,-14.748,-20.93
21375,-14.5,-19.453
21387,-16.582,-20.756
21398,-18.357,-21.182
21410,-15.928,-21.85
21422,-18.692,-19.586
21434,-16.713,-17.845
21445,-14.288,-16.912
21457,-13.871,-19.111
21469,-16.44,-17.328
21480,-19.753,-19.897
21492,-15.794,-19.581
21504,-15.97,-19.009
21516,-16.574,-18.668
21527,-18.081,-19.282
21539,-14.895,-19.536
21551,-12.15,-21.216
21563,-11.61,-21.649
21574,-13.073,-21.834
21586,-17.232,-19.777
21598,-17.431,-17.08
21609,-17.854,-19.226
21621,-15.011,-21.42
21633,-14.237,-19.689
21645,-16.157,-18.162
21656,-15.214,-18.156
21668,-15.872,-17.091
21680,-16.607,-17.752
21691,-16.833,-20.4
21703,-15.402,-21.25
21715,-14.646,-19.243
21727,-17.242,-19.208
21738,-15.948,-18.799
21750,-13.051,-18.005
21762,-15.155,-17.836
21773,-17.36,-18.192
21785,-17.304,-16.373
21797,-17.341,-19.055
21809,-15.931,-21.206
21820,-13.832,-21.813
21832,-12.917,-21.209
21844,-17.176,-22.031
21855,-16.056,-17.622
21867,-18.515,-17.612
21879,-17.625,-22.885
21891,-14.738,-19.274
21902,-14.788,-20.522
21914,-15.594,-19.208
21926,-17.603,-19.398
21938,-17.18,-19.129
21949,-15.441,-18.921
21961,-14.446,-18.383
21973,-15.728,-19.514
21984,-17.897,-19.088
21996,-17.171,-18.717
22008,-15.076,-18.563
22020,-13.976,-18.457
22031,-16.025,-17.915
22043,-17.757,-16.839
22055,-15.074,-18.341
22066,-16.376,-18.951
22078,-14.815,-19.756
22090,-14.756,-20.821
22102,-18.801,-21.74
22113,-20.082,-16.756
22125,-20.418,-17.981
22137,-21.464,-22.078
22148,-18.345,-20.851
22160,-15.558,-18.948
22172,-15.671,-18.815
22184,-16.584,-19.61
22195,-15.098,-20.168
22207,-16.755,-19.373
22219,-18.672,-17.874
22230,-16.31,-18.976
22242,-17.54,-18.406
22254,-17.668,-19.774
22266,-19.013,-19.406
22277,-20.445,-18.563
22289,-20.95,-20.699
22301,-15.929,-19.114
22313,-16.084,-19.803
22324,-16.575,-19.883
22336,-15.628,-20.932
22348,-17.452,-24.468
22359,-14.768,-20.574
22371,-14.188,-22.521
22383,-18.277,-16.941
22395,-19.638,-16.685
22406,-18.128,-18.357
22418,-15.808,-21.227
22430,-16.412,-18.677
22441,-15.186,-18.28
22453,-15.277,-17.037
22465,-18.97,-17.836
22477,-20.133,-20.068
22488,-15.474,-18.946
22500,-14.81,-21.114
22512,-16.157,-18.266
22523,-15.653,-20.068
22535,-17.821,-23.064
22547,-19.555,-22.394
22559,-16.076,-21.818
22570,-14.54,-19.896
22582,-15.174,-21.102
22594,-16.465,-22.281
22605,-16.061,-19.233
22617,-16.658,-18.214
22629,-18.082,-19.214
22641,-18.916,-22.951
22652,-19.232,-21.185
22664,-16.554,-19.548
22676,-17.99,-18.43
22688,-18.943,-18.925
22699,-17.31,-19.151
22711,-15.453,-19.243
22723,-16.787,-19.388
22734,-14.949,-19.913
22746,-17.148,-21.674
22758,-16.879,-19.948
22770,-17.326,-20.566
22781,-18.052,-21.88
22793,-17.557,-22.19
22805,-16.537,-22.395
22816,-17.21,-21.227
22828,-15.64,-22.997
22840,-16.605,-21.524
22852,-15.128,-20.57
22863,-13.193,-18.557
22875,-16.896,-22.056
22887,-17.814,-18.966
22898,-16.119,-17.343
22910,-18.177,-22.259
22922,-20.442,-23.049
22934,-20.737,-22.632
22945,-18.955,-21.311
22957,-18.062,-20.23
22969,-18.124,-23.317
22980,-17.919,-21.182
22992,-18.759,-18.391
23004,-18.707,-17.794
23016,-17.974,-21.282
23027,-14.829,-19.931
23039,-14.374,-18.691
23051,-19.295,-22.058
23063,-14.407,-21.409
23074,-14.129,-20.486
23086,-16.477,-18.402
23098,-19.856,-16.054
23109,-16.649,-20.154
23121,-16.359,-21.515
23133,-14.322,-19.424
23145,-15.15,-21.486
23156,-16.012,-22.207
23168,-15.79,-18.457
23180,-17.866,-19.709
23191,-19.726,-20.247
23203,-15.95,-19.878
23215,-15.241,-21.227
23227,-15.067,-18.953
23238,-16.583,-20.196
23250,-17.715,-22.002
23262,-16.747,-23.373
23273,-16.227,-23.729
23285,-16.736,-19.896
23297,-17.196,-20.753
23309,-18.242,-17.867
23320,-17.718,-19.916
23332,-14.998,-19.627
23344,-15.737,-20.634
23355,-18.825,-21.389
23367,-19.002,-22.075
23379,-18.081,-20.43
23391,-16.467,-20.506
23402,-16.396,-20.063
23414,-17.255,-19.568
23426,-19.079,-18.763
23438,-15.801,-21.011
23449,-17.779,-22.07
23461,-18.536,-22.773
23473,-16.471,-23.587
23484,-15.953,-20.542
23496,-20.36,-20.645
23508,-20.044,-23.302
23520,-19.227,-21.476
23531,-16.508,-17.981
23543,-15.939,-17.873
23555,-16.782,-19.2
23566,-15.174,-21.834
23578,-15.324,-18.341
23590,-16.548,-18.715
23602,-17.651,-18.626
23613,-17.74,-19.006
23625,-17.507,-20.095
23637,-18.637,-20.796
23648,-16.492,-18.789
23660,-19.395,-19.921
23672,-18.373,-21.185
23684,-16.597,-19.969
23695,-20.392,-20.201
23707,-16.995,-20.259
23719,-18.366,-18.953
23730,-19.399,-20.243
23742,-18.707,-21.844
23754,-17.807,-23.482
23766,-16.621,-22.625
23777,-13.602,-21.006
23789,-17.239,-22.709
23801,-19.166,-20.862
23813,-17.225,-19.77
23824,-18.572,-20.213
23836,-15.737,-19.758
23848,-16.311,-23.596
23859,-20.092,-25.834
23871,-16.839,-22.726
23883,-16.223,-22.304
23895,-15.378,-22.545
23906,-16.912,-22.652
23918,-19.371,-18.323
23930,-19.195,-17.092
23941,-18.7,-22.692
23953,-16.71,-25.714
23965,-16.89,-23.01
23977,-19.657,-20.212
23988,-19.137,-22.401
