FFT,Power Spectrum
Frequency[Hz],Level-L[dB],Level-R[dB]
11.719,-3.1559,-61.618
23.438,16.425,-52.059
35.156,15.773,-40.174
46.875,19.104,-27.209
58.594,19.135,-27.424
70.313,18.177,-32.191
82.031,19.07,-29.385
93.75,23.775,-27.8
105.47,22.719,-23.876
117.19,20.124,-19.492
128.91,20.608,-18.657
140.63,26.18,-13.937
152.34,25.022,-10.838
164.06,16.929,-14.078
175.78,19.24,-15.97
187.5,19.054,-16.821
199.22,21.405,-16.986
210.94,18.851,-15.141
222.66,18.511,-16.327
234.38,21.716,-16.828
246.09,18.543,-15.448
257.81,15.975,-15.265
269.53,16.095,-16.924
281.25,17.46,-12.845
292.97,16.529,-14.199
304.69,17.667,-18.247
316.41,15.939,-16.818
328.13,18.203,-15.078
339.84,20.007,-14.162
351.56,14.09,-13.34
363.28,16.916,-13.164
375,17.238,-13.314
386.72,18.308,-13.86
398.44,17.441,-12.598
410.16,15.872,-12.925
421.88,17.309,-12.724
433.59,15.402,-14.71
445.31,15.43,-16.31
457.03,17.256,-14.679
468.75,15.216,-12.957
480.47,23.538,-12.6
492.19,40.44,-11.863
503.91,42.627,-12.567
515.63,32.067,-12.323
527.34,20.263,-13.304
539.06,18.848,-11.207
550.78,16.567,-12.634
562.5,16.216,-12.416
574.22,20.245,-11.106
585.94,21.919,-9.3884
597.66,21.003,-11.548
609.38,17.957,-13.934
621.09,22.075,-11.731
632.81,22.555,-9.1189
644.53,17.137,-7.8317
656.25,21.069,-7.6207
667.97,23.39,-7.9347
679.69,18.097,-10.215
691.41,16.774,-13.232
703.13,18.176,-13.375
714.84,16.646,-9.5923
726.56,15.371,-11.012
738.28,16.504,-10.728
750,17.452,-8.2363
761.72,19.298,-8.6646
773.44,17.563,-8.5894
785.16,15.715,-9.1803
796.88,15.653,-10.743
808.59,13.35,-10.273
820.31,14.811,-11.255
832.03,15.406,-10.791
843.75,19.493,-8.1761
855.47,17.115,-9.1291
867.19,17.218,-10.182
878.91,16.367,-9.3708
890.63,18.429,-9.1724
902.34,15.236,-7.4706
914.06,14.668,-8.8198
925.78,21.112,-10.307
937.5,17.72,-10.048
949.22,19.515,-9.9152
960.94,18.484,-8.94
972.66,16.457,-8.6454
984.38,15.489,-9.7707
996.09,12.127,-11.127
1007.8,16.961,-6.8781
1019.5,16.154,-6.8009
1031.3,15.521,-9.4429
1043,14.93,-6.4105
1054.7,14.335,-6.7114
1066.4,18.009,-9.2882
1078.1,17.784,-9.7694
1089.8,17.479,-7.3725
1101.6,14.777,-7.9398
1113.3,14.485,-7.4113
1125,16.454,-8.0938
1136.7,18.203,-7.8656
1148.4,16.152,-8.8299
1160.2,18.45,-8.9589
1171.9,19.661,-6.2753
1183.6,16.804,-7.3631
1195.3,13.05,-8.7914
1207,16.629,-9.5558
1218.8,16.334,-10.858
1230.5,14.511,-12.522
1242.2,16.89,-14.412
1253.9,16.818,-9.6871
1265.6,18.152,-7.1665
1277.3,19.555,-7.0908
1289.1,18.394,-8.6149
1300.8,16.724,-11.742
1312.5,15.621,-7.2775
1324.2,13.441,-5.5752
1335.9,14.261,-7.8353
1347.7,12.653,-6.348
1359.4,14.22,-8.9877
1371.1,14.428,-7.6613
1382.8,15.966,-7.3007
1394.5,14.47,-9.1943
1406.3,17.067,-13.479
1418,14.816,-11.223
1429.7,16.907,-8.4074
1441.4,15.603,-8.8204
1453.1,14.454,-8.1876
1464.8,11.182,-8.2712
1476.6,13.084,-10.159
1488.3,14.36,-7.4235
1500,16.946,-7.9525
1511.7,16.306,-8.5387
1523.4,16.34,-4.6935
1535.2,18.105,-7.5538
1546.9,13.926,-8.18
1558.6,16.419,-6.7382
1570.3,16.817,-5.4038
1582,17.245,-5.7594
1593.8,19.588,-7.3632
1605.5,19.138,-6.0933
1617.2,14.168,-6.5593
1628.9,13.648,-8.8673
1640.6,14.017,-6.6763
1652.3,9.8549,-5.7299
1664.1,13.436,-8.3199
1675.8,15.395,-5.9715
1687.5,13.604,-4.6839
1699.2,13.978,-7.6098
1710.9,14.147,-9.9937
1722.7,12.357,-8.6784
1734.4,13.477,-8.3442
1746.1,10.882,-6.9669
1757.8,15.611,-8.5828
1769.5,16.432,-9.6743
1781.3,14.998,-6.221
1793,15.838,-4.9564
1804.7,19.152,-5.3363
1816.4,20.615,-6.9562
1828.1,18.116,-7.5355
1839.8,15.631,-7.1137
1851.6,13.008,-7.1424
1863.3,15.663,-6.7595
1875,14.455,-6.1288
1886.7,13.727,-6.2147
1898.4,13.469,-4.4125
1910.2,12.629,-6.9079
1921.9,10.676,-10.032
1933.6,10.437,-7.1513
1945.3,12.319,-7.5204
1957,12.188,-7.9242
1968.8,11.311,-4.7815
1980.5,10.715,-4.9442
1992.2,13.168,-4.6584
2003.9,13.579,-5.4658
2015.6,14.346,-6.8112
2027.3,12.427,-8.4193
2039.1,14.704,-8.3751
2050.8,14.326,-6.7139
2062.5,14.359,-8.2643
2074.2,12.449,-7.3976
2085.9,12.097,-8.535
2097.7,10.29,-8.2878
2109.4,10.692,-6.0453
2121.1,11.561,-9.2782
2132.8,13.082,-8.076
2144.5,13.483,-6.1038
2156.3,12.8,-6.6116
2168,11.872,-7.5679
2179.7,14.458,-5.8609
2191.4,14.532,-7.013
2203.1,12.667,-6.4303
2214.8,10.628,-6.7405
2226.6,11.839,-10.996
2238.3,13.391,-7.537
2250,9.8676,-10.042
2261.7,11.517,-6.6765
2273.4,13.06,-5.7986
2285.2,12.856,-7.912
2296.9,12.909,-9.8734
2308.6,14.904,-10.895
2320.3,16.156,-7.2053
2332,14.006,-5.6128
2343.8,11.155,-5.2837
2355.5,10.685,-5.6291
2367.2,9.6205,-6.9248
2378.9,10.655,-6.4297
2390.6,10.772,-7.0363
2402.3,11.232,-7.5427
2414.1,11.411,-4.0739
2425.8,10.929,-5.8402
2437.5,9.4962,-7.4731
2449.2,8.2783,-8.3555
2460.9,11.52,-8.6251
2472.7,12.894,-5.5728
2484.4,11.761,-7.9016
2496.1,13.593,-11.728
2507.8,14.703,-8.9073
2519.5,10.956,-7.8934
2531.3,10.69,-9.7874
2543,12.319,-10.791
2554.7,13.205,-8.1037
2566.4,14.556,-8.6493
2578.1,12.992,-9.0177
2589.8,12.358,-10.677
2601.6,12.499,-8.0879
2613.3,11.847,-6.6331
2625,10.989,-7.4138
2636.7,11.45,-6.3619
2648.4,12.68,-5.4813
2660.2,12.701,-5.3856
2671.9,10.461,-5.4329
2683.6,9.3004,-8.1186
2695.3,10.239,-9.2314
2707,10.535,-10.955
2718.8,11.632,-10.498
2730.5,10.356,-8.59
2742.2,12.702,-8.2971
2753.9,11.132,-7.267
2765.6,11.104,-8.448
2777.3,12.654,-8.5746
2789.1,13.404,-8.6132
2800.8,10.882,-6.3682
2812.5,15.659,-5.4511
2824.2,15.3,-8.4479
2835.9,12.884,-7.686
2847.7,9.8707,-6.4958
2859.4,7.8603,-6.7161
2871.1,13.515,-4.6635
2882.8,13.55,-5.8546
2894.5,9.6966,-7.3615
2906.3,9.4785,-9.5623
2918,7.2825,-9.5097
2929.7,6.0448,-7.4738
2941.4,8.6791,-7.9099
2953.1,9.2739,-5.4774
2964.8,12.101,-5.6659
2976.6,11.796,-7.8487
2988.3,10.009,-10.113
3000,9.7382,-8.846
3011.7,10.135,-6.4076
3023.4,7.9695,-7.4838
3035.2,7.9252,-6.6625
3046.9,9.811,-6.643
3058.6,12.374,-5.5168
3070.3,10.211,-4.3022
3082,6.3452,-6.6854
3093.8,8.6625,-8.0102
3105.5,12.546,-6.4112
3117.2,11.033,-7.4747
3128.9,8.2824,-10.361
3140.6,11.272,-7.4982
3152.3,11.105,-6.4147
3164.1,10.085,-7.047
3175.8,10.764,-7.7045
3187.5,11.285,-5.1186
3199.2,12.629,-3.9167
3210.9,11.116,-4.7764
3222.7,11.904,-6.262
3234.4,11.587,-9.2486
3246.1,8.9738,-9.1957
3257.8,10.112,-8.2599
3269.5,8.7447,-10.062
3281.3,8.9507,-8.8869
3293,9.8737,-8.5985
3304.7,9.9583,-6.7628
3316.4,11.968,-7.0492
3328.1,10.824,-8.3225
3339.8,6.4587,-10.218
3351.6,9.9628,-10.877
3363.3,10.787,-8.0131
3375,9.5558,-8.5328
3386.7,10.076,-9.0486
3398.4,8.074,-9.377
3410.2,6.2105,-7.065
3421.9,6.6695,-10.122
3433.6,9.3091,-6.8211
3445.3,9.0922,-4.0325
3457,7.2892,-6.2296
3468.8,10.332,-9.6002
3480.5,11.236,-7.4756
3492.2,12.287,-6.3366
3503.9,12.751,-5.6992
3515.6,9.5207,-5.9963
3527.3,10.063,-5.3134
3539.1,10.856,-8.6286
3550.8,8.8469,-10.733
3562.5,8.3137,-7.9998
3574.2,9.1259,-8.2419
3585.9,10.427,-9.4732
3597.7,10.072,-10.595
3609.4,11.852,-9.9311
3621.1,13.227,-6.8487
3632.8,11.969,-7.187
3644.5,11.234,-6.9803
3656.3,9.5623,-7.251
3668,8.6581,-7.4116
3679.7,11.496,-7.9482
3691.4,7.6738,-5.9027
3703.1,5.2171,-3.5871
3714.8,9.5462,-5.4399
3726.6,11.07,-7.6737
3738.3,8.5023,-7.2388
3750,9.6346,-6.7394
3761.7,8.423,-5.8524
3773.4,6.9503,-8.3901
3785.2,9.1905,-5.503
3796.9,9.9989,-7.3786
3808.6,9.3746,-10.611
3820.3,9.1312,-10.535
3832,7.4178,-8.8843
3843.8,9.3866,-9.7875
3855.5,12.777,-9.9113
3867.2,9.3983,-8.0341
3878.9,7.0384,-7.2635
3890.6,7.545,-7.5888
3902.3,8.0734,-6.8569
3914.1,3.7281,-5.6326
3925.8,7.1163,-8.8894
3937.5,7.4825,-6.0772
3949.2,6.2207,-3.8546
3960.9,8.54,-4.1618
3972.7,8.1496,-3.6648
3984.4,8.3729,-4.2206
3996.1,8.1765,-5.9122
4007.8,7.9925,-7.4367
4019.5,6.5092,-7.4159
4031.3,5.904,-8.3611
4043,4.3806,-7.0454
4054.7,6.619,-7.5383
4066.4,9.677,-10.685
4078.1,7.2433,-6.7318
4089.8,7.2368,-4.3691
4101.6,10.444,-5.5401
4113.3,10.139,-6.9718
4125,9.4302,-9.329
4136.7,8.6945,-8.8538
4148.4,6.0024,-9.473
4160.2,5.128,-7.4686
4171.9,6.7534,-4.5924
4183.6,9.6208,-5.2181
4195.3,7.4898,-6.2423
4207,8.5914,-9.893
4218.8,7.8828,-7.2019
4230.5,6.9782,-6.2193
4242.2,6.5348,-7.3992
4253.9,9.8263,-5.8291
4265.6,10.205,-5.1318
4277.3,7.2493,-4.7792
4289.1,7.7186,-7.1885
4300.8,10.414,-6.1942
4312.5,11.356,-6.2819
4324.2,9.2736,-7.6721
4335.9,4.9446,-8.8607
4347.7,5.5385,-9.437
4359.4,9.2552,-9.294
4371.1,8.0387,-9.5416
4382.8,5.0693,-9.7554
4394.5,3.8777,-9.3189
4406.3,9.0181,-7.5125
4418,11.869,-7.7523
4429.7,9.0422,-5.8065
4441.4,10.455,-6.4054
4453.1,6.2407,-9.7358
4464.8,8.0773,-4.7099
4476.6,7.1695,-5.9091
4488.3,7.9541,-8.4595
4500,8.8194,-6.4574
4511.7,7.2232,-6.0225
4523.4,10.143,-4.7914
4535.2,7.3986,-5.9071
4546.9,8.8077,-6.7732
4558.6,6.0754,-7.753
4570.3,4.3128,-6.6224
4582,6.143,-6.0369
4593.8,5.3425,-6.2556
4605.5,6.5235,-10.221
4617.2,9.6272,-10.812
4628.9,9.8664,-12.213
4640.6,8.578,-7.6641
4652.3,8.157,-9.3337
4664.1,7.4052,-11.011
4675.8,11.502,-8.2537
4687.5,10.803,-9.4183
4699.2,7.3041,-10.532
4710.9,4.4985,-9.636
4722.7,5.3961,-10.825
4734.4,3.8685,-7.5059
4746.1,6.1671,-5.4337
4757.8,6.4588,-7.2057
4769.5,6.9051,-8.072
4781.3,9.8324,-8.0177
4793,12.442,-10.17
4804.7,9.6001,-8.9638
4816.4,8.6742,-7.4963
4828.1,6.9758,-8.0851
4839.8,7.9606,-4.6635
4851.6,10.003,-4.5484
4863.3,9.5084,-6.6952
4875,8.187,-8.3353
4886.7,4.7558,-7.5804
4898.4,7.9746,-5.7381
4910.2,5.7603,-8.1389
4921.9,7.8251,-9.0291
4933.6,5.9285,-8.7203
4945.3,5.6676,-6.1906
4957,6.7215,-7.0095
4968.8,7.7449,-11.609
4980.5,10.179,-8.195
4992.2,8.3132,-8.6925
5003.9,5.1578,-7.3818
5015.6,9.8137,-9.2038
5027.3,8.1713,-9.3238
5039.1,7.7388,-6.0876
5050.8,5.251,-6.339
5062.5,4.1274,-10.966
5074.2,5.9507,-13.143
5085.9,5.7346,-11.623
5097.7,3.5772,-10.704
5109.4,3.676,-10.07
5121.1,6.2782,-5.4088
5132.8,8.6664,-6.6719
5144.5,10.233,-8.9299
5156.3,9.8676,-5.9069
5168,6.6943,-5.9943
5179.7,6.6538,-9.6185
5191.4,3.8614,-6.9235
5203.1,3.6553,-7.2004
5214.8,3.7065,-9.8906
5226.6,4.4696,-10.513
5238.3,5.3609,-9.6471
5250,5.3668,-6.7583
5261.7,5.2405,-8.5364
5273.4,4.9772,-7.0492
5285.2,2.5514,-5.2721
5296.9,6.8839,-4.2898
5308.6,7.0427,-7.9144
5320.3,7.8757,-7.5898
5332,4.598,-6.1726
5343.8,6.3159,-7.5006
5355.5,5.8855,-9.1719
5367.2,3.8099,-5.5982
5378.9,3.1414,-5.1335
5390.6,5.7074,-7.0733
5402.3,6.2517,-5.8151
5414.1,4.8814,-6.1269
5425.8,6.3565,-9.2958
5437.5,6.6383,-8.677
5449.2,8.1415,-9.0334
5460.9,7.4377,-8.7629
5472.7,5.7913,-8.0769
5484.4,6.7695,-9.525
5496.1,8.9109,-9.5913
5507.8,7.7304,-9.4432
5519.5,8.2432,-10.026
5531.3,9.3555,-8.1624
5543,7.7118,-5.5132
5554.7,5.2511,-6.4338
5566.4,3.904,-7.8653
5578.1,5.2592,-5.4705
5589.8,5.319,-3.2328
5601.6,8.0443,-4.9342
5613.3,7.5824,-7.5758
5625,5.9102,-8.3425
5636.7,5.5908,-8.1152
5648.4,6.35,-7.7972
5660.2,6.2282,-8.0125
5671.9,6.6778,-6.9292
5683.6,5.5679,-8.2464
5695.3,5.6179,-8.9387
5707,4.4849,-9.1993
5718.8,4.9347,-10.055
5730.5,5.9561,-7.599
5742.2,8.7722,-8.6437
5753.9,6.04,-10.624
5765.6,2.6006,-8.6392
5777.3,4.7675,-8.973
5789.1,5.0824,-9.0018
5800.8,7.7704,-9.1758
5812.5,11.2,-9.9745
5824.2,7.607,-9.6233
5835.9,4.688,-9.6374
5847.7,5.3465,-9.1683
5859.4,5.7344,-10.529
5871.1,4.3896,-11.43
5882.8,5.3182,-8.9435
5894.5,3.7406,-6.3455
5906.3,1.7932,-5.1918
5918,6.0803,-9.3206
5929.7,6.8588,-9.6542
5941.4,7.5823,-8.8504
5953.1,5.9987,-8.8556
5964.8,2.9943,-11.493
5976.6,4.7828,-9.2294
5988.3,5.2471,-6.6753
6000,7.5922,-5.3102
6011.7,3.7618,-6.3966
6023.4,2.4088,-6.433
6035.2,4.1138,-10.743
6046.9,5.4615,-11.253
6058.6,2.5277,-12.753
6070.3,6.6527,-11.541
6082,6.8347,-10.131
6093.8,4.6745,-9.1675
6105.5,4.4598,-9.4148
6117.2,5.3468,-8.0757
6128.9,6.6732,-8.8461
6140.6,6.543,-7.9614
6152.3,5.898,-7.974
6164.1,3.9704,-8.7064
6175.8,4.2496,-9.2057
6187.5,6.7085,-10.78
6199.2,5.7342,-8.7913
6210.9,5.8534,-6.4135
6222.7,6.436,-8.0073
6234.4,7.43,-11.278
6246.1,6.0474,-10.432
6257.8,5.3281,-8.3215
6269.5,4.8606,-7.6338
6281.3,3.347,-7.3762
6293,3.3763,-8.0243
6304.7,3.9653,-11.138
6316.4,3.9078,-12.22
6328.1,7.6268,-10.204
6339.8,5.7832,-10.323
6351.6,4.9872,-10.589
6363.3,5.547,-10.87
6375,2.4233,-8.7296
6386.7,4.049,-9.5874
6398.4,4.8016,-9.7839
6410.2,5.9594,-10.904
6421.9,4.4736,-8.0191
6433.6,6.0792,-7.1746
6445.3,6.0736,-11.24
6457,4.8145,-9.5118
6468.8,5.5199,-6.2526
6480.5,4.3039,-8.4242
6492.2,5.5762,-10.246
6503.9,3.6362,-10.034
6515.6,2.3637,-8.0707
6527.3,5.213,-8.3257
6539.1,6.1062,-10.755
6550.8,5.9718,-8.5184
6562.5,4.2522,-8.1972
6574.2,3.6665,-8.3709
6585.9,3.5224,-9.8624
6597.7,4.0101,-7.9835
6609.4,3.5495,-8.0538
6621.1,4.9834,-7.826
6632.8,3.872,-8.6152
6644.5,4.7041,-9.8017
6656.3,2.5774,-7.7994
6668,3.5547,-6.6558
6679.7,3.7204,-8.3415
6691.4,1.5014,-9.1334
6703.1,1.8415,-9.6123
6714.8,1.3426,-13.068
6726.6,1.5889,-11.02
6738.3,2.4051,-11.542
6750,1.0926,-9.4687
6761.7,8.091,-7.8148
6773.4,7.9601,-6.4413
6785.2,1.7945,-8.5609
6796.9,1.2748,-11.496
6808.6,4.217,-7.5572
6820.3,6.5179,-9.3134
6832,6.1092,-7.171
6843.8,5.2086,-8.3381
6855.5,2.4472,-10.671
6867.2,7.1405,-11.109
6878.9,6.4717,-11.2
6890.6,3.2193,-10.829
6902.3,3.0473,-9.0659
6914.1,4.8652,-9.3829
6925.8,4.4849,-8.269
6937.5,3.8193,-8.974
6949.2,3.1274,-10.4
6960.9,3.3887,-11.073
6972.7,3.6568,-10.733
6984.4,5.9588,-9.2935
6996.1,3.434,-10.124
7007.8,2.1109,-10.46
7019.5,4.5473,-9.4059
7031.3,4.4949,-8.7807
7043,3.9282,-10.429
7054.7,4.7043,-8.5186
7066.4,3.7457,-7.4079
7078.1,2.2719,-8.4985
7089.8,3.9128,-9.2086
7101.6,0.54341,-9.178
7113.3,-0.6772,-10.13
7125,1.7998,-10.06
7136.7,5.1174,-6.4672
7148.4,4.7904,-7.9375
7160.2,4.5178,-6.2869
7171.9,5.2897,-7.7092
7183.6,4.2553,-10.96
7195.3,1.8915,-11.395
7207,1.5268,-10.507
7218.8,3.6157,-11.098
7230.5,5.8559,-13.108
7242.2,6.4149,-12.598
7253.9,5.9836,-12.107
7265.6,4.094,-10.752
7277.3,3.386,-9.1598
7289.1,4.6941,-10.212
7300.8,4.7988,-10.405
7312.5,4.0795,-9.7825
7324.2,2.8072,-7.4899
7335.9,3.7589,-8.0818
7347.7,4.554,-8.6541
7359.4,3.3026,-9.4005
7371.1,1.3507,-11.541
7382.8,3.9324,-10.35
7394.5,5.1746,-9.7202
7406.3,4.9803,-10.737
7418,4.3226,-9.3164
7429.7,1.4755,-11.59
7441.4,2.8503,-13.372
7453.1,3.2235,-11.478
7464.8,5.6716,-9.6677
7476.6,3.8708,-8.7587
7488.3,3.1225,-10.896
7500,2.8739,-10.558
7511.7,1.636,-8.5167
7523.4,2.456,-6.8227
7535.2,0.14977,-7.6291
7546.9,0.4492,-9.5983
7558.6,3.6977,-9.9833
7570.3,1.2755,-7.6736
7582,1.1767,-9.0821
7593.8,1.6082,-11.555
7605.5,5.7257,-9.1008
7617.2,5.5189,-12.768
7628.9,1.4234,-9.6522
7640.6,4.6122,-10.401
7652.3,3.1965,-11.557
7664.1,1.9633,-9.713
7675.8,5.3348,-9.54
7687.5,3.9838,-11.307
7699.2,2.0877,-13.377
7710.9,-0.70377,-8.7336
7722.7,3.2177,-7.5845
7734.4,2.2891,-8.0968
7746.1,5.9408,-6.3
7757.8,4.2686,-11.294
7769.5,0.87342,-9.9483
7781.3,0.37264,-9.2345
7793,0.75469,-8.4706
7804.7,-0.12345,-8.7765
7816.4,3.0762,-11.141
7828.1,3.2922,-9.9654
7839.8,1.5762,-10.011
7851.6,1.0015,-7.8862
7863.3,1.3582,-7.1393
7875,1.5182,-8.3234
7886.7,2.1933,-13.543
7898.4,0.97338,-10.538
7910.2,-0.5168,-9.7665
7921.9,3.025,-10.791
7933.6,3.4499,-9.7582
7945.3,2.1527,-11.971
7957,1.1759,-8.3078
7968.8,2.9899,-6.419
7980.5,4.1927,-7.0189
7992.2,3.8226,-9.9693
8003.9,5.7416,-11.308
8015.6,6.8079,-11.018
8027.3,7.2651,-6.5409
8039.1,5.8668,-6.0322
8050.8,6.2555,-9.3998
8062.5,4.1631,-11.512
8074.2,0.9252,-10.129
8085.9,0.69537,-11.535
8097.7,1.5974,-13.314
8109.4,-0.27814,-12.397
8121.1,1.4447,-11.976
8132.8,3.4516,-12.414
8144.5,0.2338,-13.92
8156.3,0.9773,-10.736
8168,2.6925,-8.6623
8179.7,2.0901,-10.36
8191.4,3.0197,-11.165
8203.1,2.0879,-10.573
8214.8,-0.086949,-12.789
8226.6,-0.38175,-12.653
8238.3,3.036,-12.712
8250,2.1711,-10.846
8261.7,2.3614,-9.686
8273.4,1.7446,-11.12
8285.2,2.51,-10.832
8296.9,2.177,-10.999
8308.6,3.3268,-11.347
8320.3,3.3985,-10.9
8332,1.5719,-13.167
8343.8,-0.089796,-11.81
8355.5,2.5091,-7.1481
8367.2,2.4362,-6.6715
8378.9,1.3819,-6.5189
8390.6,1.3478,-6.8258
8402.3,0.10684,-8.3542
8414.1,0.28766,-9.2839
8425.8,0.37905,-10.425
8437.5,-0.078469,-12.973
8449.2,2.6174,-5.9629
8460.9,3.1198,-6.5171
8472.7,-0.79081,-8.6272
8484.4,1.4272,-9.6329
8496.1,0.31493,-9.8198
8507.8,-0.98656,-10.301
8519.5,0.69623,-11.988
8531.3,-0.43278,-12.437
8543,-2.6355,-10.145
8554.7,-1.9319,-7.8176
8566.4,2.3927,-9.5657
8578.1,2.1398,-10.565
8589.8,1.7283,-13.023
8601.6,1.9284,-11.44
8613.3,-0.65067,-12.829
8625,0.3895,-12.961
8636.7,1.2182,-13.83
8648.4,0.35454,-11.907
8660.2,0.17894,-10.232
8671.9,1.4804,-10.318
8683.6,2.8704,-9.1221
8695.3,4.3809,-11.888
8707,3.4687,-11.493
8718.8,3.3205,-8.9164
8730.5,3.4963,-6.3977
8742.2,4.7524,-6.4306
8753.9,3.1342,-8.8219
8765.6,0.78656,-8.7114
8777.3,2.0075,-6.4729
8789.1,-0.30868,-8.6363
8800.8,-0.93163,-9.3549
8812.5,-0.19307,-6.5877
8824.2,-0.80132,-7.18
8835.9,1.4021,-7.8216
8847.7,0.50766,-7.3799
8859.4,0.50604,-11.079
8871.1,0.91547,-13.207
8882.8,0.98406,-11.759
8894.5,4.215,-11.985
8906.3,3.6091,-13.484
8918,2.4674,-10.924
8929.7,1.5815,-12.76
8941.4,2.6668,-15.304
8953.1,2.9381,-11.324
8964.8,-0.77961,-10.523
8976.6,-0.30382,-9.7486
8988.3,0.84608,-10.458
9000,1.239,-13.272
9011.7,-1.333,-11.11
9023.4,-1.1947,-7.7232
9035.2,2.145,-7.7856
9046.9,1.5066,-8.5425
9058.6,0.89588,-9.4471
9070.3,0.30974,-11.547
9082,-1.416,-12.558
9093.8,-1.205,-10.8
9105.5,-0.9817,-11.699
9117.2,0.20776,-13.616
9128.9,1.3846,-11.072
9140.6,-0.809,-11.284
9152.3,-2.5742,-12.374
9164.1,0.80903,-9.1349
9175.8,0.76647,-9.1089
9187.5,0.62419,-12.044
9199.2,0.29638,-10.732
9210.9,-0.68423,-10.879
9222.7,-2.6114,-13.471
9234.4,-0.61041,-9.4552
9246.1,1.5143,-8.5272
9257.8,3.23,-8.8696
9269.5,-0.3952,-10.886
9281.3,0.96701,-14.662
9293,2.9917,-13.047
9304.7,0.90404,-12.665
9316.4,-0.55944,-10.942
9328.1,-1.1577,-8.9361
9339.8,-2.3098,-10.504
9351.6,0.28774,-12.02
9363.3,-0.82982,-11.369
9375,-4.2171,-12.469
9386.7,-0.51017,-11.703
9398.4,0.061686,-8.816
9410.2,-1.6081,-9.4486
9421.9,0.17504,-7.7747
9433.6,-0.095987,-10.41
9445.3,2.5121,-11.071
9457,1.7198,-12.208
9468.8,0.69992,-12.413
9480.5,-1.0112,-11.255
9492.2,-0.060575,-9.8015
9503.9,-0.19581,-7.8421
9515.6,-0.1647,-10.152
9527.3,1.1775,-11.49
9539.1,0.83396,-8.9395
9550.8,0.81614,-10.54
9562.5,2.8952,-8.9938
9574.2,0.91334,-9.3447
9585.9,-1.0286,-10.081
9597.7,-0.4671,-10.212
9609.4,-1.879,-10.993
9621.1,-1.0287,-13.796
9632.8,-0.078646,-11.775
9644.5,1.1359,-10.422
9656.3,-2.9321,-10.654
9668,-4.5446,-12.893
9679.7,-2.8446,-13.486
9691.4,0.79841,-11.065
9703.1,0.6762,-10.039
9714.8,2.2984,-10.789
9726.6,0.026249,-12.096
9738.3,-1.0725,-12.368
9750,-0.48269,-12.161
9761.7,-0.74355,-11.123
9773.4,-0.21292,-11.51
9785.2,-1.4751,-9.2371
9796.9,-1.8705,-9.0399
9808.6,-0.15295,-9.3226
9820.3,0.91752,-10.004
9832,0.2152,-10.761
9843.8,-0.16119,-10.777
9855.5,-1.0209,-9.5931
9867.2,0.96782,-9.4729
9878.9,1.2234,-9.4477
9890.6,1.4267,-10.769
9902.3,1.7349,-9.4556
9914.1,0.76426,-8.8986
9925.8,-0.19523,-7.9322
9937.5,1.4878,-11.14
9949.2,1.2647,-10.409
9960.9,2.2509,-10.066
9972.7,0.44615,-9.3253
9984.4,-1.3699,-10.604
9996.1,-3.4236,-13.513
10008,-2.2207,-11.815
10020,-1.016,-10.571
10031,-1.61,-10.377
10043,-1.0522,-7.6279
10055,0.43446,-8.2822
10066,1.2629,-8.477
10078,-1.1704,-9.4353
10090,0.74064,-11.283
10102,0.65347,-10.804
10113,1.2686,-12.246
10125,2.0237,-11.102
10137,-0.46319,-10.915
10148,-2.5796,-11.844
10160,-2.1137,-14.163
10172,-2.0946,-10.584
10184,-2.6972,-14.212
10195,-1.6025,-14.53
10207,1.1956,-13.403
10219,-0.56712,-13.898
10230,-2.0833,-12.188
10242,-1.268,-11.514
10254,-0.68078,-13.808
10266,-1.2081,-10.541
10277,-2.1486,-10.575
10289,-0.27522,-11.592
10301,-0.67447,-12.68
10313,-3.0567,-10.986
10324,-1.7476,-8.5433
10336,-1.0419,-10.357
10348,1.7671,-13.077
10359,0.065462,-12.744
10371,-1.6068,-12.253
10383,-3.0195,-10.704
10395,-3.3592,-8.8897
10406,-0.27888,-11.524
10418,0.18835,-10.162
10430,-2.2223,-10.936
10441,-2.8724,-11.795
10453,2.1418,-12.419
10465,-0.7852,-10.557
10477,-3.1696,-10.476
10488,-0.421,-11.845
10500,0.60774,-10.595
10512,-2.1443,-11.798
10523,-0.55156,-12.476
10535,0.15713,-11.929
10547,-0.27016,-10.849
10559,-2.367,-9.5522
10570,-0.35462,-10.931
10582,-1.2394,-10.201
10594,1.07,-10.864
10605,-2.5558,-12.945
10617,-4.8651,-9.9961
10629,0.079534,-9.5631
10641,0.90835,-10.421
10652,-0.52106,-9.6405
10664,-1.9402,-10.866
10676,-3.3016,-11.348
10688,-2.1024,-13.638
10699,-0.65063,-13.134
10711,-2.6076,-11.337
10723,-5.5607,-13.98
10734,-2.4763,-13.118
10746,-0.15741,-11.688
10758,-0.18773,-13.825
10770,-0.95986,-10.625
10781,-0.57144,-11.515
10793,-1.3124,-13.916
10805,-4.4519,-13.709
10816,-0.33011,-14.633
10828,-0.050221,-14.139
10840,0.065351,-12.958
10852,0.24152,-12.369
10863,1.7083,-11.949
10875,-2.18,-10.378
10887,-1.5745,-12.306
10898,-1.699,-11.56
10910,-2.7544,-10.753
10922,-1.7826,-11.451
10934,-0.83314,-14.599
10945,-0.86388,-11.555
10957,-1.1643,-11.45
10969,-0.13424,-10.852
10980,0.006678,-9.988
10992,-1.7241,-10.533
11004,-4.0283,-12.744
11016,-4.3027,-11.682
11027,-6.1021,-14.999
11039,-1.3991,-13.328
11051,-0.39244,-10.126
11063,-2.1389,-7.4154
11074,-2.2466,-10.969
11086,-2.9782,-11.574
11098,0.61749,-10.204
11109,-1.0993,-12.237
11121,-1.7226,-15.281
11133,-0.95293,-14.214
11145,-1.6819,-13.482
11156,1.3102,-13.307
11168,-0.72438,-9.13
11180,-1.9508,-9.442
11191,-1.9918,-11.058
11203,-3.6261,-11.361
11215,-1.975,-14.794
11227,-2.1203,-13.498
11238,-6.0999,-12.665
11250,-2.8759,-11.614
11262,-1.8198,-13.04
11273,-4.0477,-14.492
11285,-0.86242,-10.603
11297,0.63222,-11.393
11309,-1.1747,-11.211
11320,-1.8689,-10.975
11332,-1.507,-14.742
11344,-1.4502,-15.358
11355,-5.0064,-13.842
11367,-5.8518,-11.878
11379,-0.020647,-11.875
11391,1.8031,-13.622
11402,-1.4853,-13.217
11414,0.36857,-12.311
11426,-2.9328,-11.341
11438,-0.10656,-8.6407
11449,0.024111,-9.9199
11461,2.9451,-12.55
11473,4.1408,-13.506
11484,-1.7307,-10.991
11496,-5.5136,-11.519
11508,-1.8139,-12.783
11520,-3.1162,-14.147
11531,-3.9978,-15.155
11543,-5.3222,-13.603
11555,-4.0324,-11.279
11566,-1.6374,-10.373
11578,-1.9118,-10.231
11590,-5.8615,-10.221
11602,-5.2893,-11.89
11613,-0.34303,-13.728
11625,1.5855,-11.478
11637,0.95162,-12.157
11648,-1.8504,-12.926
11660,-1.8843,-9.2259
11672,1.8413,-10.129
11684,0.19821,-11.008
11695,-0.62008,-10.531
11707,-2.5433,-11.626
11719,-3.1543,-12.954
11730,-3.3532,-9.7474
11742,-0.27717,-10.722
11754,0.74523,-15.185
11766,-1.5965,-15.186
11777,-0.98372,-13.773
11789,-0.72019,-8.8433
11801,0.72932,-11.424
11813,-1.1393,-12.348
11824,-1.2024,-11.318
11836,-1.9339,-12.238
11848,-2.4106,-13.886
11859,-3.4312,-13.471
11871,-2.9003,-12.825
11883,-4.7014,-12.21
11895,-4.568,-12.433
11906,-1.3245,-10.319
11918,0.45117,-11.702
11930,-3.8194,-9.9203
11941,-6.1697,-10.847
11953,-3.2069,-12.159
11965,-3.8915,-13.91
11977,-2.8293,-13.335
11988,-2.6798,-12.661
12000,-3.1552,-10.503
12012,-2.4974,-13.741
12023,-3.0307,-13.656
12035,-4.1232,-12.929
12047,-1.6851,-10.454
12059,-2.4094,-10.511
12070,-4.9766,-13.627
12082,-1.9322,-15.353
12094,-1.0981,-13.355
12105,-3.0023,-11.663
12117,-4.5116,-12.37
12129,-2.172,-14.581
12141,-0.73656,-15.661
12152,-0.95161,-14.336
12164,-2.3903,-15.318
12176,-2.9282,-15.465
12188,-3.6251,-13.842
12199,0.491,-11.739
12211,0.62336,-13.349
12223,0.82043,-14.573
12234,0.71484,-13.987
12246,-1.5844,-12.901
12258,-3.3246,-13.22
12270,-3.8345,-11.534
12281,-2.8578,-13.24
12293,-4.4094,-15.81
12305,-3.4155,-15.919
12316,-2.8441,-12.672
12328,-5.8808,-12.956
12340,-4.4913,-14.69
12352,-5.3645,-10.528
12363,-5.3161,-8.5239
12375,-1.6214,-11.77
12387,0.67315,-15.088
12398,-4.3444,-12.78
12410,-4.5227,-12.185
12422,-2.3559,-13.156
12434,-5.855,-14.405
12445,-6.2557,-13.204
12457,-1.8667,-15.067
12469,0.3912,-14.903
12480,-3.9052,-11.814
12492,-3.9706,-10.494
12504,-3.4422,-12.862
12516,-1.042,-9.893
12527,-0.61733,-13.248
12539,-1.982,-14.173
12551,-2.489,-13.136
12563,-3.8279,-11.677
12574,-4.2321,-11.189
12586,-2.1753,-14.919
12598,-2.466,-16.491
12609,-3.8093,-14.472
12621,-1.4053,-12.437
12633,-0.26037,-9.9957
12645,-2.8908,-11.247
12656,-1.4975,-15.685
12668,-3.4315,-17.029
12680,-4.8125,-13.158
12691,-1.8037,-12.513
12703,-4.46,-13.645
12715,-2.7677,-10.132
12727,-1.8819,-11.82
12738,-2.3951,-13.39
12750,-3.0593,-13.603
12762,-1.868,-13.215
12773,-3.0225,-12.442
12785,-4.0028,-12.087
12797,-2.5596,-15.462
12809,-4.6797,-16.315
12820,-5.9693,-13.208
12832,-4.8429,-13.747
12844,-2.2388,-13.729
12855,-2.0085,-14.718
12867,-4.9124,-13.592
12879,-5.3648,-11.921
12891,-2.7948,-11.249
12902,-1.9249,-11.501
12914,-4.3825,-14.442
12926,-3.9724,-13.643
12938,-1.4336,-14.979
12949,-1.325,-14.378
12961,-3.1428,-12.045
12973,-4.5421,-11.368
12984,-5.1496,-13.056
12996,-4.0109,-11.994
13008,-3.5733,-13.537
13020,-4.1011,-15.207
13031,-3.3416,-15.03
13043,-3.1911,-15.96
13055,-2.007,-13.587
13066,-0.19432,-14.059
13078,-3.445,-12.517
13090,-4.5881,-11.024
13102,-3.246,-11.679
13113,-4.6365,-10.373
13125,-3.1577,-12.338
13137,-0.89639,-13.732
13148,-0.62662,-13.829
13160,1.0935,-11.265
13172,-4.8619,-11.087
13184,-6.0694,-15.612
13195,-7.4124,-16.372
13207,-5.3245,-16.329
13219,-2.6089,-16.065
13230,-3.6115,-13.359
13242,-4.0025,-13.155
13254,0.18697,-14.142
13266,-2.2216,-12.65
13277,-2.8467,-12.18
13289,-0.77509,-13.066
13301,-4.6826,-13.564
13313,-2.9665,-16.297
13324,-2.0967,-16.216
13336,-0.56674,-14.468
13348,-3.889,-14.618
13359,-5.3058,-11.835
13371,-6.0706,-11.949
13383,-3.0911,-14.662
13395,-1.4426,-17.572
13406,-3.9888,-13.724
13418,-5.3793,-13.809
13430,-1.9144,-12.683
13441,-0.52132,-15.57
13453,-3.3251,-13.622
13465,-5.2253,-15.036
13477,-4.4758,-13.618
13488,-1.8365,-11.641
13500,1.7075,-11.855
13512,-0.17732,-11.83
13523,-3.8819,-12.102
13535,-6.6646,-15.476
13547,-3.6045,-13.153
13559,-4.4845,-13.647
13570,-2.8036,-13.779
13582,-1.5935,-12.881
13594,-6.0662,-13.056
13605,-4.2924,-12.948
13617,-4.186,-12.531
13629,-6.1557,-13.909
13641,-7.3105,-12.192
13652,-6.6926,-11.533
13664,-3.2344,-12.029
13676,-3.0633,-14.921
13688,-5.1416,-16.765
13699,-3.6787,-15.198
13711,-4.2031,-12.472
13723,-6.501,-16.78
13734,-7.8368,-13.551
13746,-2.8722,-13.621
13758,-3.9437,-15.062
13770,-6.7119,-14.305
13781,-7.5149,-14.851
13793,-5.8763,-14.759
13805,-4.48,-12.859
13816,-4.0716,-15.939
13828,-5.8093,-12.809
13840,-7.713,-11.986
13852,-4.15,-14.05
13863,-5.3106,-15.457
13875,-4.8205,-15.449
13887,-4.0699,-14.922
13898,-5.0493,-17.349
13910,-1.7532,-13.906
13922,-2.594,-11.836
13934,-5.3243,-13.475
13945,-10.429,-14.057
13957,-3.6862,-13.072
13969,-1.8479,-15.169
13980,-0.66684,-16.634
13992,-0.76302,-15.591
14004,-1.9995,-14.026
14016,-5.9527,-13.132
14027,-2.9626,-13.346
14039,-2.3556,-13.303
14051,-3.9801,-13.309
14063,-7.2731,-14.042
14074,-4.6874,-15.058
14086,-1.6746,-15.986
14098,-2.6211,-16.036
14109,-6.6346,-15.154
14121,-5.7184,-16.608
14133,-3.6102,-15.723
14145,-3.4159,-11.999
14156,-0.39729,-15.183
14168,-1.4619,-12.561
14180,-3.2546,-12.315
14191,-5.1227,-14.513
14203,-5.9953,-14.282
14215,-7.0197,-14.868
14227,-4.311,-14.46
14238,-4.0069,-11.341
14250,-5.0469,-14.457
14262,-4.2615,-16.822
14273,-2.2695,-17.954
14285,-3.3495,-15.146
14297,-8.3572,-16.213
14309,-5.9064,-17.074
14320,-4.7876,-14.975
14332,-4.1677,-14.536
14344,-2.5224,-13.526
14355,-4.9349,-13.381
14367,-4.9203,-15.599
14379,-4.4689,-16.805
14391,-6.1546,-19.781
14402,-7.2885,-16.79
14414,-4.466,-14.238
14426,-4.1261,-12.32
14438,-5.7271,-15.12
14449,-3.7148,-17.387
14461,-3.2671,-14.875
14473,-5.5043,-14.015
14484,-5.5725,-15.762
14496,-3.8242,-16.11
14508,-4.5079,-15.801
14520,-3.9452,-14.503
14531,-1.6403,-14.749
14543,-1.1333,-12.748
14555,-3.5041,-10.346
14566,-3.7603,-9.9885
14578,-6.7789,-15.383
14590,-5.4887,-17.155
14602,-2.9346,-14.766
14613,-5.0977,-16.848
14625,-5.7617,-17.92
14637,-3.3045,-17.387
14648,-2.606,-15.527
14660,-2.3803,-14.052
14672,0.4312,-13.601
14684,-3.4974,-12.769
14695,-6.3171,-12.648
14707,-3.4814,-12.189
14719,-3.6321,-13.013
14730,-5.051,-13.327
14742,-5.2334,-15.27
14754,-5.1459,-11.468
14766,-4.9259,-12.096
14777,-3.254,-15.192
14789,-4.7311,-18.105
14801,-6.7046,-17.577
14813,-6.8172,-13.619
14824,-4.9694,-11.703
14836,-5.1018,-15.504
14848,-5.3973,-14.777
14859,-5.9414,-13.968
14871,-5.8797,-15.574
14883,-5.445,-16.891
14895,-4.8954,-16.41
14906,-5.6051,-14.827
14918,-2.7682,-15.758
14930,-4.3102,-13.568
14941,-5.363,-13.952
14953,-5.4757,-14.861
14965,-7.2589,-12.552
14977,-4.1594,-12.174
14988,-2.1481,-13.521
15000,-3.7011,-14.417
15012,-4.9994,-12.379
15023,-7.6724,-12.647
15035,-3.3016,-15.153
15047,-0.99102,-17.622
15059,-1.8857,-17.021
15070,-5.1506,-17.096
15082,-4.0516,-15.76
15094,-3.5165,-16.47
15105,-4.8211,-15.426
15117,-6.4963,-12.899
15129,-6.8692,-13.793
15141,-6.6023,-16.485
15152,-4.1753,-14.076
15164,-4.6755,-14.377
15176,-6.8308,-14.701
15188,-5.2421,-15.951
15199,-7.35,-16.703
15211,-7.7391,-15.666
15223,-4.4939,-13.275
15234,-2.6659,-11.782
15246,-4.0106,-12.365
15258,-6.163,-14.644
15270,-5.6409,-16.122
15281,-5.4049,-17.637
15293,-5.8545,-16.716
15305,-7.3853,-20.427
15316,-6.7545,-16.584
15328,-4.7822,-17.598
15340,-7.787,-18.659
15352,-11.098,-14.249
15363,-8.9319,-13.021
15375,-5.2763,-14.748
15387,-3.4523,-16.654
15398,-4.0376,-16.021
15410,-4.889,-16.519
15422,-6.277,-16.064
15434,-5.2399,-15.988
15445,-4.4592,-15.754
15457,-7.456,-15.846
15469,-8.5621,-15.35
15480,-8.0882,-15.162
15492,-7.454,-16.329
15504,-5.6834,-15.582
15516,-5.0448,-14.768
15527,-8.0092,-14.148
15539,-7.0942,-15.661
15551,-7.2921,-16.714
15563,-7.4527,-15.021
15574,-6.0554,-16.388
15586,-6.3063,-16.423
15598,-8.4384,-17.56
15609,-10.452,-17.655
15621,-8.6555,-17.568
15633,-7.1267,-18.836
15645,-7.263,-15.922
15656,-5.1641,-14.792
15668,-6.198,-14.605
15680,-6.2127,-16.572
15691,-6.5402,-15.118
15703,-8.0629,-15.133
15715,-6.5582,-16.958
15727,-5.8712,-16.981
15738,-7.644,-18.388
15750,-9.8878,-17.722
15762,-10.94,-14.654
15773,-6.0419,-14.57
15785,-8.4124,-14.983
15797,-10.363,-14.765
15809,-8.076,-15.555
15820,-5.2167,-16.747
15832,-5.5705,-15.104
15844,-3.9283,-16.83
15855,-5.7146,-13.882
15867,-7.8226,-11.511
15879,-8.5598,-15.959
15891,-9.5895,-15.02
15902,-8.2475,-13.762
15914,-6.7843,-12.544
15926,-7.1067,-13.603
15938,-7.9534,-20.204
15949,-8.302,-15.916
15961,-8.2364,-16.284
15973,-8.9417,-16.02
15984,-7.6414,-16.39
15996,-4.8536,-10.764
16008,-3.5877,-13.816
16020,-7.0734,-15.276
16031,-11.164,-16.674
16043,-10.574,-17.745
16055,-6.5808,-13.443
16066,-5.8668,-13.66
16078,-7.4288,-17.971
16090,-9.1927,-18.552
16102,-7.5625,-15.123
16113,-7.5989,-13.411
16125,-10.467,-15.211
16137,-7.5271,-13.689
16148,-6.5117,-12.507
16160,-8.5466,-14.663
16172,-10.958,-18.307
16184,-10.559,-18.071
16195,-6.5548,-14.747
16207,-6.057,-15.259
16219,-10.248,-17.855
16230,-9.5926,-17.838
16242,-6.0327,-16.379
16254,-7.0725,-15.803
16266,-7.9897,-14.264
16277,-8.9862,-17.404
16289,-10.255,-14.917
16301,-9.6716,-14.237
16313,-9.0253,-13.601
16324,-8.832,-12.428
16336,-10.5,-15.036
16348,-11.399,-16.269
16359,-9.1842,-14.641
16371,-6.051,-13.889
16383,-5.4936,-15.036
16395,-9.2723,-13.144
16406,-11.023,-13.037
16418,-7.5399,-14.535
16430,-5.8872,-15.116
16441,-5.11,-13.304
16453,-7.0175,-12.864
16465,-13.847,-15.433
16477,-11.459,-18.685
16488,-9.3143,-19.535
16500,-8.1295,-15.405
16512,-8.0909,-14.004
16523,-8.2825,-14.317
16535,-12.636,-16.324
16547,-14.324,-13.862
16559,-9.9518,-12.556
16570,-7.0216,-16.118
16582,-9.0662,-14.86
16594,-8.3279,-14.845
16605,-9.5725,-14.4
16617,-9.8236,-15.597
16629,-10.189,-16.897
16641,-8.5106,-15.525
16652,-8.3915,-17.293
16664,-9.7378,-17.741
16676,-12.31,-16.915
16688,-11.414,-14.356
16699,-9.8505,-13.346
16711,-7.4843,-17.747
16723,-6.5478,-15.142
16734,-7.1133,-11.934
16746,-14.121,-14.244
16758,-9.8792,-15.811
16770,-10.472,-15.186
16781,-12.715,-18.049
16793,-6.721,-19.923
16805,-7.8023,-17.014
16816,-7.3615,-16.555
16828,-6.169,-18.036
16840,-9.2226,-18.817
16852,-6.9555,-17.302
16863,-4.2091,-16.497
16875,-6.9314,-14.941
16887,-9.8362,-14.114
16898,-10.447,-15.546
16910,-10.921,-15.301
16922,-10.51,-15.349
16934,-9.9547,-15.247
16945,-8.1021,-18.074
16957,-10.903,-16.869
16969,-10.584,-15.54
16980,-10.562,-16.864
16992,-8.8371,-13.755
17004,-10.666,-11.915
17016,-12.699,-15.056
17027,-8.5123,-14.967
17039,-7.9176,-17.357
17051,-9.9405,-18.737
17063,-7.283,-15.414
17074,-8.4181,-16.407
17086,-10.441,-16.791
17098,-9.7141,-17.811
17109,-8.7613,-21.521
17121,-9.9507,-19.725
17133,-8.535,-18.559
17145,-9.7649,-16.603
17156,-12.731,-16.542
17168,-12.787,-16.653
17180,-11.254,-15.89
17191,-8.641,-17.993
17203,-10.895,-16.448
17215,-12.433,-15.231
17227,-13.595,-16.697
17238,-13.625,-18.415
17250,-9.7809,-17.161
17262,-6.6571,-14.626
17273,-9.4276,-15.774
17285,-12.317,-16.848
17297,-9.5646,-14.542
17309,-9.7905,-14.44
17320,-12.611,-16.777
17332,-12.672,-14.86
17344,-12.485,-13.383
17355,-11.417,-15.7
17367,-11.149,-14.935
17379,-11.714,-13.395
17391,-11.102,-15.753
17402,-10.876,-15.794
17414,-10.547,-15.781
17426,-10.36,-18.201
17438,-10.224,-15.563
17449,-12.333,-16.794
17461,-10.967,-18.451
17473,-9.4433,-15.384
17484,-12.437,-13.468
17496,-8.9198,-14.233
17508,-9.2984,-15.838
17520,-9.2593,-13.305
17531,-11.524,-14.655
17543,-14.386,-18.839
17555,-13.716,-17.292
17566,-12.17,-17.395
17578,-10.972,-16.959
17590,-13.767,-17.563
17602,-11.68,-17.729
17613,-7.8657,-16.267
17625,-8.579,-16.155
17637,-12.764,-18.217
17648,-11.49,-16.859
17660,-11.839,-15.691
17672,-10.798,-17.168
17684,-10.754,-16.766
17695,-11.308,-17.63
17707,-11.611,-16.036
17719,-11.668,-18.283
17730,-12.75,-16.346
17742,-11.185,-16.721
17754,-10.147,-17.68
17766,-11.554,-19.579
17777,-10.32,-19.593
17789,-8.9406,-15.525
17801,-10.4,-14.825
17813,-12.063,-15.614
17824,-11.729,-14.719
17836,-11.251,-15.803
17848,-13.482,-17.762
17859,-12.083,-20.87
17871,-11.412,-16.748
17883,-12.462,-16.013
17895,-12.65,-18.215
17906,-12.046,-17.99
17918,-13.878,-16.659
17930,-12.476,-15.97
17941,-10.959,-13.088
17953,-9.8637,-14.586
17965,-10.813,-19.343
17977,-12.082,-17.84
17988,-11.203,-16.363
18000,-9.2779,-13.39
18012,-10.615,-13.425
18023,-13.516,-13.106
18035,-9.7831,-13.476
18047,-12.269,-18.447
18059,-12.91,-16.88
18070,-15.005,-18.803
18082,-12.032,-18.136
18094,-11.876,-19.591
18105,-10.818,-19.781
18117,-11.312,-17.131
18129,-11.425,-19.362
18141,-10.673,-20.153
18152,-10.237,-19.156
18164,-8.2334,-14.899
18176,-10.602,-14.825
18188,-10.265,-16.206
18199,-8.5739,-16.901
18211,-12.532,-18.675
18223,-9.448,-19.821
18234,-10.959,-19.009
18246,-14.122,-17.021
18258,-11.612,-14.083
18270,-9.9033,-15.275
18281,-11.26,-17.635
18293,-11.831,-18.742
18305,-11.316,-15.546
18316,-13.273,-17.653
18328,-13.744,-16.847
18340,-11.473,-19.005
18352,-8.7846,-18.746
18363,-9.2635,-17.408
18375,-13.033,-16.285
18387,-15.101,-16.645
18398,-13.521,-18.263
18410,-14.346,-15.413
18422,-13.422,-18.47
18434,-11.87,-16.014
18445,-16.214,-17.242
18457,-11.596,-16.583
18469,-9.9849,-16.663
18480,-10.92,-16.283
18492,-11.22,-16.129
18504,-9.89,-14.314
18516,-12.791,-16.639
18527,-10.981,-17.436
18539,-9.2897,-17.191
18551,-11.499,-15.416
18563,-11.443,-19.085
18574,-11.615,-18.615
18586,-12.548,-17.957
18598,-15.087,-16.054
18609,-14.162,-14.303
18621,-14.278,-16.527
18633,-14.102,-17.711
18645,-11.275,-14.506
18656,-12.156,-15.23
18668,-13.807,-17.718
18680,-10.287,-18.297
18691,-10.181,-14.365
18703,-12.862,-15.653
18715,-10.981,-15.303
18727,-11.114,-16.985
18738,-12.256,-18.017
18750,-11.376,-16.621
18762,-9.8458,-15.026
18773,-14.589,-17.863
18785,-11.747,-21.478
18797,-12.211,-18.04
18809,-12.33,-17.859
18820,-12.748,-17.958
18832,-11.919,-16.78
18844,-10.21,-18.499
18855,-12.828,-19.721
18867,-12.371,-19.68
18879,-13.27,-19.057
18891,-11.366,-17.082
18902,-11.371,-17.135
18914,-8.4835,-17.731
18926,-9.6189,-18.396
18938,-9.7389,-16.868
18949,-12.044,-15.023
18961,-14.496,-16.208
18973,-10.627,-15.707
18984,-12.896,-18.113
18996,-12.335,-16.477
19008,-12.52,-16.05
19020,-12.553,-17.056
19031,-11.411,-15.691
19043,-11.853,-16.414
19055,-12.846,-17.681
19066,-11.654,-17.989
19078,-11.381,-17.794
19090,-11.923,-15.427
19102,-12.024,-15.897
19113,-9.2601,-20.25
19125,-11.482,-21.464
19137,-12.869,-20.945
19148,-13.385,-19.395
19160,-14.06,-21.63
19172,-13.317,-15.834
19184,-10.974,-15
19195,-12.485,-20.092
19207,-13.124,-18.347
19219,-11.585,-20.494
19230,-12.235,-19.31
19242,-11.028,-16.551
19254,-10.04,-17.455
19266,-9.8416,-21.867
19277,-11.339,-18.523
19289,-11.804,-19.611
19301,-12.665,-18.67
19313,-11.61,-19.487
19324,-12.872,-16.608
19336,-14.431,-16.748
19348,-14.931,-18.573
19359,-16.553,-19.12
19371,-13.102,-20.296
19383,-12.576,-17.992
19395,-13.742,-16.344
19406,-13.504,-16.722
19418,-12.293,-18.752
19430,-11.394,-19.394
19441,-12.442,-18.622
19453,-13.609,-19.67
19465,-14.903,-18.893
19477,-13.258,-18.307
19488,-13.938,-20
19500,-14.847,-16.982
19512,-14.632,-15.185
19523,-16.746,-15.93
19535,-16.047,-16.949
19547,-13.602,-18.915
19559,-13.985,-20.083
19570,-12.611,-17.455
19582,-11.883,-15.801
19594,-13.351,-18.603
19605,-14.169,-19.137
19617,-13.929,-17.769
19629,-9.889,-16.115
19641,-8.6794,-18.969
19652,-13.444,-18.688
19664,-14.104,-18.026
19676,-16.117,-20.542
19688,-18.222,-17.936
19699,-15.146,-19.351
19711,-14.21,-21.065
19723,-12.14,-19.363
19734,-12.485,-17.325
19746,-9.0212,-16.408
19758,-10.903,-16.119
19770,-15.104,-17.178
19781,-13.33,-16.321
19793,-14.218,-16.12
19805,-14.306,-16.238
19816,-13.907,-15.92
19828,-14.767,-17.433
19840,-12.667,-16.836
19852,-12.184,-16.201
19863,-12.173,-17.668
19875,-12.543,-19
19887,-12.336,-17.845
19898,-11.338,-19.86
19910,-13.498,-17.967
19922,-13.482,-18.134
19934,-13.672,-16.715
19945,-15.024,-17.099
19957,-14.354,-20.338
19969,-15.243,-19.121
19980,-15.3,-18.502
19992,-16.064,-15.759
20004,-14.977,-15.43
20016,-15.697,-18.256
20027,-17.074,-20.807
20039,-14.064,-21.015
20051,-12.384,-19.849
20063,-14.338,-24.058
20074,-11.016,-20.006
20086,-10.788,-19.271
20098,-13.677,-19.743
20109,-17.019,-16.903
20121,-14.762,-15.242
20133,-16.087,-17.036
20145,-17.496,-18.878
20156,-18.62,-18.724
20168,-13.226,-19.881
20180,-14.055,-21.897
20191,-15.59,-19.655
20203,-16.311,-16.996
20215,-14.092,-17.503
20227,-12.956,-16.134
20238,-14.061,-16.582
20250,-13.899,-18.241
20262,-13.545,-18.236
20273,-12.917,-17.659
20285,-13.719,-17.938
20297,-14.596,-20.8
20309,-14.816,-20.025
20320,-12.715,-19.789
20332,-13.6,-17.915
20344,-13.557,-20.127
20355,-14.325,-18.807
20367,-16.87,-18.492
20379,-16.15,-18.039
20391,-17.29,-17.958
20402,-15.478,-15.912
20414,-14.615,-17.202
20426,-14.533,-18.951
20438,-13.97,-17.936
20449,-16.009,-17.143
20461,-14.54,-19.624
20473,-16.22,-18.416
20484,-14.905,-15.096
20496,-10.943,-16.384
20508,-10.79,-22.187
20520,-16.356,-22.214
20531,-14.849,-19.728
20543,-14.795,-22.005
20555,-18.091,-21.248
20566,-17.004,-19.812
20578,-13.654,-17.941
20590,-15.055,-17.227
20602,-17.041,-15.153
20613,-11.772,-15.636
20625,-10.114,-19.844
20637,-10.28,-20.993
20648,-12.581,-22.152
20660,-13.847,-23.023
20672,-15.516,-22.267
20684,-18.543,-19.01
20695,-17.622,-19.819
20707,-16.676,-18.808
20719,-12.284,-18.866
20730,-14.207,-21.437
20742,-15.996,-20.674
20754,-14.615,-21.569
20766,-14.36,-20.039
20777,-16.652,-21.341
20789,-18.381,-21.134
20801,-17.914,-16.629
20813,-15.605,-16.656
20824,-17.875,-18.174
20836,-18.242,-18.68
20848,-16.757,-16.566
20859,-17.302,-16.468
20871,-15.787,-19.354
20883,-15.585,-19.918
20895,-17.021,-19.131
20906,-16.661,-18.643
20918,-15.247,-19.155
20930,-14.984,-19.888
20941,-14.97,-21.332
20953,-17.515,-20.785
20965,-16.327,-17.505
20977,-15.892,-15.545
20988,-16.046,-17.309
21000,-14.838,-17.195
21012,-13.679,-19.899
21023,-13.414,-18.642
21035,-13.247,-18.036
21047,-15.555,-16.869
21059,-14.733,-15.812
21070,-14.283,-20.155
21082,-11.372,-21.824
21094,-12.618,-18.676
21105,-17.778,-18.577
21117,-14.35,-16.26
21129,-13.114,-17.245
21141,-13.694,-20.035
21152,-14.544,-20.168
21164,-15.929,-20.804
21176,-15.244,-18.98
21188,-14.948,-18.445
21199,-15.23,-19.623
21211,-15.375,-17.215
21223,-16.003,-17.263
21234,-18.162,-20.658
21246,-14.528,-19.154
21258,-11.883,-19.079
21270,-13.283,-18.834
21281,-15.798,-19.072
21293,-17.947,-19.769
21305,-17.82,-18.454
21316,-16.18,-17.977
21328,-13.141,-18.574
21340,-12.169,-19.808
21352,-13.139,-18.937
21363,-16.989,-17.297
21375,-15.998,-17.957
21387,-15.298,-17.947
21398,-15.804,-18.157
21410,-15.796,-17.068
21422,-15.233,-17.872
21434,-13.266,-20.943
21445,-12.893,-21.192
21457,-13.753,-19.944
21469,-17.418,-20.738
21480,-16.334,-22.776
21492,-14.589,-19.808
21504,-14.741,-15.844
21516,-13.367,-15.389
21527,-11.621,-17.626
21539,-12.8,-16.511
21551,-13.116,-17.665
21563,-13.932,-19.419
21574,-12.935,-20.04
21586,-16.41,-21.786
21598,-20.307,-17.718
21609,-18.578,-15.332
21621,-16.884,-16.503
21633,-14.975,-18.011
21645,-14.143,-19.398
21656,-14.07,-19.878
21668,-14.811,-18.891
21680,-14.456,-19.952
21691,-14.202,-21.547
21703,-15.696,-19.302
21715,-15.213,-20.494
21727,-14.764,-21.006
21738,-16.918,-21.364
21750,-17.638,-20.537
21762,-20.367,-22.9
21773,-22.175,-20.256
21785,-19.828,-19.779
21797,-18.879,-20.551
21809,-17.101,-19.634
21820,-15.997,-17.68
21832,-18.573,-16.231
21844,-16.664,-19.307
21855,-14.196,-16.923
21867,-16.535,-18.582
21879,-13.775,-20.126
21891,-13.808,-18.691
21902,-14.714,-16.732
21914,-13.21,-17.689
21926,-13.75,-19.787
21938,-14.947,-18.876
21949,-15.558,-19.162
21961,-17.952,-21.533
21973,-17.892,-19.799
21984,-14.541,-20.125
21996,-14.606,-17.514
22008,-16.349,-15.764
22020,-17.083,-16.453
22031,-17.3,-18.187
22043,-17.536,-20.684
22055,-15.12,-22.513
22066,-15.299,-21.091
22078,-16.716,-19.656
22090,-15.696,-21.796
22102,-14.381,-19.696
22113,-13.079,-19.271
22125,-14.178,-18.219
22137,-13.64,-16.601
22148,-14.151,-20.162
22160,-16.185,-21.801
22172,-15.97,-18.309
22184,-16.305,-19.657
22195,-15.908,-19.954
22207,-15.65,-21.342
22219,-14.993,-20.373
22230,-13.241,-19.441
22242,-14.733,-20.669
22254,-18.022,-19.083
22266,-19.379,-19.309
22277,-16.895,-18.97
22289,-14.458,-18.629
22301,-13.761,-17.787
22313,-17.305,-18.1
22324,-18.833,-18.946
22336,-16.561,-22.307
22348,-16.829,-23.615
22359,-15.836,-24.352
22371,-15.468,-23.783
22383,-16.574,-24.441
22395,-16.419,-23.006
22406,-17.435,-20.395
22418,-17.289,-17.913
22430,-15.107,-15.39
22441,-16.518,-16.387
22453,-17.755,-18.476
22465,-14.933,-19.053
22477,-14.905,-18.21
22488,-16.101,-22.202
22500,-17.116,-21.311
22512,-17.228,-23.43
22523,-18.342,-18.754
22535,-17.915,-16.423
22547,-15.434,-20.419
22559,-14.566,-15.427
22570,-17.892,-20.154
22582,-15.043,-19.697
22594,-14.849,-18.114
22605,-15.996,-21.058
22617,-14.064,-19.573
22629,-15.845,-19.538
22641,-15.872,-17.993
22652,-17.577,-18.411
22664,-18.296,-19.667
22676,-17.216,-18.348
22688,-16.151,-20.219
22699,-16.862,-22.776
22711,-18.144,-19.136
22723,-17.706,-18.655
22734,-15.298,-19.928
22746,-14.27,-17.37
22758,-15.418,-16.675
22770,-14.159,-19.261
22781,-16.861,-20.109
22793,-16.283,-20.747
22805,-17.271,-21.774
22816,-17.735,-20.15
22828,-15.613,-19.361
22840,-18.26,-18.701
22852,-18.532,-19.294
22863,-16.972,-18.743
22875,-16.587,-20.164
22887,-17.613,-21.851
22898,-16.142,-18.047
22910,-19.505,-18.275
22922,-18.33,-22.539
22934,-16.342,-22.308
22945,-17.144,-20.861
22957,-19.626,-20.578
22969,-18.057,-18.841
22980,-17.126,-16.938
22992,-18.834,-18.853
23004,-17.917,-19.954
23016,-14.582,-22.155
23027,-14.203,-21.666
23039,-16.483,-18.219
23051,-17.606,-17.497
23063,-16.182,-19.449
23074,-16.219,-19.253
23086,-17.167,-18.956
23098,-16.844,-17.526
23109,-20.845,-18.8
23121,-16.148,-20.89
23133,-16.659,-22.092
23145,-17.845,-22.642
23156,-18.062,-23.856
23168,-18.501,-20.95
23180,-18.541,-20.569
23191,-20.656,-18.599
23203,-19.731,-17.832
23215,-16.811,-20.361
23227,-16.846,-19.204
23238,-16.987,-21.188
23250,-14.095,-20.808
23262,-15.509,-19.103
23273,-15.819,-23.391
23285,-16.065,-20.59
23297,-15.934,-25.529
23309,-15.026,-22.973
23320,-18.57,-19.207
23332,-20.97,-17.27
23344,-18.149,-21.891
23355,-16.621,-24.603
23367,-16.125,-19.584
23379,-15.427,-18.306
23391,-15.265,-21.297
23402,-14.688,-19.577
23414,-16.018,-20.207
23426,-20.468,-19.393
23438,-18.146,-19.491
23449,-16.457,-16.83
23461,-17.277,-18.048
23473,-16.679,-20.893
23484,-16.22,-17.068
23496,-18.086,-18.18
23508,-20.689,-21.47
23520,-18.928,-21.495
23531,-20.364,-18.823
23543,-20.857,-21.196
23555,-20.517,-21.773
23566,-20.428,-20.883
23578,-20.845,-21.427
23590,-15.967,-19.378
23602,-18.105,-17.793
23613,-19.963,-18.724
23625,-17.568,-20.868
23637,-16.796,-21.615
23648,-16.418,-21.484
23660,-16.81,-19.829
23672,-17.566,-22.841
23684,-15.672,-20.978
23695,-15.544,-22.258
23707,-15.772,-22.958
23719,-17.566,-20.181
23730,-17.372,-19.086
23742,-18.076,-20.469
23754,-17.257,-21.828
23766,-15.522,-20.174
23777,-16.969,-17.595
23789,-13.62,-20.329
23801,-13.836,-20.402
23813,-15.85,-20.364
23824,-18.255,-22.201
23836,-19.51,-18.9
23848,-18.841,-19.632
23859,-17.785,-21.267
23871,-20.095,-19.791
23883,-18.296,-19.461
23895,-17.071,-19.252
23906,-18.908,-18.492
23918,-19.048,-17.146
23930,-21.401,-19.56
23941,-19.938,-21.976
23953,-19.087,-21.832
23965,-19.772,-21.204
23977,-17.758,-21.331
23988,-17.496,-19.346
