FFT,Power Spectrum
Frequency[Hz],Level-L[dB],Level-R[dB]
11.719,-2.374,-62.412
23.438,17.954,-51.968
35.156,15.856,-39.711
46.875,11.385,-27.302
58.594,12.458,-25.65
70.313,14.962,-30.539
82.031,16.438,-27.608
93.75,23.377,-24.903
105.47,22.14,-25.752
117.19,15.818,-22.237
128.91,16.829,-21.621
140.63,23.186,-18.033
152.34,22.11,-15.724
164.06,17.885,-17.918
175.78,16.12,-18.075
187.5,19.927,-18.502
199.22,22.405,-16.673
210.94,17.906,-14.939
222.66,16.197,-15.902
234.38,17.123,-15.108
246.09,15.756,-13.522
257.81,17.121,-12.447
269.53,15.038,-16.276
281.25,13.049,-16.435
292.97,13.75,-16.49
304.69,16.696,-16.144
316.41,17.245,-14.414
328.13,16.371,-11.745
339.84,16.682,-11.059
351.56,17.94,-11.283
363.28,18.811,-11.88
375,15.88,-11.897
386.72,9.4207,-13.545
398.44,12.692,-10.454
410.16,16.123,-7.8976
421.88,18.194,-13.446
433.59,18.396,-10.516
445.31,20.181,-8.0865
457.03,16.598,-10.617
468.75,21.019,-9.2498
480.47,31.57,-12.687
492.19,50.209,-11.935
503.91,52.318,-13.229
515.63,41.516,-11.322
527.34,23.531,-9.6242
539.06,16.805,-9.3451
550.78,14.531,-8.0086
562.5,18.608,-9.5532
574.22,22.696,-10.57
585.94,20.806,-10.577
597.66,23.514,-8.2256
609.38,24.334,-7.0687
621.09,24.53,-11.298
632.81,22.363,-10.929
644.53,16.345,-10.563
656.25,18.76,-12.448
667.97,17.525,-9.6116
679.69,18.53,-9.3435
691.41,18.855,-8.7895
703.13,20.148,-11.951
714.84,20.656,-9.3504
726.56,16.65,-9.6469
738.28,18.42,-12.225
750,17.243,-8.4587
761.72,16.429,-6.7464
773.44,17.418,-8.1596
785.16,14.956,-8.4429
796.88,20.453,-6.4867
808.59,18.844,-5.884
820.31,18.534,-7.7708
832.03,18.918,-8.1124
843.75,18.601,-8.2234
855.47,17.471,-9.499
867.19,18.067,-11.158
878.91,19.074,-10.487
890.63,18.686,-8.3478
902.34,18.225,-7.424
914.06,18.876,-7.8163
925.78,20.311,-7.6487
937.5,18.598,-6.0025
949.22,16.583,-5.3716
960.94,13.891,-6.204
972.66,14.758,-5.5025
984.38,16.413,-5.2127
996.09,16.297,-6.6085
1007.8,17.235,-7.4385
1019.5,17.546,-9.5509
1031.3,14.66,-9.3078
1043,14.841,-7.612
1054.7,16.615,-7.8229
1066.4,15.136,-12.11
1078.1,13.611,-7.7618
1089.8,15.353,-6.7298
1101.6,15.233,-7.7559
1113.3,17.84,-10.173
1125,19.07,-12.338
1136.7,19.211,-7.6263
1148.4,19.541,-8.331
1160.2,17.198,-7.7828
1171.9,14.787,-5.2922
1183.6,16.725,-9.6182
1195.3,20.13,-8.4268
1207,20.239,-6.2185
1218.8,16.806,-7.1514
1230.5,17.439,-9.6709
1242.2,15.579,-9.7178
1253.9,15.822,-8.1451
1265.6,14.607,-7.2195
1277.3,14.99,-6.7947
1289.1,15.479,-9.7083
1300.8,16.655,-9.0174
1312.5,13.296,-6.3
1324.2,12.201,-5.4791
1335.9,12.011,-6.7053
1347.7,15.198,-7.783
1359.4,14.144,-6.534
1371.1,12.949,-9.0591
1382.8,14.359,-7.3435
1394.5,12.05,-7.0778
1406.3,17.582,-6.6433
1418,20.514,-4.6631
1429.7,18.049,-6.8611
1441.4,17.555,-8.9298
1453.1,17.907,-8.7923
1464.8,17.914,-5.4065
1476.6,16.973,-6.0027
1488.3,15.169,-7.4381
1500,18.488,-7.6568
1511.7,19.433,-7.8849
1523.4,18.816,-8.0171
1535.2,18.855,-8.0366
1546.9,16.57,-8.6002
1558.6,13.7,-6.6218
1570.3,13.171,-8.9675
1582,14.385,-12.694
1593.8,14.611,-9.9046
1605.5,11.418,-7.16
1617.2,13.182,-7.058
1628.9,16.282,-6.148
1640.6,17.461,-7.4247
1652.3,15.008,-9.0343
1664.1,14.407,-9.7326
1675.8,14.116,-4.9638
1687.5,14.09,-6.5812
1699.2,14.707,-7.7044
1710.9,16.779,-6.8134
1722.7,16.079,-8.2976
1734.4,16.288,-9.58
1746.1,13.906,-13.356
1757.8,12.187,-9.8411
1769.5,14.568,-4.8904
1781.3,15.119,-5.41
1793,15.436,-11.256
1804.7,17.458,-10.074
1816.4,18.835,-8.9936
1828.1,16.395,-8.5889
1839.8,13.319,-7.0234
1851.6,16.186,-8.5081
1863.3,16.634,-8.9621
1875,15.054,-9.4199
1886.7,14.846,-10.407
1898.4,15.111,-7.7868
1910.2,12.672,-9.7559
1921.9,14.181,-7.4881
1933.6,14.526,-6.9348
1945.3,12.699,-8.1981
1957,10.164,-9.1065
1968.8,9.8521,-8.7194
1980.5,12.599,-11.293
1992.2,12.17,-5.9983
2003.9,13.037,-4.4111
2015.6,14.208,-5.5578
2027.3,10.725,-4.2945
2039.1,12.124,-6.2016
2050.8,14.818,-5.7144
2062.5,14.626,-8.2249
2074.2,13.71,-8.418
2085.9,11.873,-8.9463
2097.7,12.865,-7.3569
2109.4,14.132,-8.1857
2121.1,14.041,-6.7986
2132.8,11.921,-9.2369
2144.5,9.4234,-8.1227
2156.3,12.145,-5.5544
2168,13.187,-6.038
2179.7,13.49,-7.377
2191.4,13.772,-7.724
2203.1,14.186,-8.625
2214.8,12.948,-9.7378
2226.6,9.5563,-7.8506
2238.3,8.651,-6.5891
2250,12.001,-6.9735
2261.7,11.966,-7.6032
2273.4,11.562,-8.6276
2285.2,12.074,-8.3893
2296.9,12.812,-7.8046
2308.6,14.601,-8.2951
2320.3,15.125,-4.9904
2332,13.949,-6.0157
2343.8,13.217,-7.2388
2355.5,10.693,-6.3434
2367.2,12.418,-8.0416
2378.9,11.95,-9.2397
2390.6,14.449,-11.41
2402.3,15.313,-9.8349
2414.1,12.582,-5.6466
2425.8,10.115,-4.8254
2437.5,10.858,-5.1373
2449.2,9.5223,-8.9462
2460.9,12.62,-7.9488
2472.7,13.787,-5.2968
2484.4,13.067,-5.8327
2496.1,13.411,-7.1686
2507.8,12.109,-8.1598
2519.5,12.666,-8.1071
2531.3,11.07,-7.8108
2543,12.482,-9.2325
2554.7,15.184,-7.4523
2566.4,14.057,-9.5768
2578.1,12.997,-10.38
2589.8,12.605,-6.6123
2601.6,11.449,-8.0056
2613.3,10.358,-7.9639
2625,10.708,-7.1042
2636.7,12.403,-6.0822
2648.4,13.758,-3.3695
2660.2,15.195,-4.7035
2671.9,13.73,-4.5741
2683.6,11.018,-5.7192
2695.3,10.692,-8.3882
2707,11.156,-8.5465
2718.8,10.421,-7.1303
2730.5,9.9348,-5.6726
2742.2,11.218,-6.6658
2753.9,15.208,-4.2068
2765.6,14.63,-5.4198
2777.3,10.208,-6.4879
2789.1,8.7285,-7.2981
2800.8,11.019,-6.3254
2812.5,10.222,-8.2831
2824.2,9.8567,-9.1993
2835.9,11.98,-6.8312
2847.7,9.9678,-7.2289
2859.4,10.409,-8.4451
2871.1,13.282,-7.0843
2882.8,13.221,-6.7559
2894.5,11.013,-6.7458
2906.3,11.597,-5.5557
2918,13.278,-5.9797
2929.7,11.653,-7.7144
2941.4,9.9663,-10.362
2953.1,10.274,-11.849
2964.8,11.58,-8.3598
2976.6,11.468,-7.5076
2988.3,11.183,-5.56
3000,9.5219,-6.3556
3011.7,9.9628,-9.069
3023.4,10.448,-9.1178
3035.2,11.987,-11.412
3046.9,13.138,-8.8789
3058.6,13.072,-8.4883
3070.3,13.187,-9.3753
3082,10.713,-8.5005
3093.8,7.8629,-6.109
3105.5,10.315,-4.7822
3117.2,10.31,-7.391
3128.9,7.8036,-6.4481
3140.6,7.2382,-4.4238
3152.3,7.9057,-6.5305
3164.1,6.0363,-4.5778
3175.8,9.0097,-5.6767
3187.5,12.805,-8.9258
3199.2,9.8253,-7.7604
3210.9,7.1324,-7.9414
3222.7,9.618,-8.0213
3234.4,6.168,-5.8265
3246.1,7.7726,-5.9629
3257.8,10.546,-8.1561
3269.5,10.842,-5.5651
3281.3,10.88,-7.6385
3293,5.888,-7.4008
3304.7,11.274,-6.3447
3316.4,13.837,-8.1551
3328.1,10.473,-9.5655
3339.8,8.3324,-10.386
3351.6,9.8979,-11.03
3363.3,11.653,-8.2059
3375,10.169,-6.5799
3386.7,9.6129,-7.761
3398.4,10.071,-4.7942
3410.2,9.2283,-6.7791
3421.9,11.046,-8.6144
3433.6,10.072,-7.6735
3445.3,9.534,-7.0746
3457,9.7354,-6.2338
3468.8,9.3686,-6.396
3480.5,10.041,-7.5847
3492.2,6.3087,-8.456
3503.9,8.9141,-6.2603
3515.6,11.136,-7.0817
3527.3,7.2119,-9.7888
3539.1,7.7826,-7.6035
3550.8,8.5373,-5.3535
3562.5,10.644,-7.9479
3574.2,9.3741,-9.448
3585.9,6.6613,-5.8268
3597.7,10.611,-6.9916
3609.4,11.563,-7.036
3621.1,13.149,-9.5125
3632.8,10.52,-9.0188
3644.5,10.696,-5.0173
3656.3,8.7183,-4.3377
3668,9.2395,-6.2812
3679.7,9.219,-9.235
3691.4,11.982,-7.3505
3703.1,9.5405,-5.6346
3714.8,8.7461,-7.169
3726.6,8.6267,-8.6596
3738.3,9.8251,-7.7869
3750,8.6001,-7.8265
3761.7,9.0634,-9.1234
3773.4,7.1462,-8.2672
3785.2,6.7503,-5.6136
3796.9,9.3097,-6.1829
3808.6,12.176,-6.9656
3820.3,10.121,-7.7155
3832,8.2755,-5.8292
3843.8,10.653,-5.8986
3855.5,10.906,-9.3329
3867.2,11.167,-7.8597
3878.9,11.311,-7.4331
3890.6,8.9633,-7.3128
3902.3,11.024,-8.5799
3914.1,11.115,-7.8753
3925.8,8.4711,-12.12
3937.5,7.1431,-9.1609
3949.2,9.5892,-8.3793
3960.9,9.9835,-7.3424
3972.7,9.0123,-8.3768
3984.4,9.269,-6.9366
3996.1,11.122,-6.9024
4007.8,10.134,-5.1518
4019.5,7.4906,-5.3193
4031.3,8.0148,-6.9794
4043,9.2464,-7.1077
4054.7,9.3582,-14.077
4066.4,7.0644,-8.4676
4078.1,5.4101,-9.109
4089.8,9.369,-6.151
4101.6,11.187,-7.5023
4113.3,11.796,-7.4667
4125,11.527,-5.3373
4136.7,10.398,-7.3478
4148.4,11.774,-7.2289
4160.2,9.2899,-6.9385
4171.9,9.4737,-6.1612
4183.6,9.3681,-8.7822
4195.3,8.819,-4.421
4207,7.4314,-3.3752
4218.8,6.5583,-8.7342
4230.5,8.402,-8.6129
4242.2,6.3844,-8.6263
4253.9,5.6568,-8.7451
4265.6,7.4877,-9.8287
4277.3,10.283,-4.5785
4289.1,9.2873,-6.1972
4300.8,9.5211,-10.445
4312.5,9.5531,-9.599
4324.2,11.109,-6.7701
4335.9,10.144,-5.3127
4347.7,6.8312,-6.8109
4359.4,4.7867,-8.6078
4371.1,7.0668,-11.449
4382.8,8.8817,-10.282
4394.5,10.617,-8.0079
4406.3,9.5485,-8.0664
4418,6.1301,-7.6455
4429.7,7.7336,-8.2707
4441.4,6.7454,-6.2769
4453.1,6.3096,-8.8825
4464.8,7.2108,-9.715
4476.6,6.6075,-9.3826
4488.3,8.3904,-10.51
4500,7.4353,-10.532
4511.7,8.2445,-11.609
4523.4,8.546,-7.961
4535.2,8.1081,-8.5753
4546.9,9.1371,-8.9676
4558.6,8.258,-10.488
4570.3,7.769,-7.6313
4582,6.612,-7.3559
4593.8,5.6145,-7.0796
4605.5,6.1776,-8.9403
4617.2,8.1369,-8.8303
4628.9,8.8063,-6.609
4640.6,10.371,-5.3606
4652.3,10.268,-8.457
4664.1,8.0576,-9.5125
4675.8,6.6869,-8.4249
4687.5,6.5445,-6.2363
4699.2,6.6007,-7.2711
4710.9,7.1634,-9.8351
4722.7,7.8375,-7.5818
4734.4,8.9698,-8.9509
4746.1,6.7867,-9.4296
4757.8,7.6439,-8.5744
4769.5,7.0679,-7.0025
4781.3,5.478,-4.407
4793,6.6898,-8.0145
4804.7,8.0311,-8.1094
4816.4,5.9107,-10.109
4828.1,4.8047,-6.7364
4839.8,5.4831,-6.8529
4851.6,5.4649,-7.8674
4863.3,5.727,-7.8411
4875,5.218,-6.0503
4886.7,4.8178,-7.3188
4898.4,7.6941,-8.5674
4910.2,8.0427,-8.4909
4921.9,8.0713,-9.3421
4933.6,7.4608,-8.7618
4945.3,5.7887,-8.1132
4957,7.0129,-6.6643
4968.8,7.6068,-7.319
4980.5,7.8946,-7.7917
4992.2,7.1472,-8.2695
5003.9,5.2094,-5.4918
5015.6,7.0161,-7.0386
5027.3,8.8454,-9.1383
5039.1,7.0946,-10.974
5050.8,6.5723,-10.452
5062.5,1.8446,-7.2126
5074.2,10.588,-4.9695
5085.9,6.5134,-8.7151
5097.7,8.8132,-7.5071
5109.4,8.5198,-6.4428
5121.1,9.5123,-5.6478
5132.8,7.3052,-6.2381
5144.5,7.6988,-7.1347
5156.3,10.4,-7.5723
5168,10.551,-8.5536
5179.7,8.1498,-7.5996
5191.4,4.1274,-6.7257
5203.1,4.1473,-6.9462
5214.8,8.3153,-5.2753
5226.6,8.1759,-10.693
5238.3,5.8365,-8.9771
5250,4.3234,-7.0693
5261.7,6.9309,-10.482
5273.4,9.1671,-7.9128
5285.2,8.9087,-4.707
5296.9,4.6129,-5.9305
5308.6,5.9226,-9.3156
5320.3,5.9498,-6.3588
5332,4.5261,-6.4459
5343.8,5.8593,-6.9662
5355.5,6.3834,-8.8249
5367.2,8.5691,-9.6671
5378.9,7.0433,-7.3209
5390.6,5.3441,-7.9304
5402.3,6.1179,-6.218
5414.1,8.0765,-6.862
5425.8,8.164,-9.6571
5437.5,5.9517,-9.617
5449.2,4.9048,-7.2116
5460.9,7.0278,-6.696
5472.7,5.0774,-8.8511
5484.4,3.4662,-7.7925
5496.1,4.0975,-6.3233
5507.8,5.2999,-7.6555
5519.5,5.7777,-9.495
5531.3,7.0867,-10.741
5543,7.818,-9.369
5554.7,8.847,-8.4573
5566.4,9.1382,-11.924
5578.1,6.1329,-8.7812
5589.8,7.1823,-4.7802
5601.6,7.0186,-7.93
5613.3,6.9831,-12.173
5625,4.902,-6.6035
5636.7,3.4408,-5.9297
5648.4,6.2123,-6.3562
5660.2,6.1072,-7.3862
5671.9,4.6888,-8.3016
5683.6,7.995,-8.8695
5695.3,6.965,-7.1311
5707,4.4582,-5.9121
5718.8,6.898,-9.3069
5730.5,6.6412,-7.3933
5742.2,6.8485,-6.0004
5753.9,8.7277,-6.8649
5765.6,9.3137,-10.044
5777.3,9.0329,-9.1049
5789.1,8.4833,-9.0399
5800.8,6.7823,-9.1927
5812.5,3.4424,-8.0455
5824.2,6.4323,-8.9219
5835.9,5.8897,-9.1805
5847.7,5.9272,-8.485
5859.4,6.4376,-8.1346
5871.1,5.0017,-6.95
5882.8,4.5515,-10.88
5894.5,4.1743,-9.0567
5906.3,4.9315,-7.4141
5918,8.3516,-7.8869
5929.7,8.4505,-10.971
5941.4,3.9949,-8.9779
5953.1,2.9937,-6.5296
5964.8,5.2328,-6.698
5976.6,2.1452,-7.3212
5988.3,1.7268,-9.1522
6000,5.0388,-8.5663
6011.7,3.7239,-9.6152
6023.4,3.7948,-10.089
6035.2,3.1193,-10.167
6046.9,3.3717,-6.0018
6058.6,4.5451,-6.7491
6070.3,6.8406,-8.3152
6082,5.9138,-7.1958
6093.8,7.1094,-5.775
6105.5,6.0275,-5.2802
6117.2,3.8739,-5.9405
6128.9,1.3533,-7.3006
6140.6,6.3221,-8.4034
6152.3,8.035,-11.215
6164.1,5.6988,-12.033
6175.8,2.9302,-10.1
6187.5,3.5761,-8.9315
6199.2,3.5706,-9.3581
6210.9,6.2581,-8.948
6222.7,5.8254,-9.6797
6234.4,7.3386,-11.064
6246.1,6.3062,-10.387
6257.8,5.6328,-8.3022
6269.5,3.6311,-7.9554
6281.3,3.8462,-8.6553
6293,1.7548,-5.5666
6304.7,3.0195,-9.5935
6316.4,6.3649,-8.3646
6328.1,8.3142,-6.5733
6339.8,5.2203,-5.6344
6351.6,1.9393,-6.3793
6363.3,3.3107,-7.326
6375,4.6229,-8.3241
6386.7,3.2578,-6.642
6398.4,3.9531,-5.3601
6410.2,2.6496,-8.0106
6421.9,3.1066,-9.4817
6433.6,6.6787,-10.204
6445.3,6.5317,-12.495
6457,5.5056,-8.3399
6468.8,4.4834,-6.3209
6480.5,4.2402,-7.9667
6492.2,6.994,-6.3955
6503.9,7.2301,-7.7997
6515.6,3.4861,-8.6602
6527.3,3.5509,-10.205
6539.1,4.4697,-9.1313
6550.8,5.6524,-5.5041
6562.5,3.4507,-5.6266
6574.2,2.9478,-9.9066
6585.9,2.5609,-9.3374
6597.7,4.905,-11.601
6609.4,7.3002,-12.834
6621.1,4.8752,-9.5813
6632.8,2.116,-8.0662
6644.5,3.8494,-8.2495
6656.3,3.5806,-9.6655
6668,0.5761,-7.399
6679.7,1.7975,-7.513
6691.4,1.858,-9.8412
6703.1,3.5858,-10.9
6714.8,6.3109,-9.8137
6726.6,5.0609,-8.8009
6738.3,1.9415,-5.8391
6750,1.4408,-6.7957
6761.7,4.2627,-10.977
6773.4,2.775,-9.4304
6785.2,0.33622,-9.7104
6796.9,2.3588,-10.618
6808.6,5.4928,-8.4616
6820.3,5.5936,-7.2931
6832,3.0031,-7.5643
6843.8,2.3727,-7.9745
6855.5,2.6604,-9.7069
6867.2,3.3173,-8.1323
6878.9,6.168,-7.7356
6890.6,7.4345,-8.741
6902.3,7.1427,-6.3588
6914.1,5.4535,-5.582
6925.8,4.1751,-8.3127
6937.5,4.4191,-7.0435
6949.2,3.0171,-9.2464
6960.9,0.83146,-9.2705
6972.7,2.2515,-10.208
6984.4,4.6197,-9.9614
6996.1,4.1826,-8.2441
7007.8,3.1149,-6.8249
7019.5,2.0747,-6.7802
7031.3,6.4587,-8.9249
7043,8.157,-10.552
7054.7,5.2449,-11.019
7066.4,3.7306,-9.6226
7078.1,6.2586,-5.989
7089.8,6.0835,-8.1291
7101.6,2.3396,-8.7958
7113.3,4.6646,-7.1913
7125,4.4672,-11.091
7136.7,4.3304,-9.681
7148.4,2.0158,-8.7441
7160.2,2.9594,-8.7345
7171.9,3.4481,-9.023
7183.6,2.3172,-8.0894
7195.3,3.8401,-6.8267
7207,5.1073,-6.2585
7218.8,4.12,-8.5073
7230.5,2.0673,-12.24
7242.2,1.9233,-11.285
7253.9,4.1283,-9.3643
7265.6,6.3286,-10.74
7277.3,3.9796,-10.759
7289.1,2.1723,-10.076
7300.8,2.3725,-8.7405
7312.5,2.9219,-10.096
7324.2,3.5426,-14.064
7335.9,1.0598,-8.2866
7347.7,1.8992,-5.6101
7359.4,4.4749,-6.6515
7371.1,5.4904,-7.4928
7382.8,3.3658,-7.8391
7394.5,3.3111,-8.3363
7406.3,3.6648,-8.4465
7418,2.952,-8.7996
7429.7,1.3015,-10.909
7441.4,1.8734,-9.9408
7453.1,5.5714,-7.2755
7464.8,5.3708,-7.3501
7476.6,3.7472,-8.6312
7488.3,2.4569,-9.5283
7500,4.1694,-9.5145
7511.7,5.8382,-10.1
7523.4,6.1328,-9.979
7535.2,3.7286,-8.0828
7546.9,0.4499,-9.3122
7558.6,2.2315,-9.5678
7570.3,2.2315,-14.149
7582,-0.03654,-7.9876
7593.8,1.6753,-7.6507
7605.5,4.8619,-15.354
7617.2,-0.071501,-11.735
7628.9,4.3878,-8.178
7640.6,6.0526,-8.7203
7652.3,4.7843,-10.207
7664.1,4.1401,-9.2691
7675.8,5.1339,-10.175
7687.5,4.2751,-10.048
7699.2,2.495,-10.976
7710.9,4.2604,-9.3904
7722.7,3.3861,-8.3045
7734.4,3.7006,-9.0987
7746.1,2.1508,-8.6513
7757.8,0.82083,-11.84
7769.5,2.9108,-10.277
7781.3,2.9558,-6.5287
7793,3.1961,-7.877
7804.7,4.5275,-12.003
7816.4,4.3884,-14.318
7828.1,4.8206,-11.604
7839.8,6.7715,-8.5382
7851.6,4.5339,-10.109
7863.3,4.065,-12.218
7875,6.2093,-11.137
7886.7,4.1179,-11.392
7898.4,0.31616,-9.6096
7910.2,-3.7742,-8.6159
7921.9,3.0847,-8.2107
7933.6,2.8025,-9.5527
7945.3,1.8158,-11.912
7957,2.0681,-10.539
7968.8,1.954,-10.612
7980.5,2.4901,-11.993
7992.2,3.7022,-12.634
8003.9,2.4566,-10.721
8015.6,1.7904,-8.1629
8027.3,-0.0090135,-8.2603
8039.1,-2.225,-8.6116
8050.8,3.6694,-6.6813
8062.5,8.4068,-9.9023
8074.2,5.6392,-10.021
8085.9,1.2895,-8.0624
8097.7,1.352,-9.3673
8109.4,0.47369,-9.2436
8121.1,4.2074,-9.7931
8132.8,2.4074,-10.944
8144.5,1.4507,-11.731
8156.3,3.0537,-9.1949
8168,2.2683,-7.8837
8179.7,1.8376,-11.343
8191.4,3.027,-8.3891
8203.1,3.2824,-6.9891
8214.8,3.1351,-7.6035
8226.6,3.5786,-9.0225
8238.3,1.7851,-9.222
8250,0.46484,-9.9363
8261.7,1.6289,-8.8292
8273.4,0.4055,-10.773
8285.2,-1.4284,-8.7227
8296.9,-1.879,-8.3259
8308.6,-3.5982,-10.561
8320.3,0.3738,-12.759
8332,1.7787,-11.755
8343.8,1.9081,-10.735
8355.5,2.0509,-10.383
8367.2,0.97924,-13.225
8378.9,1.5856,-11.584
8390.6,2.476,-12.715
8402.3,1.1739,-9.9866
8414.1,1.5492,-11.251
8425.8,2.4974,-8.7001
8437.5,0.43704,-9.8098
8449.2,1.571,-9.3581
8460.9,1.3931,-9.3742
8472.7,1.2198,-10.535
8484.4,3.1924,-12.219
8496.1,1.7104,-12.494
8507.8,0.93805,-11.841
8519.5,0.48567,-11.279
8531.3,2.7477,-11.621
8543,0.96269,-8.9172
8554.7,0.2017,-8.7905
8566.4,3.3099,-10.065
8578.1,2.7754,-11.125
8589.8,2.7869,-10.725
8601.6,1.3505,-11.911
8613.3,0.23893,-12.957
8625,-0.47424,-8.5287
8636.7,0.33127,-5.7324
8648.4,-1.0275,-9.5977
8660.2,0.21692,-11.413
8671.9,2.3308,-10.125
8683.6,3.6536,-9.9365
8695.3,4.952,-13.333
8707,1.4876,-11.136
8718.8,0.45403,-10.662
8730.5,0.88345,-14.077
8742.2,1.9273,-11.809
8753.9,3.2295,-6.5699
8765.6,2.1646,-7.598
8777.3,-1.4699,-9.5807
8789.1,-0.52523,-10.728
8800.8,1.9278,-13.5
8812.5,-0.82674,-10.389
8824.2,-1.4743,-10.931
8835.9,0.72269,-12.208
8847.7,1.0761,-10.655
8859.4,-0.78229,-9.4416
8871.1,0.27131,-8.874
8882.8,0.79653,-9.7917
8894.5,1.0777,-6.11
8906.3,2.6327,-7.4014
8918,0.71236,-8.5823
8929.7,0.59286,-8.8694
8941.4,1.3039,-10.143
8953.1,0.15704,-12.133
8964.8,0.9367,-9.4185
8976.6,1.4353,-9.205
8988.3,0.98701,-10.36
9000,1.279,-8.8877
9011.7,0.37153,-11.134
9023.4,0.91396,-10.04
9035.2,0.8301,-9.2881
9046.9,-0.61168,-8.3685
9058.6,2.3144,-9.4592
9070.3,0.26096,-13.121
9082,-0.37871,-13.251
9093.8,1.7756,-8.6136
9105.5,1.8051,-7.5851
9117.2,-1.0952,-8.7486
9128.9,-2.4364,-12.589
9140.6,-2.718,-8.0797
9152.3,-0.73985,-9.8908
9164.1,1.0979,-12.089
9175.8,1.1448,-11.831
9187.5,-1.0175,-9.2836
9199.2,-2.2747,-8.8819
9210.9,-2.985,-11.36
9222.7,-2.8121,-13.883
9234.4,0.94271,-11.894
9246.1,-1.2419,-10.09
9257.8,0.96565,-11.399
9269.5,1.0956,-13.593
9281.3,2.2109,-12.062
9293,1.6649,-9.4141
9304.7,-0.82873,-9.3433
9316.4,2.5569,-10.331
9328.1,3.216,-12.152
9339.8,1.8654,-12.323
9351.6,0.56375,-11.116
9363.3,-0.17808,-13.012
9375,0.55717,-14.845
9386.7,1.875,-14.465
9398.4,0.22658,-12.096
9410.2,0.82844,-11.665
9421.9,1.0458,-9.6512
9433.6,0.090416,-10.955
9445.3,-0.78565,-12.295
9457,-0.53799,-10.139
9468.8,-1.9734,-8.1818
9480.5,1.1432,-10.698
9492.2,1.2872,-11.394
9503.9,2.6861,-8.0837
9515.6,0.11819,-11.279
9527.3,-0.13619,-12.753
9539.1,-1.1135,-11.308
9550.8,-0.32941,-13.351
9562.5,2.2924,-13.254
9574.2,-0.19492,-9.6538
9585.9,-2.1673,-8.4201
9597.7,-1.2916,-7.2101
9609.4,-1.9293,-7.6192
9621.1,-0.86735,-10.645
9632.8,-2.131,-11.13
9644.5,-2.4507,-12.703
9656.3,0.97016,-14.041
9668,-0.061187,-12.244
9679.7,-2.0942,-11.125
9691.4,-1.9196,-13.477
9703.1,-0.070342,-12.396
9714.8,-1.6068,-10.965
9726.6,-3.6472,-10.274
9738.3,-2.8996,-13.316
9750,-0.2375,-12.341
9761.7,1.0761,-12.779
9773.4,-0.23911,-11.261
9785.2,-1.2204,-7.2384
9796.9,1.1513,-7.6049
9808.6,1.4927,-9.5434
9820.3,-2.7226,-12.102
9832,-3.1051,-10.015
9843.8,-2.3421,-8.9772
9855.5,-0.31283,-11.991
9867.2,-0.29992,-7.845
9878.9,-0.90885,-8.0837
9890.6,-4.1188,-7.7584
9902.3,-0.32949,-8.1648
9914.1,1.5256,-10.486
9925.8,0.11563,-10.559
9937.5,0.086697,-12.397
9949.2,0.36685,-12.44
9960.9,-0.018613,-12.88
9972.7,-3.1598,-11.332
9984.4,-1.2887,-12.585
9996.1,0.11239,-11.374
10008,2.4545,-12.415
10020,1.5062,-15.425
10031,1.3779,-12.74
10043,2.3067,-12.168
10055,2.4584,-13.164
10066,0.89216,-12.964
10078,-0.10753,-12.873
10090,-0.75656,-12.099
10102,-0.96924,-12.363
10113,1.1962,-12.824
10125,1.4363,-10.504
10137,-0.45096,-9.3245
10148,-0.44153,-7.2777
10160,-2.0035,-8.7876
10172,0.30957,-11.573
10184,2.1354,-13.086
10195,0.45919,-14.082
10207,-3.4993,-13.571
10219,-3.0775,-9.593
10230,-0.81625,-8.4898
10242,-2.0429,-10.728
10254,-2.0246,-14.097
10266,-2.2743,-13.332
10277,-1.9017,-13.4
10289,-0.036625,-12.573
10301,1.1088,-10.789
10313,-0.062203,-10.001
10324,-0.028267,-10.717
10336,-3.0689,-13.936
10348,-1.6992,-12.796
10359,-0.73897,-14.712
10371,-0.70277,-12.402
10383,-1.7159,-9.9853
10395,0.95362,-10.411
10406,2.0461,-7.3388
10418,-2.0836,-6.6834
10430,-2.9996,-9.3434
10441,-2.2574,-9.6326
10453,-3.1476,-12.086
10465,-3.2849,-9.1585
10477,-3.498,-10.178
10488,0.7756,-9.9925
10500,2.3117,-8.9828
10512,0.2435,-10.209
10523,-0.47646,-10.372
10535,1.6681,-11.046
10547,0.25926,-10.653
10559,-3.9734,-12.682
10570,-3.0601,-12.077
10582,-1.4639,-12.367
10594,-0.79093,-14.8
10605,-4.6602,-11.268
10617,-1.6126,-11.532
10629,0.13425,-11.092
10641,-0.59631,-12.047
10652,-2.0491,-10.097
10664,0.080908,-8.8458
10676,0.21433,-10.315
10688,-1.4668,-9.2954
10699,-3.4104,-13.424
10711,-5.892,-11.102
10723,-3.5984,-10.531
10734,-3.6052,-9.2424
10746,-1.2877,-11.763
10758,-0.63762,-13.18
10770,-0.96812,-14.454
10781,-1.1497,-10.938
10793,-4.061,-13.328
10805,-4.1679,-13.287
10816,-2.9156,-12.665
10828,-4.5695,-12.143
10840,-0.64104,-12.903
10852,0.33497,-13.695
10863,-1.5811,-12.652
10875,-3.09,-14.607
10887,-2.4157,-14.197
10898,-2.0194,-10.031
10910,-1.5197,-11.364
10922,-0.50973,-15.959
10934,-0.85838,-12.913
10945,-2.044,-11.475
10957,-2.678,-10.094
10969,-2.0343,-9.4351
10980,-2.2105,-9.7139
10992,-3.5356,-9.9325
11004,-3.1731,-10.895
11016,-3.3829,-15.396
11027,-2.7633,-14.669
11039,-1.9494,-13.307
11051,0.22395,-14.945
11063,1.3757,-12.517
11074,1.4663,-14.287
11086,-2.3349,-15.257
11098,0.066791,-10.744
11109,-1.002,-10.268
11121,-3.6245,-13.7
11133,-2.2602,-12.438
11145,-2.5075,-12.691
11156,-2.6039,-12.816
11168,-1.8754,-10.709
11180,-2.3916,-11.646
11191,-4.296,-11.268
11203,-2.4931,-13.222
11215,-3.1564,-12.211
11227,-3.5099,-11.167
11238,-2.0608,-13.555
11250,-1.8687,-10.758
11262,-0.39999,-8.5097
11273,0.61418,-10.459
11285,-2.7649,-9.8872
11297,-0.24075,-9.8483
11309,-0.051324,-12.804
11320,-1.4908,-15.912
11332,-0.99401,-12.889
11344,-2.5964,-10.913
11355,-1.4771,-9.9223
11367,-3.9833,-12.613
11379,-3.1837,-12.927
11391,-1.9437,-12.31
11402,0.27917,-11.587
11414,0.22027,-14.85
11426,-0.37503,-12.527
11438,-7.5926,-10.152
11449,-0.67665,-13.807
11461,1.6852,-13.551
11473,-0.8777,-11.87
11484,-1.3227,-13.064
11496,-1.523,-11.003
11508,-1.7083,-12.964
11520,-0.45687,-12.851
11531,0.86399,-9.6807
11543,-2.6247,-8.739
11555,-3.459,-8.1634
11566,-1.4223,-8.5425
11578,-2.0211,-12.392
11590,-5.8686,-12.793
11602,-3.6805,-13.542
11613,-1.2491,-15.256
11625,-2.7468,-15.1
11637,-2.045,-12.286
11648,-0.99457,-13.129
11660,-0.45659,-10.841
11672,-1.4446,-14.279
11684,-3.9858,-16.047
11695,-1.2302,-15.401
11707,-1.6845,-12.642
11719,-1.8357,-13.164
11730,-1.8847,-12.591
11742,-2.3547,-10.549
11754,-4.4352,-10.917
11766,-1.2341,-11.672
11777,-0.46668,-12.095
11789,-0.047114,-12.111
11801,-0.29367,-12.75
11813,-1.8331,-12.822
11824,-2.3919,-10.517
11836,-2.7221,-13.325
11848,-2.9011,-11.552
11859,-2.6794,-14.235
11871,-3.594,-9.6395
11883,-2.0936,-10.956
11895,-3.832,-11.556
11906,-3.0492,-12.678
11918,-2.1087,-13.662
11930,-2.2523,-14.641
11941,-4.0535,-14.064
11953,-1.3612,-11.773
11965,-0.42159,-11.368
11977,-1.7305,-12.165
11988,-2.3914,-15.133
12000,-2.1397,-8.9368
12012,-1.2527,-12.414
12023,-1.04,-13.713
12035,-0.73629,-13.056
12047,-2.5852,-11.986
12059,-4.5701,-12.205
12070,-2.795,-13.751
12082,-4.9458,-14.552
12094,-4.6428,-13.516
12105,-6.0708,-12.966
12117,-2.8119,-10.933
12129,-3.3155,-12.503
12141,-4.1534,-11.3
12152,-2.8698,-13.476
12164,-1.4069,-14.017
12176,-0.30351,-13.211
12188,-4.2475,-13.537
12199,-2.5429,-14.234
12211,0.65032,-15.433
12223,-1.4181,-14.59
12234,-1.6008,-11.319
12246,-0.57289,-13.232
12258,-2.601,-11.489
12270,-4.5823,-9.7321
12281,-5.5586,-11.723
12293,-3.2344,-11.412
12305,-1.1112,-9.0166
12316,-0.44838,-8.9722
12328,-5.0754,-8.8032
12340,-2.0785,-13.267
12352,-4.8864,-14.783
12363,-4.2757,-13.099
12375,-4.7375,-11.893
12387,-6.1535,-11.505
12398,-5.1371,-13.726
12410,-3.4364,-14.797
12422,-2.8611,-14.525
12434,-4.0064,-14.349
12445,-4.4933,-13.477
12457,-3.3402,-11.829
12469,-2.829,-13.138
12480,-4.5958,-13.97
12492,-1.9543,-15.714
12504,-2.962,-16.188
12516,-5.8899,-16.585
12527,-8.0159,-13.993
12539,-3.2338,-13.317
12551,-3.1387,-11.177
12563,-0.66831,-11.482
12574,-1.3014,-11.48
12586,-3.2602,-10.292
12598,-2.182,-13.166
12609,-1.1456,-12.117
12621,-3.063,-12.249
12633,-3.2889,-13.82
12645,-2.4188,-13.766
12656,-4.5538,-12.231
12668,-4.0128,-13.016
12680,-2.803,-15.231
12691,-1.6226,-16.952
12703,-2.207,-16.177
12715,-3.6683,-12.464
12727,-2.667,-14.76
12738,-2.3337,-14.797
12750,-0.47695,-13.952
12762,-1.5214,-16.562
12773,-1.2634,-14.829
12785,-2.6039,-10.2
12797,-0.69202,-9.7418
12809,-0.8755,-10.331
12820,-0.93105,-15.602
12832,-1.2717,-12.962
12844,-2.4345,-11.439
12855,0.36259,-13.98
12867,-2.5381,-11.541
12879,-3.0174,-10.356
12891,-1.3407,-14.021
12902,-1.1062,-15.758
12914,0.20917,-12.625
12926,0.040167,-13.74
12938,-1.2973,-14.368
12949,-3.104,-16.52
12961,-2.416,-14.327
12973,-2.4028,-10.013
12984,-4.1955,-7.39
12996,-5.4545,-10.231
13008,-3.4045,-13.086
13020,-2.8511,-17.192
13031,-6.0226,-13.438
13043,-4.4556,-11.529
13055,-3.5572,-12.575
13066,-6.4557,-12.406
13078,-3.6306,-13.636
13090,-4.1641,-10.866
13102,-2.9989,-11.505
13113,-0.48786,-13.353
13125,-1.3877,-15.486
13137,-2.9702,-15.296
13148,-3.4563,-13.208
13160,-1.6834,-13.106
13172,-0.36316,-12.288
13184,-2.9495,-11.624
13195,-1.7575,-12.547
13207,-2.8931,-14.98
13219,-2.4846,-17.239
13230,-2.5384,-14.745
13242,-2.9238,-13.098
13254,-3.4587,-13.156
13266,-3.0006,-15.054
13277,-10.806,-12.224
13289,-4.8385,-10.354
13301,-3.5889,-11.193
13313,-4.3774,-15.017
13324,-0.72781,-14.648
13336,-2.9864,-13.321
13348,-5.811,-11.323
13359,-3.1772,-14.076
13371,-2.9342,-12
13383,-3.758,-11.759
13395,-2.3387,-13.319
13406,-2.2302,-13.008
13418,-6.0819,-11.979
13430,-5.9718,-12.27
13441,-4.5574,-12.626
13453,-5.7185,-13
13465,-5.0416,-15.58
13477,-4.5328,-13.563
13488,-4.8899,-12.212
13500,-3.8164,-13.605
13512,-3.3248,-13.3
13523,-3.3308,-15.073
13535,-3.1537,-11.87
13547,-3.7593,-12.137
13559,-5.8265,-12.86
13570,-2.5334,-14.427
13582,-3.7567,-12.043
13594,-3.9546,-11.619
13605,-0.9747,-12.03
13617,-5.5081,-13.739
13629,-4.455,-16.724
13641,-9.1463,-14.647
13652,-3.6271,-12.981
13664,0.060767,-15.875
13676,0.88788,-13.705
13688,-3.2152,-13.607
13699,-6.7487,-13.498
13711,-3.7233,-13.177
13723,-2.8741,-12.208
13734,-1.5043,-14.007
13746,-2.4554,-13.23
13758,-4.7031,-13.845
13770,-4.434,-13.034
13781,-3.6973,-13.658
13793,-4.3341,-13.777
13805,-4.7251,-12.885
13816,-3.6859,-14.108
13828,-5.136,-13.472
13840,-5.3513,-15.795
13852,-5.6232,-16.944
13863,-4.9684,-15.5
13875,-4.1739,-16.481
13887,-4.3301,-17.713
13898,-5.7318,-17.415
13910,-6.4738,-18.036
13922,-1.373,-14.87
13934,-0.22366,-12.187
13945,-1.7755,-13.624
13957,-2.8602,-15.838
13969,-4.0021,-15.812
13980,-6.1803,-13.872
13992,-6.0868,-13.987
14004,-4.5615,-13.178
14016,-4.0879,-11.708
14027,-1.4104,-10.81
14039,-3.4675,-9.7216
14051,-4.2166,-11.632
14063,-3.6768,-13.938
14074,-5.9881,-13.938
14086,-5.7234,-15.994
14098,-3.493,-15.796
14109,-4.2886,-14.357
14121,-5.6115,-13.409
14133,-4.8293,-10.916
14145,-4.6889,-13.489
14156,-5.296,-13.871
14168,-5.9313,-16.473
14180,-6.6866,-15.459
14191,-6.0605,-13.007
14203,-3.4627,-12.66
14215,-4.1553,-13.488
14227,-6.6825,-16.965
14238,-4.6466,-12.619
14250,-4.8767,-10.379
14262,-5.4297,-11.266
14273,-3.3269,-15.471
14285,-4.8978,-15.245
14297,-5.7107,-13.769
14309,-4.1761,-14.14
14320,-3.6399,-14.123
14332,-4.8665,-14.027
14344,-7.6044,-14.822
14355,-4.996,-14.811
14367,-5.1177,-13.316
14379,-5.1411,-14.865
14391,-5.1856,-14.818
14402,-4.5901,-16.377
14414,-5.4429,-15.102
14426,-7.5322,-15.266
14438,-7.9778,-12.789
14449,-5.0418,-11.152
14461,-5.8659,-16.272
14473,-4.5794,-15.447
14484,-4.7882,-15.709
14496,-4.6845,-16.263
14508,-7.9816,-15.441
14520,-7.3764,-14.746
14531,-4.5257,-13.871
14543,-5.8479,-13.001
14555,-5.1346,-11.912
14566,-7.6418,-13.69
14578,-5.1396,-16.501
14590,-5.4641,-13.619
14602,-5.2188,-11.791
14613,-4.2261,-15.593
14625,-5.7394,-15.101
14637,-7.0161,-13.69
14648,-3.7625,-14.587
14660,-0.1375,-13.7
14672,-5.0449,-13.296
14684,-5.4773,-14.052
14695,-3.3342,-15.408
14707,-4.0084,-16.477
14719,-5.0146,-12.36
14730,-5.4355,-12.702
14742,-5.8662,-13.753
14754,-6.9947,-16.03
14766,-5.3068,-16.432
14777,-6.8568,-17.753
14789,-4.4403,-18.052
14801,-3.3408,-19.967
14813,-8.2043,-16.284
14824,-6.8019,-13.496
14836,-4.6548,-13.481
14848,-4.3251,-14.223
14859,-6.4638,-13.545
14871,-6.7586,-15.824
14883,-9.6265,-13.434
14895,-6.6345,-14.012
14906,-4.1899,-14.905
14918,-6.982,-13.285
14930,-5.6017,-14.057
14941,-4.5418,-15.11
14953,-5.4804,-13.509
14965,-5.3655,-13.023
14977,-6.5132,-14.703
14988,-7.6718,-15.81
15000,-7.2602,-10.989
15012,-7.1534,-11.687
15023,-6.9395,-14.842
15035,-7.6793,-17.95
15047,-7.524,-15.918
15059,-4.7458,-15.16
15070,-6.9956,-15.792
15082,-4.1928,-18.825
15094,-4.2718,-15.979
15105,-3.7992,-15.474
15117,-6.8888,-15.167
15129,-3.6724,-14.855
15141,-4.6486,-13.528
15152,-6.1935,-14.149
15164,-5.7109,-13.209
15176,-3.1324,-12.916
15188,-6.0395,-13.328
15199,-10.299,-13.837
15211,-6.5747,-13.733
15223,-5.5498,-14.848
15234,-4.6122,-15.448
15246,-2.881,-15.134
15258,-2.2158,-18.566
15270,-3.5671,-16.678
15281,-7.2541,-15.875
15293,-7.07,-14.079
15305,-9.8705,-15.579
15316,-8.6546,-20.766
15328,-5.5212,-16.855
15340,-3.8976,-14.159
15352,-3.4289,-16.628
15363,-5.0687,-15.971
15375,-5.1404,-17.726
15387,-5.9703,-16.736
15398,-7.0207,-13.028
15410,-6.0901,-12.419
15422,-5.5129,-12.813
15434,-6.2763,-12.395
15445,-5.3021,-13.296
15457,-8.2711,-14.736
15469,-5.8752,-13.591
15480,-4.8171,-12.923
15492,-6.2443,-14.236
15504,-11.073,-14.816
15516,-6.0878,-15.527
15527,-6.9241,-15.191
15539,-6.6672,-14.955
15551,-5.7354,-15.227
15563,-4.5441,-15.591
15574,-5.3515,-16.355
15586,-8.4457,-15.915
15598,-8.4883,-16.257
15609,-10.455,-15.077
15621,-9.4241,-16.946
15633,-6.7968,-15.03
15645,-6.9875,-13.857
15656,-9.811,-13.637
15668,-4.3242,-14.793
15680,-2.9076,-17.031
15691,-6.9261,-17.592
15703,-8.5786,-16.392
15715,-4.9141,-15.962
15727,-7.6951,-15.066
15738,-6.0072,-15.986
15750,-8.4266,-14.972
15762,-7.7142,-17.14
15773,-3.4395,-15.214
15785,-5.7242,-15.694
15797,-7.7058,-15.64
15809,-8.005,-16.128
15820,-9.802,-15.051
15832,-9.4077,-13.484
15844,-10.969,-11.583
15855,-7.1559,-14.226
15867,-7.8546,-14.777
15879,-10.29,-13.863
15891,-5.7099,-13.619
15902,-6.7795,-14.962
15914,-6.3659,-16.599
15926,-7.5848,-12.811
15938,-7.4697,-14.975
15949,-9.1725,-16.536
15961,-11.055,-14.103
15973,-10.628,-14.356
15984,-6.3688,-13.932
15996,-3.5077,-11.885
16008,-4.5644,-13.583
16020,-7.6406,-13.663
16031,-6.7645,-14.363
16043,-6.1604,-13.985
16055,-6.6054,-12.331
16066,-8.2864,-12.352
16078,-9.8159,-13.352
16090,-8.4652,-15.436
16102,-10.613,-17.736
16113,-7.8016,-16.418
16125,-4.9913,-14.652
16137,-6.4405,-13.411
16148,-9.1524,-14.473
16160,-7.8934,-16.321
16172,-7.4588,-18.194
16184,-7.8695,-17.256
16195,-10.023,-15.483
16207,-11.098,-15.496
16219,-9.8474,-15.531
16230,-6.7759,-17.227
16242,-5.5635,-15.154
16254,-8.8923,-15.169
16266,-8.9868,-16.671
16277,-7.222,-14.609
16289,-6.203,-13.388
16301,-5.7837,-14.393
16313,-9.0397,-14.929
16324,-7.87,-14.896
16336,-7.8902,-13.36
16348,-6.7012,-14.434
16359,-6.5923,-13.483
16371,-10.046,-14.382
16383,-7.2912,-17.301
16395,-7.2779,-18.413
16406,-7.3676,-15.682
16418,-7.4696,-16.968
16430,-8.2987,-14.359
16441,-9.9408,-12.055
16453,-9.4515,-13.978
16465,-10.054,-15.89
16477,-8.5405,-18.086
16488,-9.6084,-17.351
16500,-10.682,-15.128
16512,-10.966,-15.533
16523,-8.9997,-15.851
16535,-6.3864,-17.004
16547,-7.8186,-16.57
16559,-9.4679,-17.967
16570,-11.361,-17.302
16582,-12.763,-19.1
16594,-9.8127,-18.001
16605,-9.3678,-16.819
16617,-8.9712,-14.668
16629,-7.7251,-14.925
16641,-8.4299,-17.234
16652,-7.9554,-15.696
16664,-7.3473,-15.982
16676,-8.759,-16.869
16688,-8.8327,-15.854
16699,-10.389,-15.063
16711,-8.259,-15.225
16723,-5.6439,-16.827
16734,-5.9556,-16.564
16746,-8.5769,-16.273
16758,-7.3237,-14.569
16770,-7.957,-19.861
16781,-9.9142,-16.502
16793,-9.0696,-15.868
16805,-9.6161,-18.158
16816,-9.269,-17.289
16828,-11.941,-20.057
16840,-7.3768,-18.985
16852,-8.1423,-13.426
16863,-10.921,-14.042
16875,-10.113,-15.886
16887,-11.654,-15.491
16898,-10.652,-16.069
16910,-7.5573,-17.332
16922,-11.176,-15.097
16934,-12.906,-16.044
16945,-10.186,-15.743
16957,-10.634,-16.854
16969,-11.297,-20.281
16980,-9.2442,-17.942
16992,-6.8802,-14.909
17004,-7.0971,-14.615
17016,-10.021,-15.732
17027,-9.2592,-15.038
17039,-9.6729,-16.079
17051,-9.3603,-17.491
17063,-11.04,-15.679
17074,-9.7585,-16.765
17086,-9.0579,-15.993
17098,-9.7488,-15.618
17109,-9.606,-16.067
17121,-8.7129,-18.753
17133,-8.9188,-17.264
17145,-11.505,-17.94
17156,-13.915,-14.445
17168,-10.745,-17.865
17180,-8.2145,-17.688
17191,-8.0429,-13.113
17203,-8.8778,-13.96
17215,-7.6571,-14.753
17227,-6.9688,-13.618
17238,-8.953,-16.785
17250,-10.571,-14.969
17262,-12.463,-18.462
17273,-10.334,-18.232
17285,-7.982,-17.985
17297,-8.304,-16.057
17309,-8.4703,-16.319
17320,-9.6496,-14.752
17332,-10.562,-13.247
17344,-9.0856,-13.586
17355,-11.131,-15.702
17367,-12.721,-18.285
17379,-10.3,-18.72
17391,-12.411,-20.017
17402,-14.628,-16.22
17414,-12.24,-14.693
17426,-12.486,-15.93
17438,-13.234,-14.077
17449,-9.7631,-13.829
17461,-12.386,-15.812
17473,-12.898,-16.829
17484,-12.59,-18.383
17496,-11.278,-17.678
17508,-11.058,-16.652
17520,-11.795,-14.71
17531,-11.813,-15.806
17543,-11.887,-15.684
17555,-10.815,-14.506
17566,-9.6352,-16.705
17578,-11.544,-20.656
17590,-11.907,-20.34
17602,-10.01,-17.628
17613,-11.482,-19.543
17625,-12.101,-14.157
17637,-7.9145,-15.193
17648,-6.7185,-18.645
17660,-10.607,-16.217
17672,-13.743,-15.953
17684,-11.276,-15.009
17695,-10.361,-16.159
17707,-12.349,-19.662
17719,-10.914,-17.965
17730,-10.555,-14.917
17742,-10.72,-14.834
17754,-10.706,-13.491
17766,-12.155,-15.55
17777,-11.983,-17.208
17789,-10.504,-16.863
17801,-9.7952,-18.046
17813,-9.6116,-18.203
17824,-10.518,-16.095
17836,-13.192,-14.612
17848,-13.504,-15.879
17859,-10.848,-15.451
17871,-9.9724,-17.375
17883,-10.484,-19.23
17895,-13.22,-18.114
17906,-11.834,-19.453
17918,-10.627,-20.928
17930,-9.2986,-19.722
17941,-13.472,-20.223
17953,-12.643,-21.276
17965,-12.446,-19.106
17977,-12.508,-18.369
17988,-9.9267,-17.599
18000,-10.409,-16.474
18012,-12.112,-17.6
18023,-12.866,-17.84
18035,-10.983,-16.487
18047,-8.7103,-16.73
18059,-11.951,-18.027
18070,-12.206,-18.773
18082,-11.751,-17.684
18094,-12.255,-16.543
18105,-10.456,-18.735
18117,-12.593,-17.592
18129,-12.611,-15.353
18141,-13.663,-15.331
18152,-13.527,-15.772
18164,-11.979,-17.13
18176,-12.4,-17.998
18188,-10.796,-17.898
18199,-10.778,-17.401
18211,-11.016,-18.497
18223,-8.9009,-19.107
18234,-9.8056,-16.8
18246,-9.4729,-18.53
18258,-8.9632,-21.048
18270,-11.874,-20.095
18281,-15.707,-14.946
18293,-10.978,-14.653
18305,-11.568,-17.057
18316,-10.87,-19.482
18328,-10.559,-19.804
18340,-13.428,-16.55
18352,-11.997,-18.225
18363,-11.46,-13.89
18375,-12.777,-15.975
18387,-14.306,-17.298
18398,-12.707,-14.339
18410,-9.5916,-13.453
18422,-11.463,-15.132
18434,-11.352,-19.868
18445,-13.158,-15.687
18457,-13.886,-15.567
18469,-9.5455,-17.604
18480,-11.035,-17.614
18492,-15.802,-18.313
18504,-14.033,-18.437
18516,-13.501,-19.622
18527,-12.272,-21.471
18539,-9.1466,-20.013
18551,-9.5231,-15.55
18563,-10.641,-16.405
18574,-11.068,-18.104
18586,-8.5701,-18.715
18598,-12.809,-17.924
18609,-11.009,-18.616
18621,-12.2,-15.414
18633,-14.356,-14.695
18645,-13.681,-15.176
18656,-11.745,-16.563
18668,-13.278,-19.258
18680,-12.617,-19.782
18691,-11.542,-17.2
18703,-10.873,-17.697
18715,-10.755,-20.956
18727,-10.551,-18.165
18738,-11.313,-17.577
18750,-10.533,-19.511
18762,-11.251,-17.203
18773,-12.117,-19.658
18785,-12.173,-17.808
18797,-12.62,-16.818
18809,-12.664,-16.54
18820,-12.71,-16.036
18832,-11.26,-17.905
18844,-12.618,-18.642
18855,-15.32,-17.059
18867,-14.66,-16.486
18879,-12.511,-15.875
18891,-12.13,-15.767
18902,-12.461,-18.47
18914,-13.395,-18.847
18926,-13.697,-16.587
18938,-13.846,-18.037
18949,-16.543,-18.232
18961,-15.845,-14.521
18973,-12.85,-15.069
18984,-11.731,-19.696
18996,-11.914,-17.737
19008,-12.596,-16.371
19020,-11.839,-17.582
19031,-13.09,-16.622
19043,-10.748,-14.861
19055,-9.2267,-15.036
19066,-12.765,-15.079
19078,-13.821,-15.287
19090,-13.053,-19.676
19102,-14.147,-17.986
19113,-11.096,-16.887
19125,-9.9692,-17.43
19137,-12.773,-18.441
19148,-14.027,-17.367
19160,-11.226,-20.121
19172,-13.257,-17.696
19184,-14.598,-17.779
19195,-14.18,-20.038
19207,-15.052,-18.77
19219,-14.898,-17.699
19230,-10.934,-18.721
19242,-11.962,-20.507
19254,-11.866,-19.289
19266,-13.039,-17.746
19277,-13.63,-18.012
19289,-15.262,-19.423
19301,-12.111,-20.898
19313,-11.806,-20.767
19324,-15.586,-21.195
19336,-13.117,-18.43
19348,-13.738,-17.804
19359,-11.658,-18.229
19371,-10.18,-18.672
19383,-9.4603,-17.788
19395,-10.669,-18.817
19406,-12.599,-21.072
19418,-13.901,-20.713
19430,-14.315,-20.987
19441,-11.985,-18.013
19453,-12.298,-19.767
19465,-13.608,-16.791
19477,-12.362,-16.983
19488,-15.545,-16.224
19500,-15.515,-14.705
19512,-14.099,-16.075
19523,-15.183,-17.813
19535,-15.414,-17.65
19547,-14.211,-18.503
19559,-14.13,-16.533
19570,-14.807,-16.458
19582,-13.24,-14.835
19594,-12.571,-16.994
19605,-11.938,-15.494
19617,-11.784,-15.619
19629,-11.244,-18.681
19641,-14.421,-21.437
19652,-13.157,-18.11
19664,-15.391,-16.367
19676,-13.055,-17.534
19688,-13.241,-18.305
19699,-14.037,-20.314
19711,-15.398,-17.519
19723,-10.519,-17.907
19734,-10.565,-20.438
19746,-11.478,-19.102
19758,-10.438,-15.491
19770,-10.399,-15.703
19781,-12.76,-16.48
19793,-11.034,-18.698
19805,-12.392,-16.28
19816,-13.361,-16.737
19828,-14.6,-18.269
19840,-12.459,-16.967
19852,-11.838,-17.489
19863,-13.157,-19.106
19875,-15.422,-16.233
19887,-18.372,-18.604
19898,-16.241,-20.947
19910,-12.726,-18.646
19922,-11.993,-17.163
19934,-12.082,-17.119
19945,-12.878,-14.457
19957,-13.471,-17.291
19969,-14.368,-16.649
19980,-16.209,-17.663
19992,-12.707,-17.911
20004,-12.294,-15.358
20016,-13.842,-17.636
20027,-16.165,-17.011
20039,-14.7,-18.712
20051,-16.376,-19.801
20063,-13.65,-17.081
20074,-12.067,-17.849
20086,-13.184,-21.575
20098,-15.984,-16.89
20109,-17.865,-18.575
20121,-15.487,-20.15
20133,-14.724,-17.025
20145,-14.384,-17.306
20156,-16.603,-19.383
20168,-14.675,-18.036
20180,-12.434,-19.24
20191,-12.6,-19.489
20203,-10.799,-17.64
20215,-10.54,-18.855
20227,-13.834,-17.068
20238,-17.033,-18.001
20250,-14.839,-18.369
20262,-13.484,-18.789
20273,-14.82,-20.267
20285,-13.166,-21.411
20297,-15.828,-18.574
20309,-15.202,-17.838
20320,-16.238,-19.324
20332,-13.936,-19.842
20344,-15.177,-17.865
20355,-14.315,-18.702
20367,-11.578,-17.865
20379,-12.987,-21.439
20391,-14.486,-20.271
20402,-13.983,-18.596
20414,-12.928,-19.627
20426,-13.997,-19.777
20438,-12.169,-18.098
20449,-18.88,-16.298
20461,-19.027,-18.402
20473,-18.064,-18.519
20484,-14.254,-20.624
20496,-14.05,-20.971
20508,-14.207,-19.703
20520,-13.243,-17.35
20531,-12.603,-16.501
20543,-14.693,-17.348
20555,-15.612,-21.161
20566,-16.313,-21.101
20578,-16.156,-17.881
20590,-19.053,-16.023
20602,-16.795,-17.23
20613,-15.131,-21.366
20625,-13.242,-20.343
20637,-11.585,-18.641
20648,-9.7719,-21.185
20660,-11.765,-19.965
20672,-13.222,-18.427
20684,-12.682,-22.437
20695,-11.479,-16.246
20707,-11.916,-15.161
20719,-13.207,-18.145
20730,-16.271,-17.022
20742,-15.335,-17.477
20754,-14.021,-19.491
20766,-14.458,-17.617
20777,-15.182,-18.103
20789,-13.121,-17.135
20801,-14.95,-20.781
20813,-15.073,-19.509
20824,-16.093,-18.418
20836,-13.17,-20.181
20848,-15.462,-18.17
20859,-15.923,-17.292
20871,-19.13,-19.334
20883,-17.225,-18.419
20895,-14.308,-18.225
20906,-15.365,-20.89
20918,-16.583,-19.835
20930,-17.723,-20.596
20941,-14.288,-18.809
20953,-13.441,-18.912
20965,-14.037,-19.399
20977,-14.204,-18.326
20988,-12.993,-16.743
21000,-11.662,-14.949
21012,-11.353,-16.649
21023,-13.728,-18.108
21035,-16.831,-17.033
21047,-12.534,-20.79
21059,-12.717,-20.775
21070,-18.109,-19.073
21082,-14.494,-19.195
21094,-13.958,-19.955
21105,-20.203,-20.031
21117,-17.454,-20.225
21129,-15.234,-19.123
21141,-12.622,-22.029
21152,-12.583,-21.228
21164,-14.625,-21.489
21176,-15.377,-21.362
21188,-14.978,-15.612
21199,-15.884,-16.643
21211,-18.1,-19.835
21223,-18.55,-23.441
21234,-20.115,-23.319
21246,-15.718,-22.896
21258,-14.534,-20.597
21270,-14.814,-18.263
21281,-14.565,-14.332
21293,-12.788,-13.827
21305,-15.577,-17.701
21316,-16.209,-18.495
21328,-18.971,-19.986
21340,-15.126,-20.82
21352,-15.592,-18.67
21363,-12.428,-19.453
21375,-13.377,-20.783
21387,-14.584,-21.998
21398,-14.8,-18.989
21410,-15.32,-15.646
21422,-14.466,-18.974
21434,-16.126,-20.463
21445,-15.541,-20.418
21457,-16.937,-21.648
21469,-17.854,-25.411
21480,-18.221,-21.479
21492,-13.874,-21.214
21504,-17.235,-18.468
21516,-16.147,-19.747
21527,-16.663,-19.853
21539,-16.209,-19.104
21551,-15.122,-19.733
21563,-14.86,-19.573
21574,-18.517,-18.957
21586,-14.834,-18.981
21598,-12.127,-16.68
21609,-15.265,-16.098
21621,-17.743,-17.468
21633,-15.561,-18.512
21645,-13.672,-20.88
21656,-15.801,-19.667
21668,-15.536,-18.02
21680,-13.626,-20.544
21691,-15.018,-20.297
21703,-13.926,-19.794
21715,-15.667,-21.836
21727,-13.536,-22.013
21738,-14.265,-20.659
21750,-14.244,-18.214
21762,-14.585,-16.753
21773,-14.821,-17.074
21785,-15.904,-19.312
21797,-17.855,-17.883
21809,-17.761,-20.728
21820,-14.77,-21.988
21832,-13.406,-18.412
21844,-15.352,-17.552
21855,-14.56,-16.892
21867,-15.813,-17.958
21879,-15.616,-18.985
21891,-14.441,-18.322
21902,-13.861,-16.988
21914,-15.773,-16.279
21926,-18.2,-16.507
21938,-12.698,-19.187
21949,-13.227,-20.785
21961,-15.618,-23.409
21973,-13.931,-20.402
21984,-17.044,-19.886
21996,-18.015,-20.132
22008,-13.946,-17.128
22020,-14.279,-18.072
22031,-14.092,-20.144
22043,-14.056,-21.548
22055,-15.732,-19.857
22066,-16.64,-17.725
22078,-16.92,-17.419
22090,-17.074,-19.639
22102,-15.819,-16.481
22113,-13.532,-17.732
22125,-14.317,-19.618
22137,-16.242,-21.995
22148,-17.236,-23.563
22160,-14.634,-22.199
22172,-13.618,-20.564
22184,-14.934,-20.386
22195,-16.949,-18.171
22207,-18.531,-20.933
22219,-17.933,-19.22
22230,-17.333,-16.737
22242,-18.808,-17.022
22254,-18.038,-17.046
22266,-16.594,-20.251
22277,-18.543,-19.025
22289,-18.362,-17.777
22301,-18.066,-18.707
22313,-19.802,-18.466
22324,-16.813,-19.885
22336,-15.05,-22.786
22348,-14.467,-21.948
22359,-18.043,-18.226
22371,-15.906,-15.775
22383,-15.178,-20.057
22395,-16.707,-22.707
22406,-16.021,-20.23
22418,-16.855,-17.672
22430,-21.371,-18.083
22441,-17.723,-20.75
22453,-16.446,-22.805
22465,-16.439,-18.311
22477,-18.157,-16.25
22488,-17.648,-17.301
22500,-16.486,-18.519
22512,-15.89,-19.533
22523,-16.075,-22.093
22535,-17.423,-18.578
22547,-16.655,-20.467
22559,-15.73,-20.779
22570,-17.337,-22.688
22582,-19.889,-22.814
22594,-16.201,-18.572
22605,-16.86,-19.487
22617,-19.608,-17.91
22629,-18.615,-17.591
22641,-19.485,-20.333
22652,-19.224,-18.365
22664,-17.125,-20.657
22676,-16.063,-18.756
22688,-17.464,-18.419
22699,-15.492,-19.822
22711,-14.634,-19.028
22723,-15.627,-17.751
22734,-15.38,-17.791
22746,-17.486,-18.572
22758,-17.673,-18.447
22770,-16.935,-19.016
22781,-17.123,-18.859
22793,-17.145,-16.762
22805,-14.028,-20.153
22816,-16.572,-23.479
22828,-16.953,-23.936
22840,-18.477,-20.957
22852,-20.105,-20.334
22863,-21.365,-20.396
22875,-19.829,-21.934
22887,-17.087,-18.469
22898,-17.162,-17.272
22910,-18.072,-19.676
22922,-16.767,-20.881
22934,-18.348,-20.775
22945,-20.098,-21.492
22957,-17.946,-19.237
22969,-18.673,-18.61
22980,-17.276,-19.264
22992,-16.476,-19.777
23004,-15.562,-19.113
23016,-19.798,-22.676
23027,-19.357,-22.108
23039,-19.272,-21.109
23051,-21.017,-23.307
23063,-19.454,-20.39
23074,-15.482,-22.498
23086,-14.844,-20.798
23098,-16.071,-18.659
23109,-14.095,-21.085
23121,-18.408,-21.576
23133,-20.008,-22.307
23145,-18.932,-22.355
23156,-19.185,-22.349
23168,-18.673,-22.911
23180,-16.498,-19.038
23191,-16.68,-19.971
23203,-20.371,-22.652
23215,-18.106,-21.937
23227,-15.481,-23.176
23238,-15.947,-21.167
23250,-17.764,-19.135
23262,-19.472,-20.23
23273,-17.242,-24.686
23285,-18.678,-22.302
23297,-16.429,-20.431
23309,-14.979,-18.296
23320,-15.489,-17.18
23332,-15.48,-19.431
23344,-15.317,-23.115
23355,-15.526,-23.776
23367,-16.389,-22.156
23379,-16.193,-21.187
23391,-16.61,-22.417
23402,-18.242,-19.965
23414,-16.406,-18.111
23426,-19.276,-20.029
23438,-17.724,-22.34
23449,-16.023,-17.034
23461,-17.006,-17.624
23473,-20.128,-19.067
23484,-20.963,-18.6
23496,-21.467,-19.178
23508,-18.297,-21.167
23520,-15.801,-21.822
23531,-15.671,-20.069
23543,-18.43,-20.422
23555,-20.996,-18.673
23566,-20.771,-17.747
23578,-19.367,-18.969
23590,-19.994,-20.503
23602,-18.122,-21.726
23613,-18.881,-22.623
23625,-20.314,-23.162
23637,-20.34,-24.021
23648,-15.321,-22.539
23660,-17.035,-19.621
23672,-19.861,-17.657
23684,-19.884,-17.46
23695,-20.933,-18.582
23707,-19.259,-19.124
23719,-19.122,-18.968
23730,-20.03,-18.068
23742,-19.945,-21.694
23754,-19.45,-21.148
23766,-18.895,-18.366
23777,-16.536,-18.014
23789,-19.559,-18.182
23801,-21.275,-19.404
23813,-19.607,-17.25
23824,-18.321,-18.114
23836,-18.4,-18.766
23848,-17.687,-20.24
23859,-18.004,-20.846
23871,-18.038,-21.621
23883,-18.892,-20.734
23895,-18.49,-19.647
23906,-18.576,-20.361
23918,-15.652,-21.25
23930,-15.851,-22.035
23941,-16.207,-21.912
23953,-17.357,-23.807
23965,-17.368,-20.085
23977,-17.455,-20.975
23988,-17.853,-19.396
