FFT,Power Spectrum
Frequency[Hz],Level-L[dB],Level-R[dB]
11.719,-22.748,-23.869
23.438,-2.4377,-3.2596
35.156,-2.8895,-3.6307
46.875,0.66895,-1.7917
58.594,3.6379,-0.81715
70.313,6.8405,2.4451
82.031,7.0675,4.3566
93.75,9.3546,8.1274
105.47,10.445,7.9568
117.19,7.6399,3.1805
128.91,6.7137,8.3447
140.63,9.6648,13.515
152.34,9.5531,12.291
164.06,5.2638,9.3213
175.78,6.1062,10.5
187.5,7.6671,11.653
199.22,8.7706,9.2774
210.94,4.5573,6.5587
222.66,8.3399,10.494
234.38,11.941,11.993
246.09,9.3557,9.3615
257.81,3.0015,5.531
269.53,5.4035,6.7476
281.25,6.3908,6.5342
292.97,4.3285,7.002
304.69,4.3796,5.4886
316.41,6.5824,4.5128
328.13,7.4344,6.2991
339.84,5.6362,8.5542
351.56,0.21426,8.8421
363.28,2.7731,8.09
375,6.9925,6.5848
386.72,6.348,8.2308
398.44,4.5687,7.6085
410.16,7.4632,4.7053
421.88,10.672,6.4767
433.59,8.6368,8.4024
445.31,3.0569,8.8227
457.03,3.9279,5.8401
468.75,6.0628,5.335
480.47,4.5289,5.9173
492.19,3.5217,7.7628
503.91,6.5538,7.2532
515.63,6.2328,7.3328
527.34,7.7609,6.5223
539.06,5.2934,5.1071
550.78,8.2636,6.3652
562.5,7.8916,8.7119
574.22,6.0723,9.0181
585.94,5.2283,7.3252
597.66,4.3994,4.5511
609.38,0.99205,4.6541
621.09,3.2434,3.5584
632.81,2.4187,4.1709
644.53,1.8461,5.7546
656.25,4.9734,4.1407
667.97,6.2976,6.9626
679.69,4.9836,5.6365
691.41,5.667,6.316
703.13,6.5259,5.334
714.84,0.52177,4.6154
726.56,3.6183,4.9449
738.28,4.9456,3.0155
750,3.9222,5.119
761.72,3.8284,4.6647
773.44,3.4668,4.3607
785.16,2.1714,1.5465
796.88,0.15724,1.7829
808.59,1.9594,4.0567
820.31,2.812,6.7065
832.03,2.6093,5.5906
843.75,1.6062,6.4254
855.47,4.2365,6.5395
867.19,8.054,7.1066
878.91,6.0663,6.6994
890.63,4.9442,5.2956
902.34,6.0172,4.3066
914.06,4.279,4.6022
925.78,3.4313,5.538
937.5,2.3075,5.3834
949.22,2.121,5.6302
960.94,4.791,5.3742
972.66,4.1445,7.0765
984.38,3.3965,7.7357
996.09,3.7379,8.575
1007.8,3.2295,5.2326
1019.5,4.687,3.0515
1031.3,2.8739,3.6572
1043,0.28568,3.68
1054.7,4.7607,3.919
1066.4,5.8049,4.8531
1078.1,4.587,5.7695
1089.8,4.8357,5.4208
1101.6,5.2169,4.087
1113.3,7.9239,5.0898
1125,5.7955,7.3702
1136.7,2.5348,5.4556
1148.4,4.6957,5.9135
1160.2,5.9898,7.3729
1171.9,3.9265,5.8684
1183.6,1.954,5.3687
1195.3,3.5173,4.8172
1207,3.9646,6.2574
1218.8,3.8474,9.5386
1230.5,1.8347,7.3149
1242.2,2.4723,3.3249
1253.9,3.2702,3.6382
1265.6,3.8788,5.8669
1277.3,4.9621,3.3627
1289.1,3.1821,1.6773
1300.8,0.61186,1.9733
1312.5,2.4049,1.6652
1324.2,1.7099,3.3841
1335.9,1.8278,5.5791
1347.7,2.8767,3.0799
1359.4,2.3251,2.198
1371.1,1.186,5.4429
1382.8,3.2289,6.5222
1394.5,4.5138,6.5396
1406.3,2.9634,5.7913
1418,1.915,8.0187
1429.7,2.7059,6.9968
1441.4,3.3992,6.9875
1453.1,2.9986,7.4118
1464.8,5.3827,7.7157
1476.6,-0.84191,9.1627
1488.3,-0.4746,7.6854
1500,2.3508,5.7962
1511.7,2.4921,4.2181
1523.4,1.7285,3.1888
1535.2,3.8215,3.994
1546.9,6.3469,3.6216
1558.6,3.4631,7.0478
1570.3,2.6087,7.2361
1582,6.1357,6.9303
1593.8,6.1716,8.4082
1605.5,1.5728,14.244
1617.2,3.0461,10.683
1628.9,4.3935,5.8704
1640.6,2.2635,7.171
1652.3,-2.1886,5.6821
1664.1,0.89259,7.6901
1675.8,2.1163,8.3449
1687.5,2.2083,6.2459
1699.2,-0.5883,4.793
1710.9,1.7122,4.8892
1722.7,2.318,5.3385
1734.4,0.11457,4.0716
1746.1,-0.26111,3.0093
1757.8,0.64952,3.5991
1769.5,0.44332,7.2172
1781.3,-0.63982,6.9937
1793,2.6176,4.8527
1804.7,4.7777,4.1373
1816.4,2.5392,5.3104
1828.1,-0.3645,7.3766
1839.8,3.1428,0.13649
1851.6,2.1708,1.2755
1863.3,1.8376,2.6695
1875,2.4775,3.2912
1886.7,1.7573,4.1561
1898.4,1.8058,5.3043
1910.2,3.0017,7.4074
1921.9,2.8346,4.1673
1933.6,1.929,4.6024
1945.3,-0.76017,2.7166
1957,1.705,-0.0077706
1968.8,1.8346,1.6308
1980.5,-0.66888,2.7997
1992.2,2.139,2.4612
2003.9,1.2616,-1.4714
2015.6,2.9817,2.7318
2027.3,2.0178,3.6856
2039.1,-0.51452,6.2247
2050.8,-3.4399,5.6993
2062.5,-2.6543,3.6487
2074.2,-1.4823,2.0034
2085.9,2.2143,2.561
2097.7,2.1432,2.264
2109.4,2.7237,-0.086816
2121.1,1.9207,-0.084855
2132.8,0.76415,1.4359
2144.5,2.7429,1.4661
2156.3,-0.32386,3.1223
2168,0.12664,2.537
2179.7,0.44679,0.93343
2191.4,-0.72786,-1.394
2203.1,-3.1699,-0.49891
2214.8,-2.1354,1.7776
2226.6,-0.033189,0.87177
2238.3,0.66887,0.66192
2250,-0.78332,-1.0879
2261.7,-0.94336,0.44612
2273.4,0.97793,0.89888
2285.2,1.3572,4.2487
2296.9,1.7909,1.1625
2308.6,1.1319,1.2687
2320.3,-1.9443,1.5137
2332,0.93247,-0.55805
2343.8,2.0556,3.4377
2355.5,-1.3719,2.3033
2367.2,-0.88641,1.6329
2378.9,-1.3598,0.154
2390.6,0.26437,-2.1495
2402.3,2.5799,0.50884
2414.1,0.53572,-0.14059
2425.8,1.6093,2.3336
2437.5,3.8447,3.6029
2449.2,1.4719,1.5173
2460.9,-1.9394,-0.30303
2472.7,-1.1882,2.2972
2484.4,-0.34511,2.0482
2496.1,0.91915,1.9565
2507.8,0.71189,0.36271
2519.5,-1.2631,-0.71546
2531.3,-0.88144,-0.54028
2543,-1.4667,0.67104
2554.7,-2.4498,1.4169
2566.4,-0.2863,3.1008
2578.1,1.6312,1.963
2589.8,1.6954,-1.1934
2601.6,-0.98755,0.78456
2613.3,-2.1826,3.3935
2625,-1.4655,1.7293
2636.7,0.76121,0.20815
2648.4,0.66069,1.2996
2660.2,0.3663,0.55169
2671.9,1.417,0.64416
2683.6,0.69714,1.4725
2695.3,2.9684,0.89216
2707,2.263,-0.6358
2718.8,-3.8748,-2.59
2730.5,-4.2589,-2.0458
2742.2,0.78737,-3.6061
2753.9,-0.014218,2.1997
2765.6,0.58085,3.6472
2777.3,2.5719,0.93386
2789.1,0.11603,-1.1645
2800.8,-1.5972,-0.29094
2812.5,-0.46955,-0.25979
2824.2,1.7878,0.6141
2835.9,0.80902,1.9364
2847.7,0.83665,1.0586
2859.4,2.3923,-1.9719
2871.1,0.72652,1.3715
2882.8,1.0428,-0.87727
2894.5,0.79298,-1.6645
2906.3,1.2885,0.18208
2918,-0.61755,-0.35102
2929.7,-2.8858,-1.6915
2941.4,-2.7593,-0.98831
2953.1,-3.1199,0.026262
2964.8,-0.2309,2.9911
2976.6,0.63185,1.9179
2988.3,1.6158,1.1708
3000,1.0945,-0.19152
3011.7,0.3888,-1.0777
3023.4,-0.63563,1.8029
3035.2,-0.68917,0.94718
3046.9,-4.6504,-0.92836
3058.6,-2.4735,-0.90823
3070.3,-0.89277,-5.6975
3082,3.2077,-3.5005
3093.8,3.9085,-4.0551
3105.5,3.2945,-2.4412
3117.2,0.59576,0.46827
3128.9,-3.8447,0.37444
3140.6,-4.4252,-2.1929
3152.3,-1.9767,1.0789
3164.1,0.4166,1.1459
3175.8,0.13052,1.6726
3187.5,-1.6297,-0.38415
3199.2,0.53182,-3.8018
3210.9,0.43553,-0.99912
3222.7,-1.8141,0.82381
3234.4,-6.0576,1.3824
3246.1,-4.8574,0.58209
3257.8,-2.9477,1.146
3269.5,1.82,1.5235
3281.3,0.35198,0.040204
3293,-2.7666,1.8802
3304.7,-3.2395,2.2081
3316.4,-4.3472,-1.9801
3328.1,-3.9375,-1.2049
3339.8,-4.9035,-0.32364
3351.6,-5.2071,-1.7831
3363.3,-3.101,-0.88986
3375,-1.1123,-0.36797
3386.7,0.29975,-2.5026
3398.4,-2.0247,-0.47686
3410.2,0.47201,0.93486
3421.9,0.97051,-1.5687
3433.6,1.0758,0.52399
3445.3,-0.087538,-0.47018
3457,-1.8927,-4.439
3468.8,-4.8881,1.1709
3480.5,-0.56262,1.8012
3492.2,0.44724,-0.15769
3503.9,0.92794,-2.3477
3515.6,-0.52945,-2.6102
3527.3,-0.37559,-3.8974
3539.1,0.17162,-1.8977
3550.8,-2.2762,-3.1328
3562.5,0.45729,-3.2882
3574.2,-2.3132,-1.2391
3585.9,-1.9173,-0.42659
3597.7,-1.9275,-2.9372
3609.4,-0.49543,-1.6208
3621.1,0.6616,-1.1026
3632.8,-1.9601,-1.1509
3644.5,-3.7176,-1.5829
3656.3,-3.9252,-1.8881
3668,-4.9055,-2.1489
3679.7,-3.8471,1.3473
3691.4,-0.91799,0.97366
3703.1,0.9266,-0.98547
3714.8,0.7736,-4.3222
3726.6,-2.818,-2.67
3738.3,-3.2695,-3.0742
3750,-1.0441,-1.6136
3761.7,-0.27772,-0.5341
3773.4,-0.82697,-2.8665
3785.2,-3.0706,-0.71977
3796.9,-2.7764,0.21116
3808.6,-0.78706,1.2469
3820.3,-0.75877,-0.58936
3832,-0.80479,-2.9521
3843.8,-2.0644,-1.9735
3855.5,-3.0957,-1.5297
3867.2,-2.8047,-3.9008
3878.9,-0.6241,-1.0946
3890.6,-1.0486,-1.3174
3902.3,-1.9033,-5.4885
3914.1,-3.9552,-4.533
3925.8,-0.0083385,-2.3022
3937.5,-1.4038,-3.6697
3949.2,-5.7765,-3.9488
3960.9,-1.9199,-3.2288
3972.7,-2.3402,-3.4723
3984.4,-1.1767,-1.8728
3996.1,0.19543,-0.7582
4007.8,-1.7475,0.88546
4019.5,-2.672,-0.56851
4031.3,-4.5234,-1.3156
4043,-4.926,-1.8525
4054.7,-3.456,-3.244
4066.4,-1.4481,-1.9087
4078.1,-3.4752,-3.2255
4089.8,-4.4057,-3.7454
4101.6,-2.8727,-3.692
4113.3,-0.71936,-5.2335
4125,-2.1568,-2.4689
4136.7,-3.5673,-1.6717
4148.4,-3.8072,-2.0837
4160.2,-3.0493,-0.69104
4171.9,-0.62521,-0.28363
4183.6,-0.66324,-2.5415
4195.3,-2.7848,-4.7876
4207,-4.5845,-3.1322
4218.8,-0.79151,-3.263
4230.5,-2.0634,-4.3634
4242.2,-4.6643,-2.7676
4253.9,-4.9068,-2.8865
4265.6,-1.3658,-4.3092
4277.3,0.42579,-5.9531
4289.1,-2.3515,-4.1922
4300.8,-4.1682,-6.9443
4312.5,-4.4919,-3.2512
4324.2,-4.0947,0.5793
4335.9,-2.8451,0.030881
4347.7,-2.7938,-2.149
4359.4,-2.9744,-2.1661
4371.1,-2.5373,-2.8914
4382.8,-2.2619,-2.3078
4394.5,-2.8662,-0.72485
4406.3,-2.7851,-5.5793
4418,-3.2136,-2.949
4429.7,-3.9788,-2.409
4441.4,-2.6051,-7.8954
4453.1,0.029977,-3.4168
4464.8,0.33672,0.062275
4476.6,-1.4646,-1.51
4488.3,-2.1741,-1.9591
4500,-2.6343,-6.0986
4511.7,-3.0978,-5.8232
4523.4,-0.94177,-3.6704
4535.2,-0.80628,-3.0519
4546.9,-0.056749,-3.3379
4558.6,1.4453,-0.64621
4570.3,-1.2757,-1.2628
4582,-3.9939,-3.0952
4593.8,-1.704,-3.0728
4605.5,0.02602,-5.9674
4617.2,-2.7797,-7.1123
4628.9,-3.5356,-4.8627
4640.6,-2.5919,-4.2348
4652.3,-3.2887,-2.4249
4664.1,-4.6694,-3.0492
4675.8,-4.4676,-6.0319
4687.5,-2.4203,-5.2529
4699.2,-5.1599,-4.9459
4710.9,-5.2031,-6.5092
4722.7,-2.023,-3.6393
4734.4,-0.25482,-1.4089
4746.1,-0.99008,-2.6976
4757.8,-4.7244,-6.1787
4769.5,-3.5734,-2.9718
4781.3,-2.9951,-2.538
4793,-1.777,-6.3734
4804.7,-2.6228,-5.8341
4816.4,-4.8091,-4.9735
4828.1,-6.0631,-5.5029
4839.8,-6.4276,-6.7368
4851.6,-5.2025,-6.5195
4863.3,-4.9482,-4.8632
4875,-2.2286,-4.4341
4886.7,-2.0206,-4.3887
4898.4,-2.3609,-3.3399
4910.2,-4.1221,-5.3191
4921.9,-6.335,-4.4583
4933.6,-3.9213,-4.0008
4945.3,-1.5373,-1.5347
4957,-1.3136,-1.0342
4968.8,-2.8159,-1.6135
4980.5,-4.1339,-3.0292
4992.2,-4.9211,-3.0473
5003.9,-5.5071,-8.1036
5015.6,-5.7336,-5.2624
5027.3,-4.8441,-5.1123
5039.1,-1.0107,-6.0718
5050.8,-3.3671,-4.2664
5062.5,-5.5461,-2.4758
5074.2,-4.3267,-2.1729
5085.9,-4.2732,-5.0174
5097.7,-4.1826,-4.4767
5109.4,-4.388,-1.2949
5121.1,-2.7559,-5.5426
5132.8,-2.8549,-5.8572
5144.5,-5.3324,-3.219
5156.3,-4.9281,-4.1489
5168,-3.1891,-5.5282
5179.7,-1.5561,-5.4307
5191.4,-1.1438,-2.3901
5203.1,-2.3383,-2.4005
5214.8,-4.222,-0.61412
5226.6,-2.4236,-2.0761
5238.3,-2.703,-4.4817
5250,-8.2507,-4.2009
5261.7,-6.2843,-5.1131
5273.4,-4.277,-2.965
5285.2,-4.8193,-4.0231
5296.9,-3.9815,-3.7726
5308.6,-6.1404,-5.8624
5320.3,-7.1163,-5.0136
5332,-4.5646,-4.1826
5343.8,-3.2135,-4.3821
5355.5,-5.5288,-4.6949
5367.2,-5.996,-5.1306
5378.9,-4.3601,-6.0895
5390.6,-4.254,-8.7438
5402.3,-7.4386,-9.0873
5414.1,-7.7874,-7.7608
5425.8,-7.4929,-4.9737
5437.5,-4.7745,-3.5074
5449.2,-3.4535,-4.6073
5460.9,-5.4911,-3.5676
5472.7,-8.1153,-4.5135
5484.4,-8.1218,-2.5762
5496.1,-2.7175,-2.5265
5507.8,-1.7025,-6.2548
5519.5,-2.4299,-7.9778
5531.3,-4.3009,-5.4045
5543,-8.0998,-5.7565
5554.7,-7.1173,-9.9356
5566.4,-4.83,-6.0336
5578.1,-4.4302,-2.6414
5589.8,-5.0259,-1.7855
5601.6,-7.0472,-4.4916
5613.3,-4.8703,-7.8121
5625,-6.0171,-6.9517
5636.7,-3.2068,-5.7076
5648.4,-3.3063,-6.697
5660.2,-3.2925,-9.6342
5671.9,-2.8276,-9.6603
5683.6,-4.001,-5.1318
5695.3,-1.4789,-3.3509
5707,-2.4481,-3.6414
5718.8,-4.4784,-3.1044
5730.5,-3.8008,-3.3761
5742.2,-2.0624,-2.0789
5753.9,-3.7783,-4.0912
5765.6,-4.6809,-3.8485
5777.3,-4.3602,-5.1578
5789.1,-5.1915,-6.3477
5800.8,-8.6227,-5.8038
5812.5,-7.1919,-4.5988
5824.2,-5.4391,-6.2232
5835.9,-2.9034,-6.1456
5847.7,-2.6356,-3.8147
5859.4,-4.8088,-5.9524
5871.1,-5.9722,-6.1335
5882.8,-5.6909,-9.619
5894.5,-5.6114,-6.564
5906.3,-6.9424,-4.8769
5918,-5.2591,-9.2198
5929.7,-8.7467,-5.0883
5941.4,-7.5328,-3.324
5953.1,-4.4404,-5.5721
5964.8,-5.9143,-8.8359
5976.6,-5.9081,-9.1655
5988.3,-6.4699,-5.7758
6000,-6.405,-6.31
6011.7,-4.3669,-8.9381
6023.4,-8.6576,-6.3071
6035.2,-5.2681,-8.0808
6046.9,-6.6315,-10.233
6058.6,-4.0819,-9.7535
6070.3,-4.4024,-6.9632
6082,-4.8052,-4.9999
6093.8,-6.9425,-4.2217
6105.5,-6.768,-4.9595
6117.2,-6.8784,-9.1604
6128.9,-8.8403,-5.0449
6140.6,-8.2554,-2.6122
6152.3,-5.22,-3.2644
6164.1,-5.6346,-5.7795
6175.8,-6.5165,-5.7458
6187.5,-5.7536,-4.9076
6199.2,-4.2147,-7.295
6210.9,-7.1974,-5.9642
6222.7,-12.272,-6.2666
6234.4,-10.224,-4.2726
6246.1,-9.272,-3.7391
6257.8,-8.5399,-4.2387
6269.5,-7.8572,-7.6822
6281.3,-5.5372,-8.6354
6293,-5.6022,-4.1239
6304.7,-4.0593,-1.5841
6316.4,-4.7104,-3.9269
6328.1,-7.5929,-8.9518
6339.8,-7.9268,-9.0887
6351.6,-7.5964,-5.7379
6363.3,-10.358,-4.7902
6375,-7.1636,-6.5128
6386.7,-7.1747,-5.4615
6398.4,-6.7918,-3.1481
6410.2,-9.7506,-4.5631
6421.9,-10.553,-8.5603
6433.6,-9.7205,-6.8144
6445.3,-9.9358,-6.0511
6457,-8.2668,-7.8387
6468.8,-7.9325,-10.948
6480.5,-9.5129,-8.4783
6492.2,-10.872,-6.6898
6503.9,-7.0964,-5.3662
6515.6,-5.0208,-6.6853
6527.3,-7.1435,-6.9724
6539.1,-12.438,-9.3031
6550.8,-9.3743,-10.902
6562.5,-6.7992,-8.8311
6574.2,-5.2148,-6.822
6585.9,-4.6975,-5.23
6597.7,-3.0904,-5.9432
6609.4,-6.0331,-8.2802
6621.1,-7.1296,-6.5205
6632.8,-5.8003,-4.7826
6644.5,-6.07,-4.8779
6656.3,-5.9897,-8.4499
6668,-10.575,-8.1475
6679.7,-8.8951,-5.2064
6691.4,-7.7165,-6.8834
6703.1,-6.3728,-7.7562
6714.8,-4.6298,-7.0091
6726.6,-5.9955,-7.9684
6738.3,-5.5222,-8.6223
6750,-4.6065,-8.3128
6761.7,-3.7809,-4.2369
6773.4,-8.8069,-2.5915
6785.2,-5.6873,-4.2734
6796.9,-4.9175,-5.0675
6808.6,-5.9067,-4.5576
6820.3,-6.9699,-5.8784
6832,-6.5009,-8.5098
6843.8,-7.928,-9.0186
6855.5,-8.0286,-8.4797
6867.2,-5.1427,-8.0345
6878.9,-7.5393,-7.3233
6890.6,-8.4007,-7.5713
6902.3,-9.7558,-7.8808
6914.1,-8.0153,-9.4264
6925.8,-7.5062,-9.405
6937.5,-7.9794,-7.8715
6949.2,-5.9181,-9.0286
6960.9,-5.4391,-7.8439
6972.7,-5.5685,-7.3662
6984.4,-4.7425,-6.7876
6996.1,-6.8618,-7.4926
7007.8,-7.5323,-10.818
7019.5,-6.1443,-9.2455
7031.3,-6.5739,-7.5187
7043,-9.924,-5.7767
7054.7,-7.0727,-6.7577
7066.4,-6.8313,-9.4123
7078.1,-6.0881,-8.4442
7089.8,-5.6234,-7.9563
7101.6,-6.9219,-5.5629
7113.3,-7.2693,-7.9827
7125,-9.9749,-7.4915
7136.7,-9.3013,-8.5852
7148.4,-7.9227,-6.5561
7160.2,-8.5387,-9.2922
7171.9,-8.3614,-8.6383
7183.6,-7.5784,-8.0878
7195.3,-6.8686,-7.5921
7207,-5.3967,-10.284
7218.8,-6.2541,-13.087
7230.5,-6.3902,-8.373
7242.2,-7.0225,-5.4121
7253.9,-7.2961,-6.0364
7265.6,-10.012,-9.3922
7277.3,-11.777,-12.143
7289.1,-5.6893,-10.555
7300.8,-5.766,-10.074
7312.5,-5.905,-8.9196
7324.2,-7.2094,-12.126
7335.9,-8.1922,-11.33
7347.7,-11.169,-10.427
7359.4,-11.781,-8.9796
7371.1,-7.6781,-6.6408
7382.8,-7.0836,-8.095
7394.5,-7.3659,-8.652
7406.3,-9.4319,-6.994
7418,-9.071,-6.1851
7429.7,-7.0479,-7.1303
7441.4,-6.3306,-10.033
7453.1,-7.5271,-7.8093
7464.8,-8.9578,-8.3171
7476.6,-11.701,-9.5076
7488.3,-10.454,-10.558
7500,-11.238,-9.7522
7511.7,-10.26,-10.21
7523.4,-8.5248,-9.8416
7535.2,-7.4884,-10.105
7546.9,-7.7565,-10.558
7558.6,-9.158,-10.061
7570.3,-7.6333,-10.187
7582,-5.0735,-7.7699
7593.8,-5.2919,-10.612
7605.5,-6.7516,-9.396
7617.2,-7.385,-8.1076
7628.9,-8.5665,-9.8645
7640.6,-10.781,-9.4576
7652.3,-12.372,-10.612
7664.1,-7.6169,-8.9093
7675.8,-7.5597,-6.6298
7687.5,-6.6091,-7.1352
7699.2,-6.0745,-8.6389
7710.9,-9.2698,-8.3448
7722.7,-12.971,-9.0172
7734.4,-12.746,-9.2818
7746.1,-11.66,-5.8304
7757.8,-9.4003,-6.7288
7769.5,-8.0741,-10.295
7781.3,-8.4461,-12.843
7793,-8.267,-12.272
7804.7,-6.5408,-9.9554
7816.4,-6.6511,-9.2008
7828.1,-9.3081,-8.1476
7839.8,-10.002,-9.129
7851.6,-7.8742,-11.297
7863.3,-8.0988,-9.7596
7875,-10.88,-8.8902
7886.7,-7.2797,-10.251
7898.4,-6.262,-9.6872
7910.2,-6.759,-10.285
7921.9,-7.4755,-10.649
7933.6,-7.0022,-11.105
7945.3,-7.3901,-10.386
7957,-8.9364,-9.4409
7968.8,-7.1823,-7.7709
7980.5,-7.565,-8.9382
7992.2,-7.5636,-10.377
8003.9,-8.7606,-10.485
8015.6,-9.8894,-9.1968
8027.3,-8.768,-8.0526
8039.1,-8.2194,-9.3516
8050.8,-8.7569,-9.6332
8062.5,-10.174,-7.5214
8074.2,-10.828,-10.267
8085.9,-10.623,-9.9043
8097.7,-9.403,-12.614
8109.4,-9.4818,-10.79
8121.1,-12.171,-9.3124
8132.8,-8.876,-9.7041
8144.5,-8.5416,-12.145
8156.3,-12.37,-9.3124
8168,-10.552,-9.6042
8179.7,-9.2119,-8.2901
8191.4,-5.9128,-7.9346
8203.1,-4.3901,-10.243
8214.8,-9.6789,-13.216
8226.6,-13.585,-7.2645
8238.3,-13.433,-5.8339
8250,-6.9611,-8.7864
8261.7,-6.2618,-13.541
8273.4,-9.2521,-10.045
8285.2,-10.256,-6.9415
8296.9,-9.0107,-5.8461
8308.6,-9.8896,-6.4124
8320.3,-9.153,-10.41
8332,-8.279,-13.488
8343.8,-10.109,-11.378
8355.5,-8.4968,-9.2239
8367.2,-8.6734,-6.5998
8378.9,-8.5336,-9.8238
8390.6,-9.2409,-10.695
8402.3,-10.478,-8.5546
8414.1,-12.038,-7.21
8425.8,-15.165,-8.991
8437.5,-11.082,-9.6217
8449.2,-10.442,-8.6203
8460.9,-10.19,-10.689
8472.7,-7.7277,-12.261
8484.4,-9.6429,-11.495
8496.1,-11.251,-11.086
8507.8,-7.3025,-10.657
8519.5,-9.1913,-9.1879
8531.3,-8.2686,-8.434
8543,-10.358,-9.4889
8554.7,-10.913,-9.2916
8566.4,-13.555,-8.6442
8578.1,-13.083,-9.4067
8589.8,-10.802,-12.585
8601.6,-11.186,-11.497
8613.3,-10.217,-9.8394
8625,-10.08,-8.3542
8636.7,-9.664,-9.0723
8648.4,-12.38,-11.656
8660.2,-11.452,-12.504
8671.9,-11.079,-12.021
8683.6,-12.498,-12.825
8695.3,-11.212,-9.8103
8707,-9.567,-10.066
8718.8,-9.8565,-10.883
8730.5,-10.752,-11.077
8742.2,-9.5278,-10.493
8753.9,-10.194,-10.199
8765.6,-9.9038,-7.8069
8777.3,-9.65,-8.2814
8789.1,-8.3069,-9.28
8800.8,-8.1574,-11.376
8812.5,-10.845,-13.896
8824.2,-9.7602,-12.031
8835.9,-10.236,-10.166
8847.7,-8.205,-10.671
8859.4,-6.3995,-9.8484
8871.1,-8.7499,-9.5236
8882.8,-13.302,-8.5662
8894.5,-11.455,-11.645
8906.3,-12.011,-9.587
8918,-8.4042,-9.9037
8929.7,-8.3771,-9.2852
8941.4,-11.901,-10.266
8953.1,-12.423,-12.646
8964.8,-12.582,-14.94
8976.6,-10.293,-12.246
8988.3,-9.3442,-9.3648
9000,-11.914,-12.851
9011.7,-12.277,-12.505
9023.4,-11.893,-10.045
9035.2,-11.375,-12.996
9046.9,-8.4122,-13.397
9058.6,-6.6298,-12.868
9070.3,-7.4841,-14.432
9082,-11.048,-11.401
9093.8,-13.149,-8.0387
9105.5,-10.061,-10.305
9117.2,-7.8273,-12.884
9128.9,-9.6871,-11.285
9140.6,-13.402,-10.245
9152.3,-11.683,-11.879
9164.1,-10.878,-10.163
9175.8,-8.0446,-9.1456
9187.5,-9.2611,-11.094
9199.2,-10.15,-9.6452
9210.9,-11.551,-11.699
9222.7,-10.296,-11.573
9234.4,-9.4057,-10.37
9246.1,-11.78,-11.506
9257.8,-8.4457,-13.255
9269.5,-8.7163,-14.23
9281.3,-9.5923,-11.167
9293,-7.5777,-9.6725
9304.7,-7.412,-10.783
9316.4,-8.164,-13.444
9328.1,-8.3973,-13.467
9339.8,-7.7426,-12.824
9351.6,-7.9387,-10.95
9363.3,-10.495,-12.042
9375,-11.49,-11.459
9386.7,-7.554,-10.692
9398.4,-7.4554,-13.374
9410.2,-9.5995,-12.524
9421.9,-9.6434,-12.072
9433.6,-8.3948,-11.248
9445.3,-10.339,-9.8766
9457,-12.023,-8.9367
9468.8,-11.048,-9.734
9480.5,-11.721,-11.467
9492.2,-11.906,-11.871
9503.9,-11.779,-11.902
9515.6,-9.4767,-11.949
9527.3,-8.9461,-15.27
9539.1,-11.867,-12.107
9550.8,-10.578,-10.912
9562.5,-9.2775,-9.9378
9574.2,-9.2979,-9.1762
9585.9,-11.636,-10.785
9597.7,-11.757,-11.872
9609.4,-8.3085,-11.828
9621.1,-8.1869,-13.096
9632.8,-9.4622,-13.389
9644.5,-13.435,-11.426
9656.3,-13.308,-11.805
9668,-11.279,-10.47
9679.7,-16.279,-8.8635
9691.4,-12.051,-11.483
9703.1,-10.268,-14.475
9714.8,-9.5267,-13.713
9726.6,-10.933,-11.588
9738.3,-15.702,-9.2842
9750,-12.538,-9.0027
9761.7,-13.479,-11.496
9773.4,-15.654,-10.822
9785.2,-14.804,-10.712
9796.9,-14.59,-12.617
9808.6,-10.491,-8.8682
9820.3,-10.33,-10.342
9832,-12.008,-12.249
9843.8,-13.63,-10.918
9855.5,-15.198,-12.527
9867.2,-14.873,-14.499
9878.9,-10.973,-14.228
9890.6,-7.4803,-14.474
9902.3,-8.6365,-13.043
9914.1,-8.5784,-11.562
9925.8,-10.177,-13.128
9937.5,-11.069,-16.112
9949.2,-11.317,-14.448
9960.9,-11.983,-12.942
9972.7,-9.8685,-12.028
9984.4,-10.295,-12.807
9996.1,-13.145,-13.018
10008,-11.955,-10.741
10020,-15.277,-12.116
10031,-15.221,-12.154
10043,-14.73,-10.891
10055,-14.192,-10.723
10066,-15.388,-12.092
10078,-12.548,-12.759
10090,-11.054,-13.963
10102,-12.938,-14.527
10113,-11.05,-13.337
10125,-12.227,-11.577
10137,-17.848,-11.667
10148,-14.22,-10.703
10160,-13.255,-12.795
10172,-11.275,-15.192
10184,-10.883,-13.136
10195,-13.602,-11.866
10207,-13.131,-14.401
10219,-13.438,-14.313
10230,-13.562,-14.099
10242,-12.673,-12.184
10254,-12.28,-12.455
10266,-12.063,-13.672
10277,-12.5,-10.753
10289,-13.162,-9.7252
10301,-12.856,-10.194
10313,-11.775,-10.126
10324,-12.219,-9.5179
10336,-11.973,-12.154
10348,-10.394,-16.586
10359,-10.49,-14.7
10371,-13.395,-12.634
10383,-12.001,-11.93
10395,-11.68,-11.123
10406,-10.736,-16.294
10418,-10.231,-12.548
10430,-12.159,-12.797
10441,-13.651,-11.576
10453,-13.386,-12.288
10465,-11.727,-13.854
10477,-11.794,-14.519
10488,-11.337,-11.934
10500,-12.708,-12.948
10512,-10.199,-13.108
10523,-9.1361,-13.358
10535,-11.595,-13.359
10547,-13.727,-12.785
10559,-14.525,-12.901
10570,-14.902,-12.857
10582,-13.012,-14.501
10594,-13.179,-11.115
10605,-11.479,-10.224
10617,-11.584,-14.755
10629,-11.829,-15.557
10641,-13.238,-13.532
10652,-12.829,-12.665
10664,-13.763,-13.392
10676,-12.206,-16.495
10688,-12.019,-15.377
10699,-10.799,-14.27
10711,-12.682,-12.455
10723,-16.221,-11.581
10734,-14.036,-11.677
10746,-13.215,-10.428
10758,-11.117,-10.114
10770,-11.451,-12.282
10781,-13.352,-15.361
10793,-12.752,-12.91
10805,-13.845,-10.88
10816,-13.257,-13.379
10828,-13.159,-13.937
10840,-12.271,-16.945
10852,-11.885,-16.062
10863,-12.27,-14.86
10875,-11.144,-16.025
10887,-11.911,-14.037
10898,-13.694,-14.369
10910,-12.171,-13.097
10922,-10.369,-14.581
10934,-14.037,-17.556
10945,-12.35,-17.918
10957,-8.3867,-17.997
10969,-10.61,-17.863
10980,-13.028,-13.82
10992,-17.904,-14.211
11004,-12.626,-13.915
11016,-10.284,-14.697
11027,-14.633,-15.603
11039,-11.731,-13.697
11051,-12.503,-10.795
11063,-11.684,-9.647
11074,-10.871,-11.045
11086,-13.498,-13.562
11098,-13.959,-17.384
11109,-11.801,-17.734
11121,-11.354,-15.384
11133,-14.564,-13.094
11145,-11.345,-15.389
11156,-11.747,-14.477
11168,-14.096,-14.768
11180,-11.157,-15.326
11191,-11.281,-14.025
11203,-14.055,-15.109
11215,-13.925,-18.157
11227,-13.298,-12.423
11238,-12.548,-15.664
11250,-15.133,-14.636
11262,-14.734,-14.087
11273,-13.537,-13.277
11285,-12.27,-13.607
11297,-12.071,-14.537
11309,-14.873,-13.557
11320,-15.058,-11.795
11332,-13.519,-13.374
11344,-11.462,-15.607
11355,-13.82,-15.078
11367,-12.612,-12.213
11379,-14.151,-13.201
11391,-12.499,-12.75
11402,-10.53,-10.634
11414,-13.656,-10.64
11426,-12.036,-13.755
11438,-10.453,-16.716
11449,-12.757,-17.47
11461,-11.262,-13.925
11473,-11.896,-14.26
11484,-13.268,-12.772
11496,-12.729,-15.263
11508,-12.74,-14.511
11520,-14.247,-11.468
11531,-14.437,-13.577
11543,-11.945,-15.503
11555,-11.056,-15.041
11566,-13.333,-13.352
11578,-14.913,-11.401
11590,-14.872,-11.6
11602,-12.85,-11.929
11613,-10.682,-15.319
11625,-13.004,-14.273
11637,-16.698,-13.551
11648,-16.337,-14.393
11660,-15.003,-11.752
11672,-16.599,-15.155
11684,-13.106,-13.964
11695,-11.455,-16.53
11707,-12.473,-13.095
11719,-14.064,-13.658
11730,-14.291,-12.103
11742,-12.095,-11.563
11754,-14.621,-15.897
11766,-18.616,-17.704
11777,-13.073,-17.789
11789,-11.324,-14.573
11801,-12.675,-13.197
11813,-13.777,-13.935
11824,-14.714,-14.267
11836,-13.931,-14.022
11848,-11.862,-16.084
11859,-10.975,-14.855
11871,-10.478,-12.175
11883,-10.001,-14.278
11895,-11.689,-17.268
11906,-13.474,-17.393
11918,-12.908,-16.922
11930,-12.362,-15.934
11941,-16.916,-14.264
11953,-16.074,-14.341
11965,-15.084,-14.908
11977,-13.834,-16.162
11988,-14.298,-15.974
12000,-13.568,-11.97
12012,-15.077,-14.123
12023,-13.547,-17.909
12035,-12.644,-15.081
12047,-12.802,-15.389
12059,-12.996,-16.179
12070,-11.848,-15.695
12082,-14.496,-16.294
12094,-15.733,-14.981
12105,-17.162,-12.899
12117,-17.972,-14.7
12129,-15.567,-16.658
12141,-13.773,-15.541
12152,-15.31,-15.714
12164,-16.466,-15.129
12176,-14.947,-16.497
12188,-13.471,-17.326
12199,-12.009,-16.048
12211,-10.397,-13.678
12223,-12.1,-13.464
12234,-14.463,-15.564
12246,-15.782,-16.628
12258,-16.109,-15.328
12270,-13.912,-16.563
12281,-11.432,-18.537
12293,-16.18,-19.198
12305,-13.398,-14.644
12316,-12.881,-13.12
12328,-16.722,-12.74
12340,-13.587,-13.887
12352,-13.456,-14.975
12363,-13.251,-14.55
12375,-13.381,-14.66
12387,-12.859,-16.467
12398,-14.303,-18.007
12410,-14.447,-17.89
12422,-12.306,-17.832
12434,-12.463,-19.434
12445,-16.634,-19.684
12457,-18.434,-16.425
12469,-16.026,-18.217
12480,-13.242,-16.785
12492,-14.751,-14.74
12504,-13.443,-13.9
12516,-11.928,-14.896
12527,-9.6458,-16.232
12539,-9.3936,-14.949
12551,-12.146,-16.804
12563,-13.4,-19.06
12574,-16.323,-15.24
12586,-17.486,-13.598
12598,-15.396,-15.229
12609,-14.604,-16.236
12621,-12.485,-15.602
12633,-11.065,-15.686
12645,-12.288,-15.979
12656,-13.718,-14.262
12668,-13.826,-16.319
12680,-15.612,-17.531
12691,-15.097,-15.101
12703,-13.499,-13.32
12715,-15.285,-13.645
12727,-18.497,-14.502
12738,-17.043,-15.582
12750,-12.935,-13.452
12762,-13.086,-12.218
12773,-14.145,-16.345
12785,-13.434,-14.515
12797,-12.088,-14.061
12809,-10.966,-16.123
12820,-10.045,-14.991
12832,-12.821,-15.942
12844,-12.23,-16.484
12855,-13.788,-15.813
12867,-16.513,-15.835
12879,-17.762,-15.613
12891,-11.971,-13.059
12902,-11.33,-12.222
12914,-12.724,-13.611
12926,-15.1,-15.689
12938,-16.703,-14.283
12949,-14.401,-13.018
12961,-12.589,-14.293
12973,-12.283,-19.837
12984,-12.957,-20.433
12996,-17.191,-16.061
13008,-17.545,-12.773
13020,-16.011,-12.806
13031,-16.613,-13.364
13043,-12.884,-15.888
13055,-12.686,-16.746
13066,-13.882,-16.636
13078,-10.519,-14.001
13090,-11.147,-11.627
13102,-12.139,-12.808
13113,-12.699,-13.605
13125,-12.779,-10.984
13137,-11.35,-12.615
13148,-14.011,-16.567
13160,-14.729,-12.435
13172,-11.352,-12.037
13184,-14.471,-14.659
13195,-18.46,-15.552
13207,-16.053,-13.997
13219,-14.328,-21.181
13230,-13.065,-14.441
13242,-12.863,-14.12
13254,-13.622,-18.607
13266,-15.43,-16.325
13277,-16.128,-16.469
13289,-11.958,-15.419
13301,-12.031,-14.137
13313,-12.104,-15.02
13324,-11.327,-15.829
13336,-12.505,-13.372
13348,-17.696,-10.555
13359,-13.392,-11.058
13371,-15.377,-12.345
13383,-15.255,-15.986
13395,-14.088,-15.631
13406,-12.103,-13.965
13418,-13.46,-12.638
13430,-16.427,-14.854
13441,-17.337,-17.551
13453,-14.982,-16.217
13465,-13.237,-16.372
13477,-17.806,-17.068
13488,-15.083,-13.876
13500,-14.376,-11.18
13512,-16.652,-13.474
13523,-16.197,-15.673
13535,-14.021,-14.384
13547,-15.363,-14.229
13559,-20.667,-15.418
13570,-17.038,-14.947
13582,-14.617,-13.473
13594,-16.844,-15.301
13605,-15.259,-14.548
13617,-15.477,-12.217
13629,-14.765,-12.655
13641,-16.077,-14.538
13652,-17.418,-17.06
13664,-15.753,-16.403
13676,-14.429,-16.631
13688,-14.193,-18.28
13699,-14.784,-18.717
13711,-16.421,-15.852
13723,-15.714,-15.918
13734,-12.81,-18.736
13746,-13.668,-19.519
13758,-14.668,-14.643
13770,-16.137,-14.264
13781,-16.964,-15.855
13793,-16.742,-15.826
13805,-16.445,-13.561
13816,-14.562,-12.473
13828,-13.674,-12.458
13840,-14.902,-17.866
13852,-15.259,-15.497
13863,-17.749,-17.695
13875,-17.547,-20.377
13887,-17.059,-16.104
13898,-16.49,-13.234
13910,-13.774,-14.7
13922,-13.704,-16.282
13934,-16.207,-15.09
13945,-17.946,-16.541
13957,-13.087,-15.839
13969,-13.738,-15.117
13980,-17.19,-17.391
13992,-13.695,-17.881
14004,-14.34,-18.404
14016,-15.179,-17.864
14027,-14.819,-15.353
14039,-12.7,-14.787
14051,-13.876,-15.925
14063,-16.221,-12.305
14074,-18.142,-15.894
14086,-17.002,-15.916
14098,-16.606,-15.377
14109,-15.232,-15.342
14121,-13.557,-16.481
14133,-13.88,-16.692
14145,-11.152,-17.421
14156,-14.623,-16.096
14168,-16.502,-14.575
14180,-17.91,-14.285
14191,-17.479,-14.683
14203,-15.964,-14.736
14215,-16.173,-13.861
14227,-13.188,-13.595
14238,-13.943,-16.048
14250,-14.501,-17.143
14262,-18.042,-15.37
14273,-16.018,-15.332
14285,-14.56,-19.721
14297,-15.305,-18.969
14309,-16.843,-17.104
14320,-17.833,-15.3
14332,-15.964,-14.435
14344,-14.273,-13.716
14355,-13.782,-13.068
14367,-13.815,-15.517
14379,-17.16,-17.479
14391,-17.902,-16.083
14402,-19.416,-18.13
14414,-20.237,-18.558
14426,-18.582,-19.1
14438,-15.798,-17.441
14449,-15.429,-15.498
14461,-17.154,-18.176
14473,-17.962,-19.461
14484,-16.905,-19.168
14496,-16.24,-16.197
14508,-16.715,-14.51
14520,-16.256,-13.673
14531,-17.422,-13.264
14543,-16.177,-14.435
14555,-18.803,-18.922
14566,-13.63,-19.795
14578,-14.442,-16.746
14590,-16.171,-17.254
14602,-12.876,-16.829
14613,-12.428,-19.163
14625,-14.513,-15.897
14637,-14.2,-15.399
14648,-13.942,-14.851
14660,-15.073,-16.686
14672,-17.22,-21.354
14684,-18.784,-19.107
14695,-18.759,-15.419
14707,-18.989,-12.816
14719,-18.597,-14.524
14730,-17.694,-15.021
14742,-13.36,-11.726
14754,-14.193,-14.894
14766,-15.822,-17.966
14777,-16.808,-17.803
14789,-16.996,-16.575
14801,-15.948,-16.596
14813,-16.224,-16.088
14824,-17.021,-14.39
14836,-20.891,-16.633
14848,-19.085,-17.765
14859,-18.811,-17.204
14871,-17.933,-15.344
14883,-16.692,-15.935
14895,-18.756,-17.541
14906,-17.352,-18.112
14918,-18.064,-16.458
14930,-15.216,-15.783
14941,-14.98,-15.99
14953,-16.095,-16.92
14965,-18.685,-13.86
14977,-18.275,-13.512
14988,-18.624,-13.513
15000,-17.698,-15.393
15012,-18.294,-17.826
15023,-19.311,-17.381
15035,-20.986,-16.465
15047,-19.438,-15.997
15059,-15.939,-15.678
15070,-18.415,-15.669
15082,-19.527,-16.366
15094,-19.302,-18.225
15105,-18.602,-19.453
15117,-18.255,-17.595
15129,-19.844,-16.737
15141,-19.399,-15.596
15152,-19.539,-13.782
15164,-17.533,-16.146
15176,-18.045,-16.153
15188,-19.228,-16.079
15199,-18.437,-17.857
15211,-16.051,-16.259
15223,-16.23,-17.586
15234,-15.263,-18.57
15246,-16.788,-16.364
15258,-18.121,-18.288
15270,-17.84,-17.987
15281,-18.676,-14.635
15293,-18.866,-11.939
15305,-17.502,-13.567
15316,-17.254,-17.07
15328,-17.658,-19.058
15340,-17.116,-14.73
15352,-17.942,-14.391
15363,-20.832,-16.214
15375,-21.265,-17.731
15387,-19.768,-16.102
15398,-15.017,-16.955
15410,-16.707,-16.411
15422,-20.298,-17.143
15434,-19.073,-19.303
15445,-17.651,-19.119
15457,-18.008,-17.55
15469,-22.323,-18.948
15480,-20.685,-19.254
15492,-18.046,-17.785
15504,-17.985,-17.524
15516,-19.236,-18.542
15527,-17.576,-22.62
15539,-17.351,-18.22
15551,-18.836,-16.581
15563,-18.817,-18.269
15574,-19.268,-19.043
15586,-19.774,-19.13
15598,-16.571,-20.693
15609,-17.082,-19.79
15621,-16.034,-16.254
15633,-17.004,-17.851
15645,-20.301,-18.944
15656,-22.314,-18.697
15668,-24.606,-18.484
15680,-20.251,-19.27
15691,-19.511,-15.007
15703,-19.789,-16.506
15715,-18.745,-16.427
15727,-19.963,-16.557
15738,-19.784,-17.789
15750,-20.633,-18.013
15762,-24.028,-18.603
15773,-21.341,-18.5
15785,-18.513,-19.236
15797,-19.002,-17.504
15809,-22.873,-15.55
15820,-21.255,-16.122
15832,-20.311,-17.327
15844,-22.714,-18.023
15855,-25.061,-20.575
15867,-21.524,-20.216
15879,-23.488,-18.524
15891,-21.256,-16.207
15902,-17.619,-15.65
15914,-20.481,-18.518
15926,-20.784,-15.184
15938,-19.616,-13.807
15949,-21.245,-18.774
15961,-19.798,-19.565
15973,-20.462,-18.608
15984,-19.823,-19.498
15996,-20.571,-18.467
16008,-17.746,-18.06
16020,-18.55,-16.904
16031,-17.063,-18.278
16043,-18.418,-19.305
16055,-20.637,-16.393
16066,-20.645,-17.929
16078,-19.615,-17.389
16090,-18.934,-19.591
16102,-17.864,-20.088
16113,-20.654,-18.689
16125,-23.255,-20.122
16137,-20.232,-15.571
16148,-19.169,-17.142
16160,-18.562,-18.125
16172,-20.355,-20.25
16184,-21.274,-19.028
16195,-18.074,-19.619
16207,-18.93,-19.202
16219,-18.28,-22.241
16230,-19.401,-17.506
16242,-18.287,-16.275
16254,-16.292,-16.256
16266,-16.846,-19.666
16277,-18.35,-22.262
16289,-18.065,-20.001
16301,-20.098,-18.721
16313,-19.284,-22.958
16324,-17.126,-20.06
16336,-17.612,-17.26
16348,-19.752,-19.332
16359,-21.734,-18.002
16371,-19.688,-18.858
16383,-17.711,-19.938
16395,-17.512,-20.748
16406,-20.818,-21.645
16418,-21.608,-17.976
16430,-20.524,-19.376
16441,-20.79,-19.821
16453,-20.504,-20.457
16465,-20.912,-20.846
16477,-20.493,-18.489
16488,-21.731,-21.49
16500,-19.874,-24.079
16512,-17.744,-23.158
16523,-17.596,-21.598
16535,-19.483,-18.541
16547,-22.276,-21.399
16559,-22.479,-19.962
16570,-19.422,-18.166
16582,-21.039,-20.173
16594,-25.008,-20.442
16605,-23.544,-20.713
16617,-20.519,-18.096
16629,-21.69,-17.556
16641,-20.682,-18.26
16652,-19.186,-23.489
16664,-20.994,-22.048
16676,-19.81,-17.775
16688,-19.837,-17.125
16699,-19.469,-17.689
16711,-18.536,-16.06
16723,-19.131,-16.444
16734,-19.74,-19.838
16746,-19.997,-19.472
16758,-19.432,-19.392
16770,-19.604,-20.185
16781,-19.871,-18.393
16793,-20.037,-17.186
16805,-20.389,-19.88
16816,-21.806,-24.793
16828,-25.354,-21.228
16840,-22.821,-19.231
16852,-21.862,-19.477
16863,-22.277,-21.338
16875,-20.836,-20.003
16887,-22.661,-18.882
16898,-24.151,-21.032
16910,-22.579,-22.687
16922,-24.478,-23.157
16934,-23.617,-23.275
16945,-24.176,-21.087
16957,-24.888,-22.956
16969,-21.703,-18.613
16980,-23.76,-20.112
16992,-24.012,-23.175
17004,-20.975,-20.814
17016,-20.873,-21.853
17027,-21.862,-21.704
17039,-21.447,-19.127
17051,-21.303,-21.453
17063,-19.476,-22.174
17074,-19.795,-23.126
17086,-19.103,-21.995
17098,-18.747,-21.787
17109,-18.999,-21.394
17121,-19.288,-20.65
17133,-20.982,-21.889
17145,-18.342,-23.641
17156,-19.524,-20.896
17168,-23.654,-18.544
17180,-24.939,-19.413
17191,-23.882,-20.146
17203,-22.984,-20.328
17215,-23.237,-19.463
17227,-21.503,-21.493
17238,-23.704,-23.468
17250,-25.218,-20.63
17262,-22.785,-21.33
17273,-21.272,-24.713
17285,-21.308,-20.162
17297,-21.091,-19.823
17309,-21.324,-20.817
17320,-23.461,-21.446
17332,-20.868,-21.438
17344,-21.135,-19.998
17355,-22.111,-21.654
17367,-19.178,-19.903
17379,-20.561,-18.911
17391,-24.404,-23.53
17402,-24.548,-19.148
17414,-23.056,-19.423
17426,-21.907,-22.368
17438,-24.091,-25.486
17449,-24.587,-26.466
17461,-24.63,-23.744
17473,-25.358,-23.317
17484,-24.027,-23.157
17496,-22.906,-24.983
17508,-23.973,-24.184
17520,-24.011,-23.592
17531,-21.807,-21.396
17543,-20.216,-20.081
17555,-21.969,-19.694
17566,-23.458,-20.937
17578,-23.603,-22.37
17590,-21.185,-22.192
17602,-22.144,-23.629
17613,-21.579,-22.555
17625,-24.298,-21.4
17637,-24.533,-20.979
17648,-21.57,-22.225
17660,-20.481,-20.783
17672,-20.986,-20.567
17684,-23.065,-22.371
17695,-23.267,-23.375
17707,-25.418,-21.841
17719,-23.81,-21.948
17730,-22.53,-20.792
17742,-24.581,-22.863
17754,-24.509,-24.791
17766,-20.496,-23.513
17777,-22.303,-21.583
17789,-22.734,-21.604
17801,-21.837,-20.427
17813,-20.715,-23.254
17824,-20.975,-20.312
17836,-23.154,-20.134
17848,-22.849,-23.019
17859,-22.414,-22.388
17871,-23.972,-21.461
17883,-21.687,-22.962
17895,-20.471,-21.105
17906,-19.576,-20.686
17918,-19.321,-22.335
17930,-21.082,-22.234
17941,-23.609,-22.329
17953,-22.469,-24.351
17965,-24.456,-24.081
17977,-25.218,-23.465
17988,-23.998,-23.165
18000,-26.822,-25.086
18012,-23.602,-24.304
18023,-21.167,-24.605
18035,-22.085,-25.492
18047,-23.644,-22.263
18059,-24.114,-23.459
18070,-23.143,-25.096
18082,-23.168,-24.545
18094,-21.526,-21.898
18105,-23.868,-21.178
18117,-23.64,-23.166
18129,-21.516,-22.423
18141,-20.696,-22.69
18152,-21.278,-23.024
18164,-26.325,-22.233
18176,-25.065,-22.501
18188,-20.935,-23.429
18199,-23.336,-22.7
18211,-24.071,-22.689
18223,-22.315,-21.601
18234,-23.839,-22.681
18246,-24.086,-24.222
18258,-25.468,-24.632
18270,-24.455,-25.918
18281,-24.173,-24.953
18293,-23.048,-26.712
18305,-22.669,-23.097
18316,-25.715,-24.507
18328,-25.377,-24.056
18340,-26.843,-22.032
18352,-22.622,-21.805
18363,-22.233,-23.748
18375,-23.867,-23.303
18387,-23.91,-24.164
18398,-23.438,-22.037
18410,-20.662,-22.284
18422,-19.424,-23.33
18434,-22.745,-26.266
18445,-26.232,-21.434
18457,-23.124,-22.088
18469,-25.379,-23.438
18480,-24.686,-25.66
18492,-21.553,-22.869
18504,-22.755,-25.265
18516,-23.5,-22.175
18527,-22.832,-25.07
18539,-21.722,-23.027
18551,-23.863,-22.606
18563,-23.569,-25.548
18574,-22.466,-24.965
18586,-23.421,-24.937
18598,-22.437,-25.635
18609,-23.511,-23.582
18621,-23.336,-21.783
18633,-22.218,-23.822
18645,-25.197,-25.76
18656,-26.588,-25.733
18668,-23.462,-24.745
18680,-23.075,-23.697
18691,-22.501,-25.333
18703,-23.743,-25.104
18715,-22.289,-22.639
18727,-22.491,-22.229
18738,-22.42,-22.448
18750,-20.926,-22.287
18762,-20.928,-24.422
18773,-23.288,-22.971
18785,-23.253,-18.63
18797,-23.885,-22.009
18809,-24.059,-25.959
18820,-22.337,-24.042
18832,-20.44,-24.31
18844,-23.338,-23.604
18855,-26.699,-20.866
18867,-21.8,-26.488
18879,-21.061,-26.535
18891,-26.48,-22.721
18902,-26.991,-22.338
18914,-23.793,-20.954
18926,-24.404,-22.846
18938,-24.319,-25.725
18949,-24.831,-29.873
18961,-22.219,-26.239
18973,-22.724,-22.628
18984,-23.806,-20.558
18996,-23.868,-22.531
19008,-24.151,-24.211
19020,-26.988,-23.346
19031,-27.982,-24.794
19043,-26.381,-27.089
19055,-28.18,-24.414
19066,-26.563,-26.531
19078,-23.711,-25.503
19090,-24.091,-23.503
19102,-24.481,-21.4
19113,-24.175,-21.673
19125,-24.075,-24.133
19137,-25.511,-23.59
19148,-22.981,-22.274
19160,-19.83,-23.214
19172,-22.545,-24.05
19184,-24.37,-22.891
19195,-22.948,-25.078
19207,-22.89,-24.275
19219,-22.525,-25.213
19230,-24.427,-22.254
19242,-24.544,-21.817
19254,-24.607,-21.432
19266,-24.843,-23.84
19277,-26.491,-25.22
19289,-25.437,-22.744
19301,-23.212,-21.001
19313,-23.021,-22.172
19324,-22.953,-24.106
19336,-23.428,-25.274
19348,-24.854,-26.23
19359,-23.883,-22
19371,-23.545,-23.363
19383,-23.566,-24.8
19395,-24.754,-26.396
19406,-27.026,-23.779
19418,-25.743,-21.271
19430,-23.194,-22.083
19441,-22.701,-23.94
19453,-23.094,-25.788
19465,-23.76,-22.941
19477,-23.352,-22.194
19488,-22.239,-23.536
19500,-23.408,-25.644
19512,-23.182,-26.036
19523,-25.211,-25.472
19535,-26.424,-26.454
19547,-26.649,-25.469
19559,-24.969,-25.972
19570,-24.959,-24.746
19582,-25.111,-25.568
19594,-25.494,-23.912
19605,-21.503,-21.646
19617,-22.913,-21.622
19629,-22.937,-27.974
19641,-23.347,-31.525
19652,-23.284,-24.709
19664,-25.755,-25.522
19676,-27.049,-29.935
19688,-25.245,-26.109
19699,-24.909,-24.979
19711,-22.173,-25.487
19723,-22.425,-22.188
19734,-25.074,-23.306
19746,-24.734,-25.307
19758,-23.473,-26.134
19770,-25.292,-25.946
19781,-24.088,-20.879
19793,-25.543,-22.868
19805,-26.304,-26.84
19816,-28.406,-24.35
19828,-25.69,-21.589
19840,-24.723,-21.522
19852,-24.851,-24.188
19863,-26.137,-24.622
19875,-27.855,-24.96
19887,-26.394,-24.024
19898,-24.143,-24.915
19910,-25.556,-26.827
19922,-25.198,-27.626
19934,-25.55,-26.612
19945,-22.157,-27.493
19957,-23.377,-26.584
19969,-22.876,-24.306
19980,-22.929,-23.423
19992,-24.429,-23.416
20004,-24.028,-23.004
20016,-27.322,-23.364
20027,-28.316,-24.249
20039,-24.524,-25.124
20051,-25.563,-25.546
20063,-22.83,-28.229
20074,-23.414,-26.375
20086,-26.175,-24.266
20098,-26.702,-24.156
20109,-25.598,-25.969
20121,-23.051,-26.944
20133,-25.038,-28.318
20145,-27.29,-26.022
20156,-27.097,-24.358
20168,-23.784,-25.44
20180,-24.429,-27.28
20191,-25.753,-26.676
20203,-24.317,-26.175
20215,-24.696,-24.321
20227,-28.083,-24.264
20238,-28.509,-24.749
20250,-28.012,-29.665
20262,-25.321,-29.048
20273,-25.094,-29.593
20285,-26.921,-27.892
20297,-25.439,-24.715
20309,-25.308,-23.648
20320,-25.114,-24.846
20332,-28.575,-24.512
20344,-29.286,-25.345
20355,-25.991,-24.786
20367,-22.568,-25.089
20379,-22.015,-28.039
20391,-23.556,-27.103
20402,-23.399,-26.718
20414,-24.674,-25.652
20426,-28.482,-24.594
20438,-26.659,-25.451
20449,-27.924,-28.023
20461,-28.424,-25.713
20473,-28.797,-25.133
20484,-26.902,-26.174
20496,-26.897,-27.3
20508,-27.153,-26.791
20520,-26.083,-26.619
20531,-24.571,-25.926
20543,-23.647,-25.253
20555,-26.562,-26.09
20566,-27.094,-27.311
20578,-26.158,-24.652
20590,-23.668,-25.579
20602,-22.065,-25.984
20613,-22.437,-25.543
20625,-22.314,-23.778
20637,-23.635,-22.916
20648,-24.973,-25.399
20660,-25.838,-27.914
20672,-24.375,-26.981
20684,-24.642,-25.756
20695,-26.433,-26.956
20707,-25.909,-26.023
20719,-26.929,-26.472
20730,-25.514,-25.309
20742,-25.503,-25.215
20754,-23.357,-27.787
20766,-24.62,-27.005
20777,-25.919,-26.749
20789,-27.219,-26.577
20801,-24.62,-26.81
20813,-23.523,-23.255
20824,-27.662,-24.443
20836,-25.783,-27.45
20848,-26.089,-26.28
20859,-29.939,-25.302
20871,-30.298,-27.513
20883,-25.183,-26.408
20895,-23.933,-24.346
20906,-26.04,-25.573
20918,-27.072,-25.968
20930,-26.219,-26.194
20941,-26.505,-24.478
20953,-23.89,-22.386
20965,-26.012,-25.923
20977,-26.068,-27.257
20988,-26.004,-25.628
21000,-25.763,-23.826
21012,-26.806,-29.286
21023,-25.761,-24.159
21035,-23.558,-26.161
21047,-22.977,-27.136
21059,-26.76,-24.464
21070,-24.465,-26.022
21082,-24.624,-25.783
21094,-25.519,-24.435
21105,-25.037,-24.552
21117,-22.995,-24.659
21129,-24.699,-27.564
21141,-30.204,-27.688
21152,-27.152,-27.201
21164,-26.86,-26.546
21176,-26.631,-26.18
21188,-27.89,-27.255
21199,-25.47,-22.933
21211,-25.775,-21.812
21223,-25.863,-26.326
21234,-23.905,-28.344
21246,-24.599,-28.763
21258,-23.258,-26.774
21270,-24.323,-26.181
21281,-27.911,-26.638
21293,-28.484,-26.765
21305,-28.938,-29.426
21316,-27.776,-27.608
21328,-26.254,-24.666
21340,-25.697,-25.729
21352,-24.708,-28.647
21363,-24.826,-27.403
21375,-26.698,-27.316
21387,-28.917,-26.159
21398,-25.758,-25.818
21410,-25.234,-24.892
21422,-29.725,-24.914
21434,-27.812,-25.971
21445,-24.593,-25.293
21457,-26.537,-26.422
21469,-29.958,-26.542
21480,-27.154,-27.609
21492,-26.236,-23.776
21504,-29.243,-23.455
21516,-29.194,-27.526
21527,-28.867,-25.629
21539,-29.603,-26.328
21551,-30.436,-24.053
21563,-28.288,-24.615
21574,-26.294,-24.873
21586,-29.326,-25.447
21598,-30.893,-28.762
21609,-28.081,-28.179
21621,-28.845,-27.369
21633,-28.52,-28.281
21645,-27.835,-25.916
21656,-25.167,-27.001
21668,-25.283,-26.624
21680,-24.803,-28.231
21691,-24.046,-27.194
21703,-25.905,-27.653
21715,-25.653,-28.547
21727,-24.05,-27.819
21738,-26.346,-26.148
21750,-28.983,-24.08
21762,-26.303,-26.452
21773,-25.209,-28.445
21785,-24.341,-28.865
21797,-25.439,-26.281
21809,-25.196,-26.048
21820,-23.96,-28.021
21832,-25.906,-26.674
21844,-28.285,-25.992
21855,-28.861,-29.538
21867,-28.567,-26.128
21879,-27.447,-25.162
21891,-25.891,-28.084
21902,-28.121,-27.418
21914,-26.618,-26.649
21926,-24.26,-26.744
21938,-26.476,-25.976
21949,-27.819,-26.677
21961,-26.889,-29.167
21973,-26.243,-30.052
21984,-28.925,-28.275
21996,-29.361,-27.751
22008,-27.591,-27.063
22020,-27.056,-26.427
22031,-30.044,-27.262
22043,-31.12,-25.955
22055,-27.226,-27.486
22066,-25.977,-27.577
22078,-26.677,-25.685
22090,-25.58,-25.581
22102,-27.962,-25.163
22113,-28.785,-26.856
22125,-25.916,-26.697
22137,-31.347,-27.11
22148,-27.304,-28.157
22160,-26.791,-26.515
22172,-27.479,-24.562
22184,-25.839,-25.082
22195,-23.825,-24.424
22207,-24.507,-26.893
22219,-27.417,-30.216
22230,-26.642,-29.326
22242,-27.627,-26.225
22254,-26.164,-26.426
22266,-24.462,-27.849
22277,-26.906,-28.11
22289,-29.515,-28.191
22301,-28.936,-28.565
22313,-27.062,-27.963
22324,-26.506,-27.958
22336,-26.056,-28.348
22348,-26.762,-28.106
22359,-30.111,-25.533
22371,-30.081,-26.504
22383,-28.986,-25.774
22395,-27.914,-25.783
22406,-27.917,-26.763
22418,-31.409,-24.939
22430,-32.463,-26.15
22441,-31.566,-27.859
22453,-30.002,-30.205
22465,-27.376,-31.398
22477,-26.804,-27.254
22488,-26.122,-27.445
22500,-25.846,-27.103
22512,-25.273,-27.685
22523,-25.222,-26.922
22535,-25.351,-25.437
22547,-23.933,-26.567
22559,-25.824,-25.097
22570,-26.651,-27.542
22582,-25.034,-27.687
22594,-27.21,-26.973
22605,-30.407,-27.899
22617,-28.815,-27.071
22629,-28.723,-27.889
22641,-25.746,-28.101
22652,-26.949,-27.659
22664,-27.493,-26.871
22676,-29.42,-26.228
22688,-28.013,-27.438
22699,-28.778,-27.766
22711,-28.165,-26.093
22723,-27.122,-28.531
22734,-23.783,-31.691
22746,-23.136,-29.556
22758,-26.431,-27.732
22770,-29.954,-24.205
22781,-26.979,-22.982
22793,-27.299,-25.583
22805,-25.828,-26.786
22816,-24.8,-28.594
22828,-27.397,-29.794
22840,-28.813,-29.568
22852,-27.988,-27.17
22863,-29.995,-25.848
22875,-30.158,-26.547
22887,-30.328,-25.724
22898,-25.849,-24.88
22910,-26.177,-26.152
22922,-28.125,-27.795
22934,-28.183,-28.132
22945,-29.381,-27.671
22957,-26.808,-26.777
22969,-30.836,-29.657
22980,-30.571,-27.207
22992,-28.184,-29.881
23004,-28.235,-28.202
23016,-28.76,-30.855
23027,-31.33,-29.943
23039,-28.678,-30.324
23051,-28.115,-29.532
23063,-29.535,-30.208
23074,-29.32,-31.853
23086,-28.256,-27.367
23098,-27.828,-25.516
23109,-28.603,-30.903
23121,-30.673,-30.94
23133,-31.285,-29.615
23145,-30.908,-29.19
23156,-31.845,-28.455
23168,-30.138,-28.745
23180,-28.655,-26.14
23191,-26.96,-28.29
23203,-27.101,-29.143
23215,-30.869,-31.278
23227,-28.882,-29.494
23238,-26.476,-29.323
23250,-25.962,-28.381
23262,-26.384,-27.522
23273,-29.713,-27.504
23285,-32.535,-30.285
23297,-31.416,-30.887
23309,-28.684,-29.957
23320,-28.622,-27.925
23332,-30.761,-26.433
23344,-28.165,-26.324
23355,-28.631,-27.037
23367,-31.435,-29.244
23379,-30.997,-30.65
23391,-30.467,-29.81
23402,-30.521,-28.283
23414,-29.313,-29.814
23426,-30.308,-32.582
23438,-27.671,-27.945
23449,-26.667,-30.343
23461,-27.498,-24.981
23473,-30.007,-25.621
23484,-30.072,-26.934
23496,-29.936,-28.457
23508,-28.478,-31.96
23520,-25.708,-30.154
23531,-26.576,-29.834
23543,-28.719,-28.311
23555,-28.892,-29.629
23566,-28.419,-26.424
23578,-29.413,-27
23590,-27.988,-27.91
23602,-30.475,-28.918
23613,-29.488,-26.765
23625,-27.223,-26.874
23637,-27.902,-26.59
23648,-27.967,-25.979
23660,-29.57,-27.366
23672,-30.972,-28.477
23684,-27.733,-28.8
23695,-25.972,-25.719
23707,-27.346,-24.976
23719,-28.399,-24.783
23730,-29.758,-29.278
23742,-30.442,-33.436
23754,-29.102,-31.335
23766,-28.805,-31.116
23777,-31.868,-28.64
23789,-30.536,-27.886
23801,-31.462,-27.555
23813,-31.281,-27.011
23824,-29.35,-26.54
23836,-28.87,-29.436
23848,-30.783,-27.778
23859,-30.367,-24.831
23871,-30.058,-21.885
23883,-28.956,-22.078
23895,-28.921,-25.112
23906,-29.479,-27.278
23918,-30.067,-28.57
23930,-30.854,-25.263
23941,-31.967,-18.559
23953,-31.164,-19.043
23965,-28.64,-30.145
23977,-27.347,-26.611
23988,-25.205,-26.263
