FFT,Power Spectrum
Frequency[Hz],Level-L[dB],Level-R[dB]
11.719,-21.525,-25.544
23.438,-1.6713,-5.8665
35.156,-0.87114,-3.6661
46.875,2.8251,2.5452
58.594,1.1317,1.6129
70.313,-0.20715,0.62468
82.031,8.7336,7.4929
93.75,20.722,17.12
105.47,21.332,17.858
117.19,8.679,6.9478
128.91,9.2515,9.0165
140.63,13.504,11.822
152.34,11.915,12.143
164.06,2.8251,3.1963
175.78,9.7872,8.7992
187.5,18.026,16.322
199.22,20.206,18.286
210.94,18.38,9.8993
222.66,34.545,8.8102
234.38,36.323,10.993
246.09,24.72,8.1508
257.81,9.7389,5.4726
269.53,5.3269,2.7309
281.25,9.1445,7.8641
292.97,9.5334,9.1604
304.69,9.6744,5.8091
316.41,9.6577,4.6896
328.13,6.8293,5.3721
339.84,8.7107,5.4813
351.56,5.6783,3.9371
363.28,8.3953,8.7676
375,10.591,10.98
386.72,10.838,9.8948
398.44,10.416,8.2579
410.16,10.845,10.182
421.88,9.4182,7.0464
433.59,7.2288,7.8177
445.31,9.3886,9.0487
457.03,10.286,8.0569
468.75,7.1715,5.033
480.47,5.449,7.2094
492.19,8.1882,7.6884
503.91,10.514,7.7089
515.63,11.217,9.0952
527.34,9.6503,9.0758
539.06,7.5721,8.1264
550.78,4.9814,5.4256
562.5,4.9013,7.0445
574.22,4.9727,5.2173
585.94,4.1918,5.5118
597.66,5.0383,2.7017
609.38,6.5887,4.1423
621.09,6.6091,3.3885
632.81,6.2881,4.9527
644.53,9.5584,9.6501
656.25,10.731,9.9242
667.97,8.8179,9.5599
679.69,8.3696,7.5285
691.41,10.416,6.8416
703.13,7.5929,4.2021
714.84,6.17,3.1627
726.56,7.5502,2.9741
738.28,8.0861,5.4738
750,9.7949,6.5935
761.72,10.621,6.745
773.44,13.172,5.0842
785.16,11.516,6.6719
796.88,12.125,8.2491
808.59,13.456,9.354
820.31,12.594,7.9527
832.03,13.813,9.5514
843.75,15.304,10.004
855.47,17.212,11.102
867.19,16.709,12.151
878.91,15.647,12.037
890.63,15.535,11.162
902.34,15.382,10.401
914.06,13.204,8.7148
925.78,11.164,6.2758
937.5,14.589,6.6392
949.22,16.261,7.7784
960.94,15.633,7.3184
972.66,14.751,9.4851
984.38,14.709,10.349
996.09,13.531,9.1126
1007.8,11.37,7.6565
1019.5,11.367,4.8608
1031.3,9.7872,6.4958
1043,11.024,7.4103
1054.7,14.847,8.15
1066.4,15.521,9.6096
1078.1,15.15,10.278
1089.8,15.194,11.872
1101.6,14.681,11.922
1113.3,14.147,11.514
1125,12.968,11.348
1136.7,13.295,9.9717
1148.4,10.35,7.7782
1160.2,9.465,4.3953
1171.9,9.8947,3.3076
1183.6,10.759,5.6272
1195.3,8.5771,5.9096
1207,8.4229,6.206
1218.8,10.104,5.8463
1230.5,9.2053,6.0833
1242.2,7.1807,5.7575
1253.9,7.6689,6.4905
1265.6,9.8096,7.8984
1277.3,11.952,9.8211
1289.1,11.631,11.21
1300.8,7.4663,8.4688
1312.5,5.3506,3.5598
1324.2,4.0797,5.9835
1335.9,5.3853,6.7758
1347.7,8.3991,3.2158
1359.4,6.7017,3.7576
1371.1,3.9025,4.2693
1382.8,5.6862,1.8881
1394.5,8.3619,3.2294
1406.3,6.9262,5.0786
1418,7.5033,6.0311
1429.7,7.708,4.8214
1441.4,3.7056,4.5163
1453.1,2.1652,4.5985
1464.8,4.8514,7.1703
1476.6,5.0507,4.8584
1488.3,5.3807,0.99344
1500,7.9059,3.6388
1511.7,9.145,4.6282
1523.4,7.7121,3.8768
1535.2,6.4045,3.6864
1546.9,6.4766,4.7473
1558.6,5.4392,6.0181
1570.3,4.2107,5.5994
1582,3.5891,3.3694
1593.8,4.5237,2.6206
1605.5,4.8267,0.41446
1617.2,4.0168,3.3141
1628.9,7.1975,5.6887
1640.6,7.1737,6.9138
1652.3,5.0556,6.5774
1664.1,2.6286,5.5839
1675.8,4.0553,7.3552
1687.5,5.3689,7.6446
1699.2,5.9239,5.4451
1710.9,8.6813,6.5138
1722.7,8.4184,6.2995
1734.4,3.962,4.2376
1746.1,5.8304,5.6371
1757.8,6.0828,5.5135
1769.5,5.8572,4.4214
1781.3,5.0496,3.1275
1793,4.7062,5.1333
1804.7,5.5159,6.2702
1816.4,6.9207,5.9433
1828.1,5.0916,5.261
1839.8,5.8859,5.2346
1851.6,8.4308,4.4316
1863.3,7.5149,3.353
1875,6.7938,3.8072
1886.7,6.809,5.3115
1898.4,3.936,5.7478
1910.2,3.4824,5.9693
1921.9,3.7908,5.8494
1933.6,4.6216,6.8602
1945.3,5.613,3.0678
1957,5.9786,1.9139
1968.8,4.1744,4.517
1980.5,6.1343,5.0472
1992.2,3.6293,2.1685
2003.9,4.7254,2.4714
2015.6,3.8337,2.5052
2027.3,2.9755,2.0455
2039.1,5.8731,3.0016
2050.8,3.7447,2.7961
2062.5,1.9583,4.0302
2074.2,2.1125,4.9487
2085.9,2.6882,4.6843
2097.7,1.3595,5.5188
2109.4,-1.8775,6.8969
2121.1,-0.38432,6.2759
2132.8,3.9073,5.2747
2144.5,7.7144,4.8009
2156.3,9.1851,2.2133
2168,9.8,4.4751
2179.7,9.2841,5.1087
2191.4,5.8652,2.9172
2203.1,4.525,4.8047
2214.8,6.0864,5.1833
2226.6,5.938,1.9465
2238.3,6.3122,4.5593
2250,4.7554,4.6532
2261.7,2.6756,4.3541
2273.4,5.8969,1.6867
2285.2,6.1258,1.9716
2296.9,4.0636,3.8672
2308.6,4.2455,2.897
2320.3,4.908,-2.0412
2332,-0.54306,-2.3729
2343.8,-1.0699,-1.2073
2355.5,1.05,2.027
2367.2,3.1123,2.2015
2378.9,1.3057,0.57409
2390.6,0.19569,2.4214
2402.3,0.25028,3.0384
2414.1,2.0838,2.0881
2425.8,0.94576,0.18935
2437.5,0.58327,0.97589
2449.2,2.2157,3.048
2460.9,4.0157,3.3222
2472.7,6.6792,1.5145
2484.4,7.5139,2.0605
2496.1,6.7115,4.5113
2507.8,5.9113,4.082
2519.5,2.2225,5.5484
2531.3,1.636,7.8515
2543,4.6194,7.719
2554.7,4.2744,7.1794
2566.4,4.7268,6.9952
2578.1,3.0303,7.4581
2589.8,-2.1669,8.2509
2601.6,1.1222,7.7217
2613.3,1.9655,5.7865
2625,1.7087,2.6117
2636.7,-1.1034,1.3089
2648.4,4.7323,3.3902
2660.2,8.1949,4.8569
2671.9,6.3919,5.3499
2683.6,6.8811,4.3405
2695.3,7.3438,2.7098
2707,3.6396,2.2023
2718.8,1.5936,-0.64247
2730.5,0.79084,0.60911
2742.2,2.5355,1.9474
2753.9,3.9402,3.9117
2765.6,3.0726,5.6821
2777.3,1.9131,6.3237
2789.1,1.4336,4.0627
2800.8,1.3138,3.4504
2812.5,-0.51899,0.50511
2824.2,1.4498,-1.6732
2835.9,5.2315,-1.3725
2847.7,7.0116,-2.7176
2859.4,6.2828,-3.6195
2871.1,5.1859,-2.033
2882.8,4.6081,0.17763
2894.5,2.9738,1.4184
2906.3,3.0393,1.4403
2918,6.7472,2.083
2929.7,6.6927,2.6418
2941.4,3.1919,2.1956
2953.1,2.213,2.9532
2964.8,2.5639,3.6382
2976.6,0.62601,1.9689
2988.3,0.18464,1.7667
3000,4.7175,0.19502
3011.7,5.1082,-0.95828
3023.4,3.0636,-5.2054
3035.2,0.90576,0.67868
3046.9,1.7344,2.2639
3058.6,1.5398,2.6105
3070.3,0.45567,3.7464
3082,0.93273,4.0079
3093.8,-0.64245,2.9644
3105.5,-3.1777,2.2059
3117.2,-0.41699,2.6071
3128.9,0.98687,-0.09578
3140.6,-0.86291,-0.72873
3152.3,-2.513,1.0055
3164.1,-2.3105,-0.27139
3175.8,1.4334,-2.9739
3187.5,2.2806,-2.7144
3199.2,3.9305,-2.0167
3210.9,4.8851,0.90915
3222.7,6.1499,-2.0686
3234.4,4.1639,-3.003
3246.1,2.7131,-1.2289
3257.8,2.4234,1.6961
3269.5,0.76683,-0.33745
3281.3,-0.0029755,-2.3856
3293,-1.7425,-2.41
3304.7,-2.1414,-2.4241
3316.4,1.3044,-0.51075
3328.1,4.2635,2.3353
3339.8,5.7587,1.615
3351.6,1.8017,1.0502
3363.3,0.54777,1.4624
3375,0.78031,-0.083348
3386.7,3.0903,-0.28172
3398.4,0.58556,0.28264
3410.2,0.10746,0.34371
3421.9,1.5546,-0.25436
3433.6,3.2629,0.86987
3445.3,3.1146,1.1906
3457,1.688,-0.73407
3468.8,-0.052575,-4.1271
3480.5,-2.6231,-0.90007
3492.2,2.4147,-1.296
3503.9,2.9872,-1.4313
3515.6,2.3391,2.4224
3527.3,1.72,1.6357
3539.1,1.3596,1.7945
3550.8,0.28306,0.7984
3562.5,-0.43835,1.3229
3574.2,-2.4898,-0.16045
3585.9,-2.7617,-2.0723
3597.7,-5.0791,-2.8236
3609.4,-4.1128,0.35666
3621.1,-2.3533,-0.079316
3632.8,-2.9325,0.48148
3644.5,1.2035,-0.68947
3656.3,0.58005,-0.22321
3668,-1.5044,2.7081
3679.7,-1.5675,1.1423
3691.4,-1.7602,-0.52955
3703.1,-1.6128,-0.57391
3714.8,-2.3482,-1.2965
3726.6,-2.0027,0.28176
3738.3,-0.26684,-1.3047
3750,-1.7253,-5.2809
3761.7,-4.3393,-1.5818
3773.4,-4.4357,-1.5278
3785.2,-2.6681,-1.934
3796.9,-2.4192,-2.6718
3808.6,0.94855,-5.6358
3820.3,1.8108,-1.1775
3832,-1.0756,-0.74537
3843.8,-2.5522,-1.7013
3855.5,-0.27093,0.46538
3867.2,-0.27071,-1.4441
3878.9,-3.1863,0.6262
3890.6,-1.8373,0.057209
3902.3,-2.22,-3.6677
3914.1,-1.4497,-0.71724
3925.8,-0.31792,0.54098
3937.5,-0.24674,-0.28383
3949.2,0.23888,-5.0175
3960.9,-2.4359,-5.391
3972.7,-0.3244,-3.5379
3984.4,-1.2816,-3.333
3996.1,-2.0687,-0.24455
4007.8,-1.4376,0.023402
4019.5,-2.2554,-2.5838
4031.3,-1.2749,-3.2717
4043,-2.1233,-3.7893
4054.7,-1.6894,-1.8175
4066.4,0.38577,-1.9984
4078.1,-0.46515,-4.0582
4089.8,-5.7101,-2.9519
4101.6,-2.5227,-1.2768
4113.3,-3.3268,-5.3952
4125,-4.8624,-5.3129
4136.7,-3.5379,-1.43
4148.4,-3.2216,-0.013289
4160.2,-4.0755,-2.7508
4171.9,-5.6546,-4.5571
4183.6,-1.8377,-2.1564
4195.3,-0.56474,-6.2764
4207,-2.3309,-3.6762
4218.8,-2.0716,-3.178
4230.5,-3.8206,-3.4662
4242.2,-2.5284,-2.8586
4253.9,-1.6342,-2.9731
4265.6,-6.061,-3.9455
4277.3,-7.386,-5.0338
4289.1,-2.3569,-5.4141
4300.8,-1.2244,-2.4544
4312.5,-2.3113,-3.1505
4324.2,-1.1068,-5.7633
4335.9,-0.37212,-5.0041
4347.7,-1.158,-2.2883
4359.4,1.3506,-2.4632
4371.1,0.6813,-4.3579
4382.8,-2.0911,-3.8583
4394.5,-3.0724,-4.0709
4406.3,-1.6901,-5.8572
4418,-3.3181,-6.4991
4429.7,-0.3508,-4.2071
4441.4,-0.38732,-3.6761
4453.1,-3.8605,-3.035
4464.8,-2.4256,-1.6956
4476.6,-2.7425,-3.0281
4488.3,-0.90926,-3.1563
4500,0.026587,-1.533
4511.7,-2.1746,-1.3133
4523.4,-3.5287,-3.1571
4535.2,-0.7558,-2.9168
4546.9,-1.7901,-4.7224
4558.6,-2.8198,-2.2962
4570.3,-3.0104,0.82743
4582,-6.1293,1.1318
4593.8,-6.8529,-2.3278
4605.5,-2.6296,-7.3546
4617.2,-2.8234,-2.1943
4628.9,-1.9788,-1.0992
4640.6,-0.3186,-3.3164
4652.3,-3.7612,-4.0962
4664.1,-6.459,-1.7651
4675.8,-5.7528,-1.8621
4687.5,-3.8472,-6.2232
4699.2,-3.0699,-5.4328
4710.9,-2.5889,-3.7836
4722.7,-0.92277,-6.3115
4734.4,0.16918,-5.3288
4746.1,-0.99391,-3.3646
4757.8,-2.8014,-1.3894
4769.5,-6.6129,-2.6564
4781.3,-7.8912,-1.6265
4793,-1.1874,-1.3519
4804.7,0.4544,-3.426
4816.4,-1.3646,-3.7308
4828.1,-4.0936,-3.7016
4839.8,-7.8001,-4.0232
4851.6,-4.5672,-4.8952
4863.3,-2.1599,-5.6108
4875,-3.1336,-5.2849
4886.7,-0.59525,-1.7664
4898.4,-1.7098,-1.5641
4910.2,-5.9846,-2.8226
4921.9,-3.0763,-6.1997
4933.6,-0.44844,-3.0487
4945.3,-1.8687,-4.8935
4957,-6.7948,-6.944
4968.8,-5.831,-2.7299
4980.5,-6.0464,-1.8917
4992.2,-5.5222,-3.3888
5003.9,-0.75506,-4.3558
5015.6,-0.60306,-4.0786
5027.3,-0.8534,-2.5168
5039.1,-0.023792,-3.1782
5050.8,0.35501,-5.3582
5062.5,-1.111,-4.6916
5074.2,-3.3349,-6.818
5085.9,-5.3766,-5.4566
5097.7,-3.7146,-4.2387
5109.4,-2.8952,-3.0141
5121.1,-5.389,-1.2835
5132.8,-7.7786,-2.2636
5144.5,-6.1911,-2.9975
5156.3,-4.128,-4.185
5168,-3.9622,-3.8726
5179.7,-5.1178,-5.0522
5191.4,-4.9316,-3.7748
5203.1,-4.4739,-1.6681
5214.8,-4.1819,0.058689
5226.6,-1.521,-3.8976
5238.3,-2.8192,-4.9858
5250,-4.1259,-3.4915
5261.7,-3.6266,-3.2309
5273.4,-3.671,-5.6396
5285.2,-6.4407,-4.7212
5296.9,-6.1832,-5.308
5308.6,-6.7346,-6.7695
5320.3,-5.3947,-5.4359
5332,-3.9083,-4.401
5343.8,-3.5072,-6.3335
5355.5,-1.8643,-5.2835
5367.2,-2.1064,-5.2488
5378.9,-2.5179,-5.0201
5390.6,-4.2948,-3.1126
5402.3,-3.0319,-3.8995
5414.1,-2.913,-4.1023
5425.8,-7.5869,-5.388
5437.5,-9.2479,-6.0203
5449.2,-6.0865,-5.0175
5460.9,-4.1763,-4.1246
5472.7,-2.2803,-5.2892
5484.4,-2.5579,-3.6703
5496.1,-3.8283,-6.7916
5507.8,-3.3632,-4.7012
5519.5,0.67758,-0.60141
5531.3,0.59998,-3.3465
5543,-3.764,-2.4639
5554.7,-4.9215,-4.0318
5566.4,-4.5829,-5.7193
5578.1,-3.8333,-6.2141
5589.8,-5.5008,-6.2899
5601.6,-5.3745,-1.6482
5613.3,-5.1671,-1.2081
5625,-6.0854,-1.8976
5636.7,-5.3053,-1.4908
5648.4,-4.49,-1.4455
5660.2,-4.404,-0.4309
5671.9,-6.4775,-2.7089
5683.6,-9.2047,-5.4481
5695.3,-6.6747,-4.0814
5707,-4.0546,-3.0837
5718.8,-4.632,-7.4207
5730.5,-2.9697,-1.6901
5742.2,-1.4576,-3.8966
5753.9,-3.054,-3.1342
5765.6,-5.1011,-1.7256
5777.3,-7.3074,-1.4357
5789.1,-5.6815,-2.855
5800.8,-5.7372,-3.9364
5812.5,-4.6865,-3.1385
5824.2,-3.5198,-5.4563
5835.9,-3.8056,-4.3161
5847.7,-3.1386,-7.142
5859.4,-5.5744,-2.051
5871.1,-3.0191,-0.18875
5882.8,-3.5266,-5.3322
5894.5,-5.42,-6.0617
5906.3,-5.6874,-5.145
5918,-5.3113,-5.5866
5929.7,-6.8648,-7.7242
5941.4,-5.8827,-7.1474
5953.1,-3.5717,-7.9715
5964.8,-3.5545,-5.801
5976.6,-3.2587,-2.2631
5988.3,-2.1947,-2.0894
6000,-2.4054,-6.3746
6011.7,-3.3485,-5.133
6023.4,-5.6282,-4.7723
6035.2,-6.9929,-7.4659
6046.9,-7.0017,-6.7898
6058.6,-6.1637,-6.012
6070.3,-6.2035,-5.0283
6082,-3.4799,-5.1241
6093.8,-2.8525,-6.9705
6105.5,-4.3617,-6.7247
6117.2,-4.7049,-5.6098
6128.9,-4.5332,-7.9528
6140.6,-4.6867,-7.9744
6152.3,-4.5148,-7.366
6164.1,-6.5319,-8.5652
6175.8,-5.4269,-7.7512
6187.5,-4.006,-9.4819
6199.2,-0.78875,-9.3206
6210.9,-2.24,-9.7092
6222.7,-2.3709,-5.2262
6234.4,-3.1227,-6.9402
6246.1,-5.355,-10.808
6257.8,-6.0297,-9.8893
6269.5,-6.7112,-7.8304
6281.3,-7.7845,-11.333
6293,-5.952,-6.4914
6304.7,-4.1955,-4.3336
6316.4,-3.0804,-3.2842
6328.1,-5.8507,-5.9372
6339.8,-3.4091,-8.8986
6351.6,-3.2717,-4.9586
6363.3,-3.9632,-7.1899
6375,-3.2145,-9.6582
6386.7,-3.2814,-9.3744
6398.4,-3.3987,-9.3136
6410.2,-4.5065,-5.9874
6421.9,-6.2628,-4.4139
6433.6,-5.272,-5.9881
6445.3,-4.2274,-6.8895
6457,-3.5253,-6.6229
6468.8,-4.1268,-5.3956
6480.5,-4.5046,-7.8046
6492.2,-4.5438,-6.8885
6503.9,-4.0414,-4.7962
6515.6,-3.5932,-6.4194
6527.3,-3.4951,-5.8867
6539.1,-2.482,-2.7772
6550.8,-1.9186,-3.5901
6562.5,-6.8046,-7.6362
6574.2,-7.1448,-5.9906
6585.9,-4.8316,-4.4657
6597.7,-3.458,-5.4752
6609.4,-4.0038,-3.627
6621.1,-6.8453,-2.0694
6632.8,-5.7162,-4.2504
6644.5,-3.4046,-6.756
6656.3,-4.5937,-9.1346
6668,-9.8316,-11.135
6679.7,-12.922,-8.2366
6691.4,-9.0767,-3.685
6703.1,-6.729,-4.2269
6714.8,-8.4542,-5.615
6726.6,-6.8806,-5.5093
6738.3,-3.763,-4.613
6750,-7.2582,-4.0674
6761.7,-7.6844,-8.1181
6773.4,-9.0278,-6.5175
6785.2,-8.3501,-6.3118
6796.9,-6.8668,-8.1775
6808.6,-8.3989,-6.5165
6820.3,-6.839,-6.3864
6832,-6.081,-5.5237
6843.8,-5.4469,-4.1841
6855.5,-5.0153,-3.231
6867.2,-6.5348,-5.3876
6878.9,-9.1585,-5.7188
6890.6,-10.689,-6.9856
6902.3,-6.548,-6.6319
6914.1,-6.0153,-3.4603
6925.8,-7.2288,-3.2855
6937.5,-6.5581,-5.4642
6949.2,-5.2029,-6.5323
6960.9,-3.5221,-6.386
6972.7,-7.6958,-7.3729
6984.4,-7.5999,-7.7182
6996.1,-9.2441,-5.4337
7007.8,-5.5177,-4.6838
7019.5,-9.1887,-5.3825
7031.3,-6.0798,-7.2555
7043,-4.5912,-8.2882
7054.7,-6.2104,-9.2092
7066.4,-3.9904,-9.6023
7078.1,-3.4623,-9.0963
7089.8,-8.1011,-7.1002
7101.6,-6.7796,-8.1048
7113.3,-6.3375,-8.9196
7125,-8.9224,-8.4773
7136.7,-9.6519,-4.1459
7148.4,-7.7889,-3.0811
7160.2,-7.6549,-3.1168
7171.9,-8.9059,-6.5299
7183.6,-6.9556,-7.0321
7195.3,-8.2092,-7.8279
7207,-7.6825,-7.8077
7218.8,-6.5701,-9.2493
7230.5,-4.4486,-12.196
7242.2,-3.3185,-12.667
7253.9,-2.4491,-6.8584
7265.6,-4.6234,-6.2461
7277.3,-8.4813,-10.223
7289.1,-8.2681,-8.4621
7300.8,-8.4995,-9.4375
7312.5,-7.4166,-9.2919
7324.2,-6.5053,-8.4037
7335.9,-6.9911,-7.4063
7347.7,-6.6131,-9.0434
7359.4,-3.7135,-9.1525
7371.1,-3.5597,-9.5763
7382.8,-5.8676,-8.2571
7394.5,-7.2446,-6.3842
7406.3,-7.879,-7.8716
7418,-8.308,-10.332
7429.7,-9.7658,-9.9389
7441.4,-5.3794,-7.8517
7453.1,-4.337,-9.6307
7464.8,-6.883,-6.993
7476.6,-8.8791,-4.1991
7488.3,-6.9907,-5.367
7500,-6.3546,-8.5629
7511.7,-5.3049,-6.3641
7523.4,-6.281,-6.2459
7535.2,-7.6918,-8.6876
7546.9,-5.0952,-10.759
7558.6,-5.0385,-10.168
7570.3,-6.8911,-6.9139
7582,-6.162,-7.816
7593.8,-6.3741,-7.8453
7605.5,-8.4649,-10.152
7617.2,-6.871,-9.6593
7628.9,-8.0792,-9.3988
7640.6,-10.429,-9.1678
7652.3,-6.5676,-9.32
7664.1,-5.3888,-10.367
7675.8,-4.9863,-8.1919
7687.5,-5.8334,-8.7554
7699.2,-6.3497,-6.9
7710.9,-8.7039,-5.8367
7722.7,-4.9573,-6.7841
7734.4,-5.0881,-10.152
7746.1,-8.1882,-11.521
7757.8,-10.222,-10.937
7769.5,-9.5058,-8.1795
7781.3,-10.109,-9.2264
7793,-9.2266,-11.658
7804.7,-9.9415,-9.4861
7816.4,-8.7415,-7.9363
7828.1,-6.8678,-10.749
7839.8,-8.4647,-11.499
7851.6,-8.5525,-8.5139
7863.3,-9.6972,-8.2438
7875,-8.1024,-7.5014
7886.7,-10.606,-9.1776
7898.4,-10.706,-10.65
7910.2,-8.13,-8.5723
7921.9,-8.8812,-9.3946
7933.6,-7.993,-9.1271
7945.3,-6.2154,-8.1385
7957,-5.1821,-6.1672
7968.8,-9.992,-7.8753
7980.5,-9.2715,-9.1561
7992.2,-7.3092,-7.5769
8003.9,-9.6027,-6.9996
8015.6,-9.8481,-6.4882
8027.3,-7.5367,-5.054
8039.1,-8.7892,-5.932
8050.8,-8.0337,-8.0094
8062.5,-7.2142,-8.8325
8074.2,-7.9822,-8.5414
8085.9,-10.677,-9.5343
8097.7,-9.3045,-11.288
8109.4,-6.8617,-11.652
8121.1,-9.0265,-7.8371
8132.8,-8.6852,-7.2394
8144.5,-6.6971,-7.625
8156.3,-6.0407,-7.6931
8168,-8.1993,-8.5689
8179.7,-9.1683,-10.714
8191.4,-8.0608,-9.2062
8203.1,-8.2634,-9.302
8214.8,-8.1938,-11.343
8226.6,-7.2941,-11.264
8238.3,-6.8618,-9.5965
8250,-9.4736,-10.534
8261.7,-8.9017,-9.6396
8273.4,-10.542,-11.892
8285.2,-8.1988,-9.4821
8296.9,-7.598,-9.1976
8308.6,-7.7063,-9.3004
8320.3,-8.3911,-9.4825
8332,-8.9867,-9.7422
8343.8,-10.153,-13.261
8355.5,-10.501,-11.931
8367.2,-9.9304,-12.161
8378.9,-7.6025,-11.539
8390.6,-5.9839,-11.327
8402.3,-7.3986,-12.708
8414.1,-8.3117,-10.234
8425.8,-6.6881,-8.136
8437.5,-9.8419,-9.918
8449.2,-6.2059,-6.9225
8460.9,-7.4724,-7.7357
8472.7,-11.557,-9.6657
8484.4,-12.272,-9.6817
8496.1,-10.563,-7.1142
8507.8,-8.9225,-5.8756
8519.5,-8.1965,-6.8232
8531.3,-9.4564,-7.1662
8543,-10.878,-8.0297
8554.7,-9.8166,-6.3895
8566.4,-9.4419,-8.9621
8578.1,-10.237,-9.8636
8589.8,-10.82,-10.48
8601.6,-9.3645,-10.606
8613.3,-8.102,-10.879
8625,-11.674,-9.0477
8636.7,-11.888,-9.9683
8648.4,-10.287,-11.231
8660.2,-11.361,-10.897
8671.9,-11.154,-10.288
8683.6,-10.997,-10.224
8695.3,-9.4764,-10.315
8707,-10.108,-9.3981
8718.8,-7.573,-10.262
8730.5,-8.4073,-13.011
8742.2,-9.1802,-10.262
8753.9,-9.0476,-11.148
8765.6,-8.6271,-9.1363
8777.3,-9.6582,-7.7636
8789.1,-8.0817,-10.139
8800.8,-11.555,-7.9029
8812.5,-14.114,-8.3596
8824.2,-10.947,-6.8283
8835.9,-12.084,-8.1774
8847.7,-10.525,-8.5345
8859.4,-10.708,-9.7563
8871.1,-10.826,-9.0407
8882.8,-10.546,-9.2687
8894.5,-9.4278,-9.9604
8906.3,-10.674,-8.8702
8918,-10.824,-9.0045
8929.7,-7.5441,-11.497
8941.4,-6.9353,-10.589
8953.1,-8.3134,-9.33
8964.8,-11.057,-9.1883
8976.6,-11.384,-10.649
8988.3,-11.121,-9.7004
9000,-9.0744,-8.489
9011.7,-9.6112,-9.4648
9023.4,-8.599,-15.207
9035.2,-8.6723,-14.27
9046.9,-9.4062,-14.355
9058.6,-10.362,-14.839
9070.3,-8.1956,-12.268
9082,-8.9076,-10.06
9093.8,-8.8381,-10.583
9105.5,-7.2953,-14.112
9117.2,-9.1998,-12.91
9128.9,-9.0166,-9.193
9140.6,-9.5646,-10.968
9152.3,-9.7409,-11.157
9164.1,-10.085,-8.1683
9175.8,-11.444,-10.089
9187.5,-10.566,-14.05
9199.2,-11.178,-13.418
9210.9,-12.77,-12.126
9222.7,-9.5859,-10.855
9234.4,-9.4171,-10.521
9246.1,-11.05,-9.777
9257.8,-10.796,-8.4761
9269.5,-11.188,-11.306
9281.3,-10.118,-10.286
9293,-11.367,-12.076
9304.7,-12.365,-13.526
9316.4,-10.132,-12.197
9328.1,-8.9176,-12.824
9339.8,-9.0802,-12.969
9351.6,-10.18,-9.3515
9363.3,-10.798,-9.4617
9375,-9.0385,-9.9197
9386.7,-7.477,-10.89
9398.4,-10.118,-13.067
9410.2,-10.622,-12.539
9421.9,-10.832,-12.164
9433.6,-11.16,-12.366
9445.3,-9.7308,-8.0098
9457,-9.4043,-9.8491
9468.8,-9.2131,-9.2586
9480.5,-8.1658,-10.738
9492.2,-10.733,-12.983
9503.9,-10.012,-13.23
9515.6,-10.408,-11.206
9527.3,-10.702,-12.335
9539.1,-12.177,-12.049
9550.8,-11.655,-13.016
9562.5,-11.855,-11.553
9574.2,-13.677,-9.1761
9585.9,-12.873,-9.7916
9597.7,-10.47,-12.204
9609.4,-9.9957,-15.934
9621.1,-7.8552,-12.854
9632.8,-8.3435,-11.994
9644.5,-10.189,-13.421
9656.3,-11.026,-11.466
9668,-9.2941,-9.6071
9679.7,-8.6019,-10.348
9691.4,-9.0028,-12.843
9703.1,-7.5439,-13.252
9714.8,-8.2251,-12.084
9726.6,-9.371,-11.981
9738.3,-8.9006,-12.625
9750,-12.102,-10.263
9761.7,-8.7995,-10.675
9773.4,-9.3559,-11.327
9785.2,-9.9641,-10.754
9796.9,-10.994,-9.0932
9808.6,-8.9338,-9.7933
9820.3,-9.6128,-13.344
9832,-12.332,-13.748
9843.8,-12.235,-10.711
9855.5,-10.203,-10.1
9867.2,-10.506,-11.432
9878.9,-10.216,-9.4755
9890.6,-9.1163,-8.1091
9902.3,-9.7388,-9.0088
9914.1,-9.4218,-10.023
9925.8,-8.3957,-10.679
9937.5,-11.709,-10.193
9949.2,-16.445,-12.55
9960.9,-9.6718,-13.111
9972.7,-11.1,-14.48
9984.4,-14.303,-14.43
9996.1,-12.872,-10.802
10008,-14.018,-8.8872
10020,-10.578,-10.916
10031,-11.868,-13.232
10043,-12.956,-12.361
10055,-13.708,-12.814
10066,-10.603,-11.832
10078,-9.7901,-11.091
10090,-9.6934,-10.488
10102,-8.245,-9.5729
10113,-8.9046,-9.4552
10125,-9.0733,-10.751
10137,-8.5574,-12.938
10148,-9.4015,-15.58
10160,-11.14,-13.657
10172,-8.6907,-11.842
10184,-9.3569,-10.104
10195,-10.447,-11.347
10207,-9.8535,-13.543
10219,-10.079,-11.512
10230,-7.6789,-11.095
10242,-8.888,-10.77
10254,-11.948,-11.809
10266,-15.771,-12.253
10277,-16.752,-10.649
10289,-13.935,-13.909
10301,-11.581,-13.157
10313,-9.2441,-10.89
10324,-12.851,-9.7411
10336,-13.639,-12.311
10348,-11.482,-11.272
10359,-10.574,-11.861
10371,-12.877,-11.55
10383,-13.112,-10.668
10395,-13.21,-10.938
10406,-12.148,-12.46
10418,-13.71,-16.333
10430,-16.028,-12.824
10441,-12.424,-11.009
10453,-10.703,-13.146
10465,-10.651,-12.684
10477,-11.44,-12.689
10488,-12.134,-15.515
10500,-13.963,-13.151
10512,-14.395,-14.183
10523,-13.432,-12.025
10535,-12.052,-10.792
10547,-11.404,-12.298
10559,-10.917,-14.564
10570,-7.5344,-12.179
10582,-8.5848,-12.977
10594,-12.776,-14.166
10605,-11.891,-10.286
10617,-11.331,-11.349
10629,-12.526,-12.511
10641,-12.825,-13.781
10652,-13.695,-14.051
10664,-12.488,-11.803
10676,-13.849,-12.095
10688,-13.295,-13.896
10699,-9.9315,-14.071
10711,-9.0338,-10.041
10723,-12.713,-10.73
10734,-13.705,-12.929
10746,-12.988,-12.248
10758,-12.772,-12.591
10770,-9.7719,-14.45
10781,-9.0477,-15.61
10793,-12.19,-16.437
10805,-10.579,-13.295
10816,-8.2724,-9.8856
10828,-11.381,-9.1718
10840,-13.295,-10.159
10852,-13.595,-14.482
10863,-11.496,-13.499
10875,-12.832,-14.954
10887,-11.547,-15.19
10898,-8.7526,-12.766
10910,-11.654,-14.013
10922,-13.811,-15.287
10934,-12.905,-12.379
10945,-11.088,-11.63
10957,-11.192,-12.626
10969,-9.9093,-11.719
10980,-9.1005,-11.54
10992,-7.9424,-13.463
11004,-9.2133,-13.526
11016,-11.376,-14.023
11027,-12.28,-11.118
11039,-12.198,-13.044
11051,-10.642,-12.719
11063,-11.182,-12.145
11074,-12.567,-14.938
11086,-12.581,-17.526
11098,-12.779,-16.932
11109,-12.043,-12.39
11121,-11.259,-11.626
11133,-11.087,-12.928
11145,-12.764,-12.645
11156,-14.322,-16.515
11168,-12.061,-13.179
11180,-10.264,-11.391
11191,-10.699,-11.268
11203,-13.902,-16.618
11215,-12.548,-13.314
11227,-8.8203,-13.415
11238,-9.3952,-14.066
11250,-11.776,-16.471
11262,-11.561,-14.497
11273,-9.6795,-13.936
11285,-11.266,-14.522
11297,-13.25,-12.479
11309,-11.487,-13.726
11320,-12.293,-15.866
11332,-9.4152,-16.932
11344,-10.802,-16.483
11355,-10.973,-16.981
11367,-9.2897,-15.12
11379,-7.5687,-16.268
11391,-10.112,-18.617
11402,-9.9906,-19.582
11414,-11.264,-18.017
11426,-11.513,-15.761
11438,-10.915,-15.227
11449,-11.289,-13.338
11461,-8.9291,-12.261
11473,-8.0892,-12.121
11484,-11.209,-12.223
11496,-12.295,-14.402
11508,-10.303,-16.356
11520,-10.865,-17.609
11531,-11.807,-15.153
11543,-10.575,-13.888
11555,-10.298,-16.934
11566,-9.1045,-14.624
11578,-10.184,-15.12
11590,-11.248,-14.696
11602,-10.13,-13.376
11613,-9.7915,-13.689
11625,-11.02,-12.495
11637,-10.013,-14.525
11648,-9.6487,-16.909
11660,-9.3118,-13.517
11672,-9.9609,-13.335
11684,-12.234,-12.118
11695,-11.65,-13.471
11707,-13.008,-12.995
11719,-10.659,-13.697
11730,-8.7955,-14.074
11742,-8.6795,-13.554
11754,-9.0073,-13.162
11766,-9.8787,-14.611
11777,-11.611,-13.215
11789,-11.235,-11.967
11801,-7.9556,-13.69
11813,-6.608,-14.925
11824,-11.137,-11.561
11836,-11.242,-13.068
11848,-12.328,-14.62
11859,-13.29,-17.405
11871,-10.74,-16.062
11883,-13.292,-15.338
11895,-13.679,-15.527
11906,-11.667,-14.102
11918,-10.645,-13.638
11930,-11.559,-13.55
11941,-13.322,-15.103
11953,-9.9109,-13.154
11965,-9.5694,-11.479
11977,-12.283,-11.976
11988,-13.678,-12.833
12000,-12.871,-13.563
12012,-12.227,-14.23
12023,-10.742,-15.823
12035,-11.56,-15.406
12047,-10.975,-15.253
12059,-13.119,-17.412
12070,-13.509,-17.41
12082,-9.672,-20.746
12094,-12.303,-14.39
12105,-12.028,-13.644
12117,-13.945,-13.082
12129,-14.441,-13.408
12141,-16.139,-14.057
12152,-12.169,-15.23
12164,-7.9439,-15.409
12176,-10.179,-17.856
12188,-13.405,-17.234
12199,-12.711,-15.511
12211,-12.871,-15.82
12223,-14.016,-13.241
12234,-13.019,-12.09
12246,-12.197,-11.963
12258,-10.676,-12.141
12270,-10.521,-14.492
12281,-11.956,-16.689
12293,-12.363,-15.497
12305,-12.047,-14.472
12316,-10.351,-17.034
12328,-11.644,-16.321
12340,-11.246,-16.265
12352,-11.7,-15.17
12363,-12.782,-16.102
12375,-12.652,-14.275
12387,-12.838,-12.266
12398,-12.066,-15.123
12410,-10.549,-15.034
12422,-12.525,-15.215
12434,-11.575,-17.567
12445,-10.595,-15.112
12457,-9.4089,-14.5
12469,-8.5945,-18.507
12480,-11.066,-19.647
12492,-13.437,-19.013
12504,-12.129,-16.554
12516,-10.162,-16.461
12527,-12.04,-15.004
12539,-13.155,-15.082
12551,-13.601,-14.682
12563,-13.952,-15.793
12574,-14.021,-16.777
12586,-12.314,-15.825
12598,-11.356,-14.999
12609,-10.791,-14.645
12621,-15.217,-17.594
12633,-15.289,-16.899
12645,-12.882,-18.62
12656,-10.118,-13.658
12668,-11.131,-15.064
12680,-12.38,-14.796
12691,-13.496,-14.19
12703,-11.832,-16.579
12715,-13.082,-15.562
12727,-14.342,-13.415
12738,-12.932,-12.278
12750,-11.886,-13.142
12762,-15.331,-17.715
12773,-14.875,-16.678
12785,-13.49,-13.488
12797,-12.702,-14.022
12809,-12.386,-14.059
12820,-11.672,-13.454
12832,-11.906,-14.051
12844,-14.513,-14.712
12855,-11.4,-15.207
12867,-10.479,-13.481
12879,-11.245,-12.272
12891,-13.547,-13.218
12902,-13.83,-13.16
12914,-12.858,-13.528
12926,-10.459,-13.045
12938,-11.38,-15.444
12949,-11.148,-15.763
12961,-12.029,-16.549
12973,-14.066,-15.041
12984,-12.714,-14.266
12996,-13.365,-13.882
13008,-14.964,-14.429
13020,-14.154,-14.881
13031,-14.191,-16.811
13043,-12.336,-16.675
13055,-11.562,-15.209
13066,-12.713,-16.939
13078,-13.208,-16.684
13090,-13.378,-15.101
13102,-11.548,-15.17
13113,-14.821,-15.987
13125,-12.936,-17.366
13137,-14.196,-17.087
13148,-15.197,-14.992
13160,-13.108,-17.242
13172,-12.467,-19.932
13184,-14.57,-18.385
13195,-15.343,-16.211
13207,-14.228,-11.984
13219,-15.558,-13.01
13230,-14.313,-14.271
13242,-10.07,-16.809
13254,-11.896,-19.462
13266,-15.162,-16.678
13277,-17.304,-14.698
13289,-13.733,-20.572
13301,-10.496,-19.27
13313,-10.552,-19.499
13324,-9.8133,-18.824
13336,-12.932,-15.234
13348,-16.022,-14.929
13359,-13.223,-14.09
13371,-12.057,-14.02
13383,-14.807,-19.597
13395,-13.078,-18.033
13406,-14.182,-15.96
13418,-15.978,-14.509
13430,-15.411,-12.882
13441,-13.404,-13.716
13453,-11.623,-16.296
13465,-14.218,-15.455
13477,-12.264,-12.569
13488,-11.319,-12.133
13500,-14.088,-16.21
13512,-16.73,-16.434
13523,-15.313,-17.103
13535,-13.554,-17.302
13547,-12.25,-17.351
13559,-10.407,-18.376
13570,-8.8691,-15.2
13582,-12.268,-14.957
13594,-16.717,-14.044
13605,-17.28,-11.71
13617,-14.606,-13.359
13629,-14.629,-15.212
13641,-16.237,-19.026
13652,-14.1,-21.891
13664,-14.297,-17.655
13676,-13.902,-18.073
13688,-15.537,-14.028
13699,-19.187,-17.958
13711,-13.524,-18.389
13723,-12.341,-18.727
13734,-16.15,-18.286
13746,-15.642,-16.027
13758,-14.547,-15.836
13770,-15.552,-15.748
13781,-14.509,-14.715
13793,-13.413,-17.9
13805,-12.745,-15.85
13816,-13.746,-15.542
13828,-13.573,-16.921
13840,-15.593,-17.224
13852,-15.545,-17.235
13863,-16.344,-17.033
13875,-15.674,-15.585
13887,-15.899,-14.077
13898,-13.191,-15.533
13910,-15.008,-15.77
13922,-13.125,-17.189
13934,-14.977,-15.707
13945,-17.576,-15.817
13957,-20.126,-16.195
13969,-18.097,-18.077
13980,-15.764,-18.365
13992,-17.345,-15.618
14004,-14.41,-15.113
14016,-14.165,-16.387
14027,-12.407,-13.589
14039,-13.224,-13.745
14051,-14.646,-15.955
14063,-15.606,-17.082
14074,-15.614,-14.335
14086,-14.413,-14.385
14098,-16.039,-17.39
14109,-13.191,-17.608
14121,-14.163,-21.718
14133,-17.42,-21.36
14145,-17.227,-20.305
14156,-17.335,-15.962
14168,-15.25,-18.84
14180,-18.339,-18.449
14191,-18.161,-17.689
14203,-18.739,-18.624
14215,-18.723,-18.821
14227,-19.231,-16.102
14238,-19.55,-14.664
14250,-15.44,-15.062
14262,-12.77,-17.087
14273,-14.199,-17.234
14285,-16.616,-19.742
14297,-18.486,-18.526
14309,-15.758,-16.358
14320,-15.92,-16.173
14332,-14.794,-17.555
14344,-13.155,-18.985
14355,-14.174,-17.059
14367,-17.818,-17.127
14379,-19.301,-18.506
14391,-17.143,-18.376
14402,-16.781,-15.084
14414,-18.744,-14.78
14426,-16.561,-18.087
14438,-14.413,-19.251
14449,-14.949,-18.293
14461,-14.854,-16.857
14473,-18.195,-16.78
14484,-18.734,-15.783
14496,-17.735,-17.633
14508,-17.782,-21.632
14520,-17.123,-21.769
14531,-16.598,-17.428
14543,-19.723,-16.128
14555,-19.512,-18.674
14566,-16.439,-21.117
14578,-15.827,-18.848
14590,-17.248,-18.67
14602,-16.282,-20.872
14613,-16.392,-19.164
14625,-15.228,-19.572
14637,-15.042,-21.31
14648,-17.157,-17.926
14660,-18.339,-21.664
14672,-17.433,-18.24
14684,-17.396,-17.335
14695,-16.742,-21.116
14707,-17.166,-19.14
14719,-19.475,-18.254
14730,-16.425,-16.426
14742,-14.869,-16.866
14754,-20.294,-17.662
14766,-16.714,-19.64
14777,-16.032,-17.595
14789,-17.169,-17.174
14801,-17.514,-21.328
14813,-15.259,-21.099
14824,-13.553,-20.116
14836,-14.769,-19.765
14848,-17.549,-17.48
14859,-15.44,-17.843
14871,-16.972,-21.362
14883,-17.84,-19.524
14895,-16.942,-18.656
14906,-17.581,-17.208
14918,-13.205,-17.375
14930,-12.383,-15.903
14941,-16.202,-18.12
14953,-17.504,-18.933
14965,-17.318,-16.933
14977,-16.884,-18.832
14988,-19.565,-18.086
15000,-18.774,-19.474
15012,-16.963,-19.386
15023,-18.219,-19.951
15035,-17.902,-20.534
15047,-19.465,-21.433
15059,-17.782,-18.219
15070,-17.604,-16.726
15082,-18.469,-18.213
15094,-17.894,-18.842
15105,-17.786,-17.384
15117,-19.844,-14.832
15129,-16.811,-13.645
15141,-17.639,-15.455
15152,-19.876,-18.841
15164,-18.389,-18.596
15176,-18.786,-19.834
15188,-18.776,-19.702
15199,-17.05,-20.398
15211,-17.738,-20.155
15223,-16.639,-20.728
15234,-15.752,-23.204
15246,-17.107,-21.444
15258,-17.966,-19.799
15270,-17.548,-19.125
15281,-20.319,-21.952
15293,-21.841,-20.36
15305,-17.466,-17.395
15316,-14.663,-17.877
15328,-16.416,-17.247
15340,-17.118,-15.776
15352,-16.785,-17.073
15363,-17.065,-17.162
15375,-17.749,-16.15
15387,-16.863,-15.376
15398,-19.173,-14.603
15410,-17.637,-16.715
15422,-16.821,-18.671
15434,-20.186,-20.109
15445,-22.229,-22.212
15457,-18.505,-20.549
15469,-18.702,-17.93
15480,-15.604,-16.645
15492,-15.148,-17.873
15504,-17.651,-19.707
15516,-17.572,-21.56
15527,-16.691,-19.442
15539,-15.783,-18.728
15551,-15.876,-18.259
15563,-14.804,-20.805
15574,-14.036,-21.975
15586,-14.443,-19.978
15598,-17.438,-19.36
15609,-18.208,-21.254
15621,-18.57,-19.745
15633,-16.029,-17.827
15645,-17.174,-17.789
15656,-21.204,-18.723
15668,-18.098,-18.197
15680,-19.833,-19.692
15691,-18.038,-16.541
15703,-18.05,-16.116
15715,-16.934,-16.876
15727,-16.554,-19.049
15738,-18.262,-17.728
15750,-18.682,-20.367
15762,-17.444,-21.885
15773,-18.117,-19.449
15785,-20.085,-18.261
15797,-19.726,-18.071
15809,-19.886,-19.194
15820,-19.488,-19.429
15832,-21.955,-19.848
15844,-20.534,-19.957
15855,-18.111,-22.569
15867,-15.938,-17.451
15879,-18.58,-18.2
15891,-22.187,-22.402
15902,-17.436,-19.725
15914,-19.017,-19.132
15926,-19.833,-19.867
15938,-19.559,-20.83
15949,-17.921,-19.712
15961,-16.824,-22.589
15973,-14.499,-23.315
15984,-14.542,-18.398
15996,-17.811,-17.572
16008,-17.788,-19.077
16020,-17.172,-20.595
16031,-19.002,-22.447
16043,-21.106,-18.135
16055,-22.359,-17.217
16066,-21.087,-20.006
16078,-21.63,-21.331
16090,-20.74,-19.901
16102,-16.444,-20.325
16113,-15.864,-20.03
16125,-18.415,-22.014
16137,-18.611,-19.5
16148,-18.517,-18.3
16160,-17.48,-18.631
16172,-18.66,-19.744
16184,-18.313,-18.334
16195,-19.405,-19.166
16207,-21.207,-21.502
16219,-23.207,-20.758
16230,-18.596,-19.884
16242,-19.066,-17.937
16254,-19.004,-17.09
16266,-21.79,-20.435
16277,-22.403,-25.441
16289,-22,-21.273
16301,-21.413,-22.282
16313,-22.728,-23.023
16324,-20.675,-17.839
16336,-19.669,-17.697
16348,-21.009,-19.686
16359,-21.404,-19.566
16371,-19.919,-21.263
16383,-16.842,-21.452
16395,-18.193,-21.716
16406,-19.775,-21.114
16418,-20.394,-20.253
16430,-20.362,-19.465
16441,-18.816,-19.497
16453,-21.81,-21.173
16465,-21.698,-20.611
16477,-19.962,-19.108
16488,-21.501,-19.742
16500,-20.236,-20.933
16512,-19.373,-21.223
16523,-22.344,-21.588
16535,-21.206,-23.497
16547,-21.891,-18.186
16559,-22.659,-19.277
16570,-18.92,-21.933
16582,-18.997,-22.984
16594,-19.019,-20.967
16605,-20.14,-19.904
16617,-22.045,-19.954
16629,-19.561,-19.839
16641,-18.965,-19.843
16652,-16.937,-21.046
16664,-19.171,-20.233
16676,-21.657,-22.125
16688,-24.424,-23.163
16699,-21.135,-22.502
16711,-20.337,-22.611
16723,-20.728,-22.064
16734,-19.426,-21.179
16746,-23.562,-21.507
16758,-25.567,-21.339
16770,-19.795,-22.506
16781,-21.485,-21.909
16793,-22.204,-20.124
16805,-19.652,-21.538
16816,-22.64,-23.489
16828,-24.401,-23.089
16840,-21.443,-21.94
16852,-17.681,-19.565
16863,-19.456,-19.522
16875,-20.696,-22.785
16887,-21.717,-22.381
16898,-22.398,-19.248
16910,-23.508,-19.893
16922,-21.679,-19.819
16934,-21.862,-22.227
16945,-24.462,-21.399
16957,-18.999,-19.823
16969,-18.511,-20.624
16980,-20.035,-21.405
16992,-21.009,-19.127
17004,-20.594,-18.166
17016,-21.363,-20.611
17027,-19.182,-25.587
17039,-18.869,-23.294
17051,-21.098,-23.863
17063,-23.741,-26.197
17074,-22.181,-23.508
17086,-18.651,-22.286
17098,-18.362,-24.139
17109,-20.556,-21.801
17121,-23.485,-21.49
17133,-22.113,-19.816
17145,-23.919,-21.743
17156,-19.003,-21.367
17168,-17.806,-22.308
17180,-22.032,-25.231
17191,-18.861,-20.918
17203,-19.902,-18.126
17215,-20.072,-20.666
17227,-18.946,-23.302
17238,-20.169,-24.935
17250,-21.675,-24.783
17262,-23.753,-22.978
17273,-22.925,-23.195
17285,-23.814,-19.731
17297,-24.066,-20.384
17309,-24.477,-19.435
17320,-20.708,-21.634
17332,-19.22,-20.528
17344,-18.473,-20.7
17355,-18.009,-22.715
17367,-20.49,-25.211
17379,-21.481,-22.806
17391,-21.297,-21.161
17402,-24.473,-19.586
17414,-21.361,-22.427
17426,-22.245,-19.838
17438,-19.339,-19.767
17449,-19.561,-21.035
17461,-21.708,-24.346
17473,-19.881,-23.387
17484,-18.764,-22.51
17496,-20.419,-22.715
17508,-21.156,-21.022
17520,-23.36,-20.178
17531,-25.696,-20.506
17543,-25.008,-21.034
17555,-24.52,-22.544
17566,-26.425,-22.491
17578,-20.393,-20.726
17590,-20.019,-24.284
17602,-23.328,-26.813
17613,-21.871,-22.805
17625,-21.533,-20.573
17637,-23.525,-23.294
17648,-18.425,-22.869
17660,-17.323,-20.105
17672,-21.677,-22.322
17684,-22.251,-26.087
17695,-20.908,-24.299
17707,-21.857,-22.196
17719,-22.838,-20.654
17730,-24.246,-19.922
17742,-24.062,-20.783
17754,-24.695,-21.969
17766,-22.228,-20.836
17777,-23.353,-21.329
17789,-24.752,-21.127
17801,-24.712,-19.203
17813,-22.079,-19.878
17824,-22.357,-24.461
17836,-23.105,-26.535
17848,-22.87,-24.198
17859,-19.269,-24.86
17871,-23.078,-22.242
17883,-23.143,-21.527
17895,-21.613,-26.989
17906,-23.628,-24.063
17918,-21.102,-24.201
17930,-24.074,-24.042
17941,-23.7,-22.403
17953,-24.065,-22.256
17965,-22.411,-22.922
17977,-21.132,-23.4
17988,-19.956,-21.463
18000,-18.861,-22.144
18012,-21.463,-25.295
18023,-23.851,-24.057
18035,-24.376,-25.069
18047,-24.563,-19.92
18059,-22.902,-19.986
18070,-22.517,-23.679
18082,-24.457,-22.749
18094,-24.852,-21.664
18105,-23.379,-21.314
18117,-23.348,-22.142
18129,-22.505,-22.26
18141,-22.962,-22.76
18152,-21.845,-22.909
18164,-21.211,-23.116
18176,-22.316,-23.57
18188,-23.993,-24.817
18199,-19.844,-21.195
18211,-19.285,-22.872
18223,-20.799,-26.398
18234,-21.38,-24.13
18246,-23.782,-25.048
18258,-24.396,-25.37
18270,-21.614,-23.87
18281,-20.528,-21.637
18293,-20.813,-22.529
18305,-21.798,-25.924
18316,-23.071,-27.273
18328,-22.474,-24.664
18340,-21.783,-25.003
18352,-21.345,-24.794
18363,-20.777,-24.658
18375,-21.367,-22.293
18387,-22.694,-20.361
18398,-24.04,-23.204
18410,-21.228,-24.274
18422,-21.197,-20.239
18434,-27.434,-21.818
18445,-23.789,-22.54
18457,-23.665,-22.977
18469,-24.337,-25.819
18480,-21.575,-26.613
18492,-22.462,-24.385
18504,-24.521,-23.736
18516,-25.617,-25.761
18527,-22.708,-25.858
18539,-25.352,-24.022
18551,-23.717,-24.609
18563,-24.429,-23.927
18574,-22.926,-23.438
18586,-24.107,-22.888
18598,-24.36,-23.484
18609,-26.164,-23.755
18621,-24.17,-22.778
18633,-23.94,-22.142
18645,-25.852,-23.502
18656,-23.493,-22.802
18668,-24.317,-21.957
18680,-23.77,-24.124
18691,-22.315,-25.935
18703,-24.743,-21.62
18715,-24.628,-24.153
18727,-22.59,-26.442
18738,-20.672,-26.75
18750,-21.18,-23.569
18762,-21.108,-22.875
18773,-22.89,-26.16
18785,-24.626,-26.831
18797,-24.623,-25.967
18809,-21.777,-22.468
18820,-23.618,-20.861
18832,-27.209,-23.184
18844,-26.512,-24.253
18855,-26.192,-24.209
18867,-24.099,-23.419
18879,-20.954,-21.521
18891,-21.295,-21.612
18902,-25.28,-26.416
18914,-24.784,-24.742
18926,-23.416,-22.407
18938,-24.88,-24.317
18949,-23.62,-23.509
18961,-23.59,-22.317
18973,-23.884,-23.845
18984,-26.727,-26.513
18996,-27.616,-25.599
19008,-25.629,-25.396
19020,-26.605,-25.399
19031,-29.205,-22.535
19043,-25.703,-23.999
19055,-25.998,-22.752
19066,-25.724,-21.541
19078,-24.388,-22.461
19090,-24.183,-25.992
19102,-25.417,-25.458
19113,-26.76,-25.093
19125,-22.16,-25.193
19137,-24.917,-23.081
19148,-27.835,-22.412
19160,-26.806,-24.79
19172,-25.824,-26.054
19184,-23.542,-25.762
19195,-21.298,-25.302
19207,-22.002,-24.931
19219,-24.973,-22.891
19230,-23.328,-23.592
19242,-24.447,-25.128
19254,-22.063,-25.315
19266,-21.698,-26.963
19277,-20.962,-27.475
19289,-20.79,-27.009
19301,-22.916,-26.52
19313,-23.792,-27.508
19324,-23.155,-27.079
19336,-25.263,-25.323
19348,-24.918,-25.024
19359,-23.022,-25.661
19371,-22.196,-22.557
19383,-24.088,-24.031
19395,-23.997,-23.733
19406,-22.081,-21.583
19418,-21.329,-22.479
19430,-22.911,-26.124
19441,-24.648,-23.889
19453,-23.467,-23.042
19465,-24.89,-23.224
19477,-25.2,-25.493
19488,-22.381,-25.453
19500,-21.121,-24.143
19512,-21.824,-25.242
19523,-20.524,-27.894
19535,-20.402,-24.996
19547,-21.991,-24.8
19559,-27.396,-24.25
19570,-24.787,-27.033
19582,-28.252,-28.348
19594,-22.502,-25.793
19605,-24.43,-27.968
19617,-24.062,-24.928
19629,-25.641,-27.644
19641,-27.557,-27.774
19652,-27.52,-27.81
19664,-25.433,-26.616
19676,-21.742,-26.536
19688,-21.71,-29.389
19699,-24.594,-29.086
19711,-25.325,-26.77
19723,-23.069,-24.049
19734,-22.793,-24.949
19746,-24.946,-26.567
19758,-25.37,-28.016
19770,-24.543,-27.243
19781,-25.19,-25.732
19793,-23.565,-27.203
19805,-26.119,-26.146
19816,-26.767,-25.244
19828,-22.953,-26.996
19840,-24.118,-26.494
19852,-26.236,-26.103
19863,-28.931,-26.254
19875,-24.357,-27.819
19887,-25.514,-25.368
19898,-26.677,-25.008
19910,-28.065,-25.096
19922,-24.718,-23.741
19934,-23.825,-24.943
19945,-25.722,-26.239
19957,-24.752,-26.477
19969,-23.701,-25.303
19980,-22.758,-26.297
19992,-24.485,-26.422
20004,-25.753,-23.922
20016,-24.743,-22.151
20027,-23.312,-21.269
20039,-24.128,-23.223
20051,-25.887,-26.856
20063,-23.957,-28.023
20074,-23.281,-26.049
20086,-24.591,-24.533
20098,-23.539,-25.117
20109,-21.564,-28.497
20121,-21.031,-25.571
20133,-22.424,-24.648
20145,-25.649,-25.322
20156,-27.401,-25.883
20168,-27.839,-26.522
20180,-26.397,-27.995
20191,-27.835,-29.11
20203,-25.984,-28.499
20215,-25.755,-25.579
20227,-27.711,-22.035
20238,-24.289,-24.11
20250,-24.539,-24.847
20262,-26.495,-23.362
20273,-24.754,-22.977
20285,-26.41,-26.439
20297,-26.99,-24.915
20309,-24.746,-25.628
20320,-24.683,-24.478
20332,-23.641,-26.692
20344,-24.963,-27.418
20355,-27.745,-25.747
20367,-27.579,-25.543
20379,-25.469,-28.836
20391,-24.036,-27.741
20402,-25.136,-25.155
20414,-26.616,-25.304
20426,-28.491,-24.726
20438,-26.743,-24.493
20449,-24.605,-22.674
20461,-22.604,-21.716
20473,-23.046,-24.588
20484,-25.604,-26.78
20496,-23.038,-27.267
20508,-25.243,-23.79
20520,-26.427,-23.181
20531,-28.599,-27.648
20543,-28.843,-26.622
20555,-27.381,-23.992
20566,-28.341,-23.497
20578,-26.577,-24.625
20590,-23.682,-25.861
20602,-24.074,-24.046
20613,-26.586,-25.387
20625,-26.959,-27.76
20637,-24.428,-31.987
20648,-25.62,-29.919
20660,-26.61,-25.061
20672,-28.076,-26.534
20684,-23.269,-25.694
20695,-22.573,-23.187
20707,-26.162,-26.741
20719,-27.632,-28.025
20730,-27.393,-28.368
20742,-25.201,-24.918
20754,-25.001,-25.039
20766,-27.013,-26.664
20777,-27.489,-27.746
20789,-24.38,-26.041
20801,-24.416,-26.71
20813,-25.936,-27.022
20824,-24.967,-27.636
20836,-25.388,-28.551
20848,-25.477,-26.853
20859,-24.949,-26.401
20871,-23.239,-27.09
20883,-25.009,-27.594
20895,-24.645,-28.218
20906,-26.372,-27.413
20918,-26.252,-25.48
20930,-25.05,-26.129
20941,-22.795,-25.58
20953,-22.972,-26.328
20965,-27.371,-28.176
20977,-27.244,-27.74
20988,-26.439,-25.248
21000,-28.869,-22.566
21012,-25.733,-25.011
21023,-23.46,-26.306
21035,-24.592,-27.252
21047,-27.304,-25.981
21059,-23.78,-24.035
21070,-23.434,-25.912
21082,-26.243,-27.361
21094,-28.927,-25.454
21105,-27.602,-26.406
21117,-27.536,-27.895
21129,-26.868,-27.683
21141,-26.371,-27.449
21152,-23.121,-27.715
21164,-23.503,-26.235
21176,-26.719,-25.741
21188,-27.003,-26.201
21199,-25.366,-24.351
21211,-23.811,-23.252
21223,-23.783,-25.461
21234,-25.668,-25.827
21246,-26.214,-25.162
21258,-26.464,-26.967
21270,-25.384,-26.954
21281,-24.477,-26.557
21293,-27.005,-29.671
21305,-28.213,-26.885
21316,-27.761,-25.285
21328,-29.493,-26.518
21340,-27.553,-29.96
21352,-26.54,-27.739
21363,-24.869,-28.36
21375,-25.718,-25.979
21387,-27.872,-27.947
21398,-28.315,-26.144
21410,-26.301,-27.962
21422,-24.132,-30.726
21434,-25.866,-28.944
21445,-29.868,-28.738
21457,-26.003,-27.122
21469,-26.416,-27.216
21480,-23.803,-26.878
21492,-24.839,-30.003
21504,-24.694,-27.331
21516,-24.313,-25.245
21527,-24.649,-29.3
21539,-23.962,-28.948
21551,-25.83,-27.169
21563,-24.771,-26.07
21574,-26.675,-27.702
21586,-25.965,-24.955
21598,-25.048,-24.443
21609,-26.476,-30.532
21621,-26.947,-28.551
21633,-28.271,-27.53
21645,-25.78,-27.112
21656,-26.104,-26.197
21668,-27.197,-25.786
21680,-26.235,-26.425
21691,-27.535,-26.203
21703,-26.998,-26.828
21715,-26.441,-28.261
21727,-30.13,-26.291
21738,-29.7,-27.103
21750,-28.687,-24.734
21762,-25.519,-23.374
21773,-25.241,-25.384
21785,-26.183,-29.397
21797,-27.272,-29.212
21809,-28.304,-27.4
21820,-27.642,-28.256
21832,-25.92,-24.837
21844,-25.441,-25.351
21855,-24.579,-26.568
21867,-24.895,-27.39
21879,-28.247,-27.614
21891,-26.046,-28.112
21902,-25.573,-28.671
21914,-25.112,-28.296
21926,-23.653,-24.298
21938,-24.101,-25.223
21949,-25.067,-27.801
21961,-26.932,-25.047
21973,-28.054,-27.006
21984,-24.62,-29.507
21996,-24.431,-26.25
22008,-25.577,-26.833
22020,-25.214,-28.918
22031,-24.339,-28.668
22043,-24.761,-26.209
22055,-25.396,-25.617
22066,-25.38,-26.569
22078,-26.915,-28.552
22090,-28.217,-28.16
22102,-28.733,-25.822
22113,-26.03,-26.23
22125,-28.009,-28.565
22137,-28.017,-28.032
22148,-27.869,-29.005
22160,-28.406,-29.888
22172,-27.684,-27.193
22184,-26.43,-27.916
22195,-27.139,-28.674
22207,-26.363,-27.684
22219,-26.694,-27.281
22230,-27.825,-29.071
22242,-27.202,-29.481
22254,-29.606,-28.171
22266,-31.468,-26.689
22277,-30.304,-26.427
22289,-25.227,-25.578
22301,-24.382,-26.119
22313,-25.859,-28.639
22324,-26.687,-29.496
22336,-28.649,-32.917
22348,-30.19,-31.304
22359,-29.429,-28.72
22371,-24.955,-29.961
22383,-25.014,-27.705
22395,-27.987,-28.868
22406,-24.777,-27.785
22418,-28.083,-27.998
22430,-28.338,-28.444
22441,-26.462,-29.716
22453,-26.715,-30.719
22465,-25.985,-29.445
22477,-26.743,-27.964
22488,-25.566,-26.892
22500,-26.512,-26.791
22512,-27.026,-28.063
22523,-26.897,-31.179
22535,-24.898,-27.622
22547,-26.963,-26.406
22559,-28.976,-27.671
22570,-25.72,-27.366
22582,-24.21,-25.557
22594,-25.497,-27.426
22605,-27.922,-26.18
22617,-25.795,-27.379
22629,-24.793,-26.809
22641,-23.715,-28.39
22652,-23.083,-26.916
22664,-28.483,-26.097
22676,-28.424,-28.433
22688,-27.312,-27.803
22699,-26.833,-26.927
22711,-28.542,-27.609
22723,-27.11,-29.456
22734,-23.441,-30.233
22746,-24.091,-28.262
22758,-24.891,-28.141
22770,-26.856,-25.492
22781,-27.713,-24.284
22793,-27.553,-25.511
22805,-26.449,-26.547
22816,-27.739,-25.757
22828,-30.204,-28.157
22840,-29.409,-28.312
22852,-28.516,-30.448
22863,-26.412,-29.603
22875,-25.532,-27.158
22887,-26.778,-28.894
22898,-24.682,-30.742
22910,-25.091,-30.142
22922,-27.306,-28.675
22934,-27.947,-26.172
22945,-24.457,-26.596
22957,-26.077,-26.036
22969,-30.298,-26.109
22980,-27.927,-28.367
22992,-29.186,-27.927
23004,-26.943,-22.788
23016,-25.111,-26.3
23027,-26.199,-28.757
23039,-24.622,-28.409
23051,-23.75,-26.924
23063,-24.17,-26.776
23074,-26.47,-29.051
23086,-28.584,-28.786
23098,-27.239,-31.371
23109,-27.147,-31.37
23121,-29.088,-27.743
23133,-29.296,-28.072
23145,-31.311,-27.999
23156,-28.933,-27.509
23168,-27.432,-27.102
23180,-28.268,-30.305
23191,-30.121,-31.741
23203,-30.597,-33.21
23215,-31.944,-28.197
23227,-34.011,-26.72
23238,-30.258,-26.11
23250,-29.446,-27.127
23262,-25.67,-27.456
23273,-26.47,-27.752
23285,-26.261,-28.806
23297,-26.986,-28.355
23309,-28.731,-26.069
23320,-27.23,-27.038
23332,-25.091,-28.412
23344,-25.467,-28.827
23355,-29.802,-29.592
23367,-27.483,-30.023
23379,-27.447,-30.336
23391,-27.808,-29.001
23402,-27.698,-26.16
23414,-27.173,-26.424
23426,-28.878,-33.636
23438,-29.985,-28.701
23449,-28.371,-27.486
23461,-29.726,-29.65
23473,-30.232,-26.834
23484,-28.186,-27.544
23496,-26.204,-26.86
23508,-27.705,-27.484
23520,-29.111,-29.378
23531,-28.216,-27.734
23543,-27.413,-27.276
23555,-28.068,-28.283
23566,-28.34,-29.336
23578,-27.44,-30.799
23590,-28.822,-30.153
23602,-29.798,-31.558
23613,-29.335,-31.957
23625,-27.75,-30.18
23637,-26.329,-27.134
23648,-29.215,-26.662
23660,-29.379,-29.654
23672,-28.515,-27.24
23684,-26.416,-26.355
23695,-27.222,-26.459
23707,-25.536,-29.631
23719,-26.368,-27.932
23730,-26.452,-28.487
23742,-27.241,-28.717
23754,-29.269,-28.523
23766,-27.202,-28.362
23777,-26.878,-32.991
23789,-28.786,-30.673
23801,-30.369,-28.697
23813,-29.544,-28.469
23824,-28.907,-29.369
23836,-27.057,-29.043
23848,-29.303,-29.212
23859,-25.728,-25.473
23871,-27.429,-26.802
23883,-26.587,-27.61
23895,-27.507,-28.675
23906,-22.157,-27.665
23918,-17.186,-28.189
23930,-18.694,-28.126
23941,-27.546,-31.357
23953,-28.733,-32.865
23965,-26.082,-30.134
23977,-26.724,-29.863
23988,-26.861,-27.619
