FFT,Power Spectrum
Frequency[Hz],Level-L[dB],Level-R[dB]
11.719,-4.2313,-62.397
23.438,15.981,-53.433
35.156,15.486,-43.691
46.875,20.97,-27.534
58.594,22.896,-25.383
70.313,20.191,-29.533
82.031,20.534,-27.205
93.75,24.592,-25.61
105.47,22.088,-20.2
117.19,17.584,-18.9
128.91,16.973,-19.797
140.63,20.536,-16.826
152.34,20.231,-13.095
164.06,15.981,-14.372
175.78,18.377,-14.934
187.5,17.744,-14.429
199.22,18.79,-17.676
210.94,15.182,-17.697
222.66,15.185,-17.821
234.38,20.077,-16.739
246.09,19.279,-13.65
257.81,13.966,-12.163
269.53,15.748,-14.679
281.25,14.787,-15.206
292.97,14.851,-13.758
304.69,13.767,-14.055
316.41,13.91,-15.609
328.13,14.968,-14.228
339.84,15.771,-14.761
351.56,18.285,-17.012
363.28,19.702,-17.589
375,17.793,-16.127
386.72,19.73,-13.474
398.44,19.775,-13.499
410.16,19.067,-13.091
421.88,20.659,-11.195
433.59,20.305,-10.904
445.31,19.096,-9.1534
457.03,16.846,-10.482
468.75,18.936,-16.336
480.47,17.936,-16.422
492.19,22.133,-15.292
503.91,21.416,-11.709
515.63,16.174,-12.589
527.34,16.86,-11.68
539.06,16.272,-10.066
550.78,16.922,-9.5062
562.5,18.816,-14.054
574.22,19.729,-15.819
585.94,18.611,-10.944
597.66,20.472,-9.4368
609.38,22.614,-10.517
621.09,23.892,-9.1011
632.81,20.871,-10.894
644.53,20.688,-13.464
656.25,18.989,-12.509
667.97,17.533,-12.433
679.69,17.738,-10.894
691.41,15.204,-8.1598
703.13,16.581,-8.7354
714.84,16.883,-12.011
726.56,14.373,-13.708
738.28,17.793,-15.833
750,14.956,-10.942
761.72,16.869,-8.5977
773.44,15.248,-7.8776
785.16,13.175,-7.7966
796.88,16.545,-9.827
808.59,18.01,-12.879
820.31,18.235,-8.7271
832.03,15.934,-6.8726
843.75,16.46,-8.7968
855.47,17.697,-9.8228
867.19,15.748,-8.8647
878.91,16.114,-10.944
890.63,14.761,-10.825
902.34,14.826,-8.5134
914.06,15.133,-9.509
925.78,17.224,-9.3309
937.5,15.269,-11.088
949.22,13.168,-10.588
960.94,14.592,-8.5794
972.66,15.817,-9.1535
984.38,16.693,-11.457
996.09,17.575,-9.7677
1007.8,16.541,-7.767
1019.5,15.748,-9.6072
1031.3,14.805,-10.357
1043,15.997,-9.6019
1054.7,15.089,-9.5076
1066.4,16.223,-7.8856
1078.1,14.007,-8.255
1089.8,13.245,-11.053
1101.6,13.634,-9.3722
1113.3,13.848,-8.4091
1125,14.837,-7.8622
1136.7,13.572,-9.073
1148.4,16.961,-10.76
1160.2,16.838,-10.51
1171.9,15.985,-9.2162
1183.6,14.422,-8.4634
1195.3,13.567,-9.0253
1207,15.494,-5.2284
1218.8,15.077,-6.244
1230.5,16.41,-10.544
1242.2,16.534,-10.996
1253.9,15.555,-9.2334
1265.6,14.01,-9.8904
1277.3,14.19,-9.9212
1289.1,16.561,-9.841
1300.8,15.309,-10.099
1312.5,15.841,-8.8784
1324.2,17.385,-6.5635
1335.9,16.06,-6.2999
1347.7,17.206,-9.7435
1359.4,16.558,-11.572
1371.1,14.701,-8.5875
1382.8,15.729,-7.5333
1394.5,15.897,-7.8087
1406.3,14.887,-8.18
1418,17.465,-8.8664
1429.7,17.841,-8.851
1441.4,15.778,-6.0697
1453.1,18.356,-5.2922
1464.8,18.837,-5.8788
1476.6,15.48,-7.4704
1488.3,11.148,-6.6772
1500,12.983,-6.5442
1511.7,12.716,-9.4018
1523.4,13.447,-8.5389
1535.2,13.131,-8.6073
1546.9,14.987,-5.6432
1558.6,14.281,-5.0393
1570.3,13.049,-7.8409
1582,13.882,-5.2446
1593.8,14.003,-4.8258
1605.5,15.069,-6.1569
1617.2,14.776,-10.877
1628.9,13.123,-10.527
1640.6,12.602,-8.0593
1652.3,13.877,-5.8773
1664.1,17.506,-7.5196
1675.8,16.238,-6.1175
1687.5,14.63,-6.6208
1699.2,16.368,-8.4171
1710.9,18.178,-8.8384
1722.7,16.961,-8.3694
1734.4,14.272,-8.3562
1746.1,13.913,-9.7544
1757.8,15.097,-9.2385
1769.5,14.885,-8.7053
1781.3,17.951,-7.9326
1793,17.444,-9.7994
1804.7,15.962,-7.1562
1816.4,15.917,-5.5631
1828.1,15.91,-7.3829
1839.8,19.305,-6.3037
1851.6,19.353,-4.1658
1863.3,15.81,-7.7057
1875,15.269,-8.2264
1886.7,13.447,-7.0365
1898.4,13.558,-6.8701
1910.2,14.065,-8.1032
1921.9,17.087,-7.5026
1933.6,18.461,-8.1378
1945.3,18.056,-9.2012
1957,15.95,-6.0041
1968.8,13.879,-5.1271
1980.5,12.855,-8.5084
1992.2,10.605,-8.6201
2003.9,9.8457,-5.5219
2015.6,10.72,-4.7573
2027.3,15.412,-7.2036
2039.1,14.937,-6.6574
2050.8,12.137,-7.4028
2062.5,14.187,-6.6171
2074.2,13.025,-5.9274
2085.9,13.287,-9.4404
2097.7,14.139,-9.0973
2109.4,11.032,-7.9742
2121.1,11.291,-7.3212
2132.8,13.402,-5.7807
2144.5,14.576,-6.33
2156.3,11.885,-7.877
2168,11.306,-7.1067
2179.7,11.286,-7.2294
2191.4,12.325,-9.8143
2203.1,13.196,-8.3565
2214.8,11.148,-9.6629
2226.6,13.081,-9.5252
2238.3,12.949,-10.032
2250,14.255,-11.648
2261.7,11.774,-8.5788
2273.4,12.225,-7.0955
2285.2,12.045,-8.5124
2296.9,9.3009,-7.0496
2308.6,12.085,-8.7053
2320.3,13.649,-13.421
2332,17.006,-8.5656
2343.8,14.527,-6.2715
2355.5,12.133,-7.1033
2367.2,12.828,-9.0873
2378.9,12.772,-7.3188
2390.6,10.055,-7.2756
2402.3,10.702,-7.5542
2414.1,11.325,-9.9043
2425.8,13.863,-8.3819
2437.5,15.346,-8.978
2449.2,12.958,-8.1446
2460.9,11.594,-5.7913
2472.7,12.783,-6.3284
2484.4,11.015,-5.1157
2496.1,6.1826,-4.5561
2507.8,9.7763,-7.7225
2519.5,8.3949,-7.9903
2531.3,10.19,-7.7154
2543,12.548,-6.3125
2554.7,13.178,-4.5885
2566.4,14.768,-10.456
2578.1,12.846,-9.0984
2589.8,8.916,-8.7791
2601.6,13.959,-9.1959
2613.3,12.814,-8.431
2625,14.056,-5.4849
2636.7,16.465,-8.5936
2648.4,14.031,-10.617
2660.2,9.2798,-8.4653
2671.9,7.4906,-9.9903
2683.6,12.525,-8.1781
2695.3,12.331,-5.0509
2707,13.145,-8.4257
2718.8,11.744,-6.7035
2730.5,9.7225,-8.3266
2742.2,10.675,-7.0944
2753.9,11.696,-6.0913
2765.6,12.577,-6.8197
2777.3,13.708,-9.6515
2789.1,14.289,-8.0691
2800.8,12.824,-8.9454
2812.5,11.944,-9.5708
2824.2,10.842,-10.871
2835.9,10.665,-8.0727
2847.7,10.305,-7.7841
2859.4,9.2327,-12.37
2871.1,13.067,-9.4603
2882.8,14.867,-7.6335
2894.5,13.126,-6.3044
2906.3,12.435,-6.7754
2918,13.408,-7.5943
2929.7,13.489,-7.3263
2941.4,10.719,-5.8763
2953.1,13.037,-7.2287
2964.8,12.531,-6.048
2976.6,10.559,-5.7979
2988.3,11.213,-7.7736
3000,12.282,-6.7941
3011.7,15.21,-8.8278
3023.4,15.282,-8.4095
3035.2,13.785,-6.6751
3046.9,11.888,-7.3599
3058.6,11.851,-5.9317
3070.3,13.434,-6.1379
3082,10.349,-8.3629
3093.8,9.2826,-6.687
3105.5,9.5408,-5.5202
3117.2,8.3473,-7.738
3128.9,10.35,-6.8075
3140.6,12.555,-6.4271
3152.3,12.166,-8.0415
3164.1,11.807,-7.8517
3175.8,12.933,-7.4898
3187.5,8.9205,-6.2922
3199.2,10.468,-7.0425
3210.9,13.014,-4.7427
3222.7,9.4792,-4.459
3234.4,10.816,-10.309
3246.1,11.127,-8.6134
3257.8,9.5062,-11.049
3269.5,10.843,-6.1906
3281.3,10.043,-5.8789
3293,9.1156,-8.4329
3304.7,8.9067,-8.0922
3316.4,9.3558,-8.5659
3328.1,13.034,-9.7048
3339.8,10.245,-7.1002
3351.6,6.9469,-6.5089
3363.3,9.8245,-7.4035
3375,11.702,-5.4673
3386.7,9.0252,-3.5813
3398.4,11.259,-5.2685
3410.2,11.076,-7.1167
3421.9,9.826,-7.7854
3433.6,10.056,-8.1526
3445.3,12.212,-9.473
3457,10.19,-11.437
3468.8,9.4491,-7.0522
3480.5,10.97,-6.139
3492.2,11.653,-2.6602
3503.9,8.6636,-3.9183
3515.6,7.4244,-6.2458
3527.3,11.194,-6.6391
3539.1,10.528,-6.9199
3550.8,12.602,-8.1117
3562.5,10.546,-7.5664
3574.2,9.9053,-7.954
3585.9,8.4311,-7.8232
3597.7,6.3019,-11.275
3609.4,6.3094,-7.9941
3621.1,9.3037,-6.1777
3632.8,8.1814,-6.9364
3644.5,6.8938,-8.3128
3656.3,10.586,-6.1453
3668,12.627,-8.2775
3679.7,10.907,-7.4543
3691.4,11.156,-5.6067
3703.1,11.207,-3.8836
3714.8,10.361,-1.7404
3726.6,10.577,-4.1046
3738.3,10.909,-5.7454
3750,9.8879,-5.3793
3761.7,10.985,-6.5459
3773.4,9.3079,-8.1043
3785.2,7.9805,-6.2887
3796.9,9.6756,-5.9309
3808.6,9.5921,-5.9824
3820.3,7.1609,-9.5379
3832,7.6857,-8.2953
3843.8,8.9384,-7.6252
3855.5,12.364,-6.6028
3867.2,11.211,-6.5096
3878.9,11.177,-8.473
3890.6,10.301,-6.7336
3902.3,6.5569,-5.2623
3914.1,10.433,-5.5964
3925.8,9.8671,-6.1702
3937.5,8.1255,-6.5266
3949.2,7.7663,-8.6221
3960.9,9.2073,-9.0739
3972.7,8.8467,-10.061
3984.4,10.182,-12.177
3996.1,9.0617,-5.9226
4007.8,7.8899,-5.7884
4019.5,9.9473,-8.2821
4031.3,9.3981,-5.4549
4043,8.1511,-4.5021
4054.7,6.8266,-6.9284
4066.4,10.038,-7.7135
4078.1,9.757,-7.2887
4089.8,9.4829,-6.2152
4101.6,6.0776,-3.9751
4113.3,7.5598,-5.9615
4125,8.8937,-7.6498
4136.7,8.2352,-5.2685
4148.4,8.0007,-3.9929
4160.2,7.8588,-5.5878
4171.9,10.602,-9.0829
4183.6,8.779,-9.5263
4195.3,8.2894,-9.2573
4207,9.3786,-7.0431
4218.8,7.3708,-5.3522
4230.5,7.6171,-9.602
4242.2,9.6529,-12.368
4253.9,13.152,-8.0638
4265.6,11.82,-6.3596
4277.3,5.4067,-7.2084
4289.1,8.0063,-6.5491
4300.8,9.8059,-9.0542
4312.5,10.822,-5.9826
4324.2,9.4867,-5.3645
4335.9,7.6392,-8.8697
4347.7,9.448,-10.103
4359.4,11.452,-13.125
4371.1,10.124,-9.2577
4382.8,8.0209,-7.6666
4394.5,9.2074,-7.9387
4406.3,8.6613,-9.5067
4418,9.4365,-9.4422
4429.7,9.0091,-8.5354
4441.4,7.7152,-7.0299
4453.1,8.843,-4.8432
4464.8,9.6333,-6.3787
4476.6,7.287,-7.6433
4488.3,7.3179,-7.504
4500,6.4672,-9.3473
4511.7,8.5325,-8.9919
4523.4,9.9054,-6.7762
4535.2,8.8205,-6.3251
4546.9,6.6856,-7.4895
4558.6,9.5639,-10.151
4570.3,8.5365,-8.7175
4582,9.4709,-7.6129
4593.8,8.7095,-5.6886
4605.5,6.593,-7.9199
4617.2,4.2646,-9.9205
4628.9,8.0777,-8.1496
4640.6,9.4287,-8.4048
4652.3,8.3652,-8.471
4664.1,5.5853,-9.2733
4675.8,8.3965,-7.8841
4687.5,9.0579,-5.867
4699.2,9.1714,-4.0324
4710.9,9.9899,-6.9773
4722.7,7.8101,-7.8095
4734.4,9.8002,-6.579
4746.1,8.311,-6.819
4757.8,5.2829,-8.3574
4769.5,9.2317,-6.4684
4781.3,9.1618,-5.8039
4793,5.8937,-9.1378
4804.7,5.7157,-7.2161
4816.4,5.5811,-6.7113
4828.1,4.3361,-8.0057
4839.8,5.5349,-7.9772
4851.6,6.7187,-7.8692
4863.3,7.5013,-7.3142
4875,8.7906,-4.3962
4886.7,7.0966,-7.226
4898.4,8.0384,-9.4653
4910.2,9.3552,-9.1098
4921.9,6.4896,-8.1752
4933.6,6.6358,-8.113
4945.3,10.251,-7.8274
4957,8.8547,-6.6412
4968.8,7.5005,-7.4939
4980.5,6.254,-6.6818
4992.2,7.7373,-5.1025
5003.9,7.574,-6.5222
5015.6,8.363,-7.8601
5027.3,9.0223,-8.8806
5039.1,8.6273,-7.8601
5050.8,8.6416,-8.575
5062.5,7.8811,-9.9396
5074.2,5.8818,-7.2264
5085.9,4.5682,-5.1199
5097.7,7.7817,-4.8547
5109.4,6.2297,-7.6921
5121.1,9.089,-8.713
5132.8,8.9273,-7.7389
5144.5,6.0682,-8.5177
5156.3,6.597,-7.4979
5168,5.4519,-8.7978
5179.7,4.3202,-11.801
5191.4,5.9123,-10.117
5203.1,6.0944,-8.4699
5214.8,7.1179,-7.2141
5226.6,8.2061,-11.134
5238.3,5.4617,-8.3746
5250,5.454,-6.4225
5261.7,7.0068,-6.8288
5273.4,6.5411,-6.4364
5285.2,6.7791,-7.7756
5296.9,6.5668,-9.4904
5308.6,7.4704,-8.5977
5320.3,9.6375,-7.6624
5332,6.6492,-7.8143
5343.8,4.3219,-11.497
5355.5,4.1477,-6.648
5367.2,4.7802,-5.2377
5378.9,7.6486,-4.9635
5390.6,3.0493,-5.9601
5402.3,5.2066,-9.0785
5414.1,3.3337,-6.6854
5425.8,3.9436,-6.6994
5437.5,5.3312,-8.0175
5449.2,4.6052,-7.7627
5460.9,8.8328,-9.4876
5472.7,10.07,-9.2651
5484.4,5.8376,-10.392
5496.1,4.0339,-10.036
5507.8,3.6629,-8.554
5519.5,4.0805,-4.9552
5531.3,7.4688,-4.9287
5543,6.3298,-9.1518
5554.7,5.4243,-10.56
5566.4,6.5676,-6.6498
5578.1,4.9682,-6.4594
5589.8,8.0765,-11.359
5601.6,5.975,-11.842
5613.3,5.7091,-9.2884
5625,5.5711,-8.0977
5636.7,3.7112,-10.059
5648.4,4.0853,-6.0667
5660.2,5.7677,-4.965
5671.9,7.2189,-9.6751
5683.6,7.3329,-10.345
5695.3,4.1528,-7.1408
5707,6.2128,-6.2128
5718.8,5.0311,-5.5229
5730.5,5.9486,-6.1409
5742.2,6.6993,-8.0313
5753.9,7.4346,-8.3
5765.6,8.3737,-7.7278
5777.3,7.4252,-8.3458
5789.1,5.7348,-10.405
5800.8,5.339,-6.7999
5812.5,7.103,-8.5711
5824.2,6.7997,-11.113
5835.9,5.2457,-10.285
5847.7,3.7915,-7.3086
5859.4,2.8425,-6.9901
5871.1,7.9544,-6.8699
5882.8,7.7084,-6.5585
5894.5,6.2367,-7.5047
5906.3,5.6283,-11.022
5918,3.1648,-10.885
5929.7,2.952,-10.733
5941.4,5.8205,-13.465
5953.1,6.5698,-10.19
5964.8,4.7379,-7.3414
5976.6,2.7917,-8.0809
5988.3,4.4126,-8.9767
6000,6.6763,-6.5387
6011.7,7.6108,-6.0235
6023.4,7.2806,-6.8549
6035.2,7.6524,-9.7417
6046.9,5.1589,-14.157
6058.6,4.3306,-10.966
6070.3,0.37181,-10.657
6082,1.5799,-8.9015
6093.8,3.4617,-7.5423
6105.5,5.6273,-9.6683
6117.2,6.5822,-9.1147
6128.9,5.517,-9.8722
6140.6,3.6041,-9.7483
6152.3,4.5245,-9.379
6164.1,4.3066,-9.3136
6175.8,3.9855,-8.9851
6187.5,5.4321,-9.9087
6199.2,8.1473,-10.823
6210.9,2.533,-9.1555
6222.7,3.7741,-7.2643
6234.4,4.6631,-8.0679
6246.1,3.6742,-9.5897
6257.8,4.8463,-9.3295
6269.5,5.9093,-10.991
6281.3,5.7251,-9.996
6293,6.7203,-7.5992
6304.7,3.6657,-7.9498
6316.4,2.1617,-6.3893
6328.1,2.4783,-8.4737
6339.8,4.4159,-10.908
6351.6,2.557,-7.9803
6363.3,4.7709,-6.3949
6375,5.3564,-9.8642
6386.7,4.5044,-7.7918
6398.4,5.2407,-8.8395
6410.2,7.3945,-8.6747
6421.9,3.2585,-7.1387
6433.6,2.336,-7.5001
6445.3,2.5508,-10.953
6457,4.3176,-6.8693
6468.8,8.0557,-5.515
6480.5,7.0729,-5.2782
6492.2,4.3263,-8.6134
6503.9,3.7876,-9.6507
6515.6,5.6939,-7.8582
6527.3,6.2742,-10.35
6539.1,5.6738,-14.219
6550.8,5.417,-10.432
6562.5,5.1971,-11.15
6574.2,3.4108,-14.095
6585.9,3.3578,-13.958
6597.7,3.337,-9.6233
6609.4,1.9019,-7.054
6621.1,4.772,-8.4707
6632.8,4.7401,-6.855
6644.5,5.452,-7.6209
6656.3,5.0694,-6.7817
6668,4.5726,-11.116
6679.7,4.8028,-8.4726
6691.4,4.5476,-7.8652
6703.1,3.1183,-10.244
6714.8,3.2225,-10.814
6726.6,5.561,-9.2622
6738.3,3.7348,-7.5488
6750,5.0458,-9.3707
6761.7,5.8632,-9.8561
6773.4,5.0687,-10.27
6785.2,4.7703,-9.3429
6796.9,4.5477,-8.8151
6808.6,4.9504,-9.3209
6820.3,3.0834,-10.229
6832,5.5898,-9.2928
6843.8,5.2592,-9.3623
6855.5,4.0666,-10.066
6867.2,3.5995,-7.4362
6878.9,3.2409,-7.6085
6890.6,0.32658,-7.7269
6902.3,1.1052,-8.3028
6914.1,3.8546,-8.6952
6925.8,2.0284,-10.02
6937.5,1.5214,-11.292
6949.2,2.9791,-12.016
6960.9,2.7964,-8.8538
6972.7,5.6677,-12.094
6984.4,5.2786,-9.9609
6996.1,2.4894,-7.7394
7007.8,2.2405,-8.6372
7019.5,4.7122,-8.2898
7031.3,6.1226,-9.0007
7043,5.8601,-9.3554
7054.7,5.8924,-11.099
7066.4,1.7184,-11.018
7078.1,2.8736,-8.5186
7089.8,2.8811,-10.155
7101.6,2.4894,-10.369
7113.3,3.6454,-14.356
7125,3.0851,-9.0018
7136.7,1.3741,-7.9557
7148.4,5.4927,-9.3516
7160.2,4.3899,-8.656
7171.9,1.6059,-10.532
7183.6,3.5148,-9.5115
7195.3,2.9976,-7.2529
7207,4.1255,-8.7421
7218.8,5.9346,-9.1344
7230.5,3.6893,-10.545
7242.2,1.7713,-8.3347
7253.9,3.3827,-6.546
7265.6,6.4259,-10.31
7277.3,3.3832,-11.993
7289.1,3.2121,-10.273
7300.8,1.5669,-11.073
7312.5,0.50048,-12.356
7324.2,2.4177,-11.154
7335.9,3.8607,-8.1393
7347.7,1.5233,-9.7249
7359.4,-0.25892,-5.4856
7371.1,2.3259,-7.0137
7382.8,6.0174,-11.04
7394.5,3.3906,-10.669
7406.3,-0.69489,-6.9026
7418,5.4956,-8.376
7429.7,6.6441,-11.151
7441.4,6.2148,-11.309
7453.1,5.2667,-9.9181
7464.8,5.5412,-7.7947
7476.6,3.8818,-9.2424
7488.3,-0.46377,-10.595
7500,-1.59,-12.573
7511.7,1.0276,-12.281
7523.4,4.6876,-9.0271
7535.2,0.26126,-8.2002
7546.9,0.97116,-7.345
7558.6,1.4292,-10.28
7570.3,1.8666,-9.5129
7582,3.3488,-8.7553
7593.8,4.3111,-8.7591
7605.5,3.6916,-9.8822
7617.2,4.6807,-7.9605
7628.9,3.9111,-6.4529
7640.6,3.1927,-10.721
7652.3,2.7196,-10.339
7664.1,0.6961,-8.7355
7675.8,2.538,-10.861
7687.5,3.7062,-9.4743
7699.2,2.5173,-8.2967
7710.9,2.7521,-8.0679
7722.7,4.6083,-8.6123
7734.4,4.6285,-10.514
7746.1,3.2184,-9.3256
7757.8,3.1988,-8.2036
7769.5,3.3755,-11.357
7781.3,4.1206,-8.4842
7793,3.1321,-10.805
7804.7,1.8167,-12.493
7816.4,0.48359,-9.444
7828.1,5.0812,-10.539
7839.8,4.2093,-12.781
7851.6,4.7592,-9.8258
7863.3,6.3491,-10.06
7875,4.9171,-13.795
7886.7,7.9793,-13.977
7898.4,7.3515,-12.112
7910.2,6.3423,-10.086
7921.9,13.214,-11.549
7933.6,16.692,-11.497
7945.3,21.321,-11.281
7957,28.098,-11.375
7968.8,36.974,-12.14
7980.5,51.763,-9.8922
7992.2,69.815,-7.9698
8003.9,71.749,-8.5593
8015.6,60.875,-10.086
8027.3,40.849,-8.9864
8039.1,30.498,-12.991
8050.8,23.729,-8.3942
8062.5,17.378,-9.5583
8074.2,14.509,-11.308
8085.9,10.504,-10.892
8097.7,5.0302,-14.153
8109.4,5.7231,-14.726
8121.1,3.7176,-13.08
8132.8,3.5512,-9.4385
8144.5,2.3548,-12.063
8156.3,4.3818,-10.726
8168,2.0147,-7.5441
8179.7,-0.49625,-7.6468
8191.4,3.1801,-6.2531
8203.1,6.2853,-9.7706
8214.8,6.454,-15.714
8226.6,-0.17452,-10.971
8238.3,0.38133,-9.8381
8250,2.9081,-10.693
8261.7,3.9089,-9.3986
8273.4,4.2121,-8.6975
8285.2,1.3701,-9.1056
8296.9,-1.9377,-8.8827
8308.6,-0.2922,-8.9301
8320.3,2.5839,-7.2003
8332,0.83808,-10.137
8343.8,0.77238,-14.517
8355.5,3.3637,-13.122
8367.2,0.5991,-11.727
8378.9,1.2294,-9.5218
8390.6,4.3201,-8.8842
8402.3,0.010853,-7.9912
8414.1,0.67447,-9.8753
8425.8,0.53626,-10.604
8437.5,-0.81605,-11.269
8449.2,0.16846,-10.942
8460.9,-0.64396,-9.4253
8472.7,3.055,-12.817
8484.4,4.8647,-10.371
8496.1,4.652,-8.0237
8507.8,4.3073,-9.8197
8519.5,2.4359,-11.048
8531.3,3.1209,-11.672
8543,1.3425,-11.224
8554.7,-0.29536,-10.813
8566.4,-2.3834,-10.945
8578.1,-2.0917,-10.713
8589.8,-0.97116,-10.165
8601.6,2.3266,-9.0154
8613.3,-2.0399,-9.7697
8625,1.8556,-11.121
8636.7,-0.026829,-9.6198
8648.4,-0.85699,-7.3277
8660.2,0.65114,-7.2367
8671.9,2.0338,-10.109
8683.6,2.2321,-9.1367
8695.3,-1.8456,-8.7762
8707,0.48385,-10.29
8718.8,3.4975,-10.447
8730.5,5.3607,-11.068
8742.2,2.6236,-10.54
8753.9,-1.3737,-9.957
8765.6,-4.9546,-11.15
8777.3,-3.2008,-10.713
8789.1,-1.3559,-11.123
8800.8,-3.5851,-10.961
8812.5,0.4747,-9.859
8824.2,0.51758,-11.04
8835.9,0.82205,-9.9267
8847.7,1.1254,-11.095
8859.4,0.31546,-8.6376
8871.1,-0.034326,-10.502
8882.8,0.79534,-12.859
8894.5,1.5811,-10.032
8906.3,0.77547,-10.998
8918,0.17449,-10.405
8929.7,-0.37993,-13.798
8941.4,0.92917,-10.909
8953.1,1.4953,-13.011
8964.8,1.3393,-10.013
8976.6,-0.084899,-9.0079
8988.3,-3.0369,-7.8958
9000,-2.7411,-7.4622
9011.7,0.72198,-10.153
9023.4,1.2029,-10.908
9035.2,-0.086077,-8.8651
9046.9,1.0798,-8.809
9058.6,2.4812,-11.624
9070.3,3.6937,-11.159
9082,3.0083,-10.878
9093.8,1.6819,-10.899
9105.5,-1.1074,-9.7402
9117.2,-1.1635,-7.9427
9128.9,-1.765,-4.9603
9140.6,-2.5382,-5.9955
9152.3,-0.28049,-9.1386
9164.1,-1.0882,-12.029
9175.8,0.42865,-11.988
9187.5,1.3184,-11.776
9199.2,0.41119,-12.701
9210.9,0.67743,-10.185
9222.7,-0.34414,-8.8116
9234.4,-0.71637,-10.768
9246.1,-0.97799,-10.968
9257.8,-1.5804,-7.4727
9269.5,-0.44414,-9.9417
9281.3,-0.99717,-13.699
9293,0.064034,-14.991
9304.7,0.16456,-10.691
9316.4,-3.4552,-8.1131
9328.1,-1.9095,-10.229
9339.8,-0.62531,-12.405
9351.6,-2.429,-12.207
9363.3,-3.1022,-11.467
9375,-1.4697,-11.861
9386.7,-0.060739,-11.883
9398.4,-0.89698,-14.151
9410.2,-0.46144,-13.401
9421.9,0.15613,-10.533
9433.6,0.98229,-10.572
9445.3,-1.9085,-11.169
9457,-0.68752,-7.2419
9468.8,0.70394,-5.9111
9480.5,0.11621,-8.2139
9492.2,-2.0175,-9.6122
9503.9,-0.1271,-12.215
9515.6,1.0603,-12.623
9527.3,-0.066392,-7.5971
9539.1,-0.37027,-9.8133
9550.8,0.92622,-10.432
9562.5,1.7077,-10.163
9574.2,0.569,-13.295
9585.9,0.21349,-12.534
9597.7,-1.5422,-11.231
9609.4,0.6662,-12.263
9621.1,-0.11496,-12.557
9632.8,-3.7569,-8.7908
9644.5,-1.9813,-13.767
9656.3,-0.48497,-12.577
9668,-0.43629,-13.032
9679.7,0.67459,-12.006
9691.4,-0.051006,-12.192
9703.1,-0.24483,-11.975
9714.8,0.63005,-14.744
9726.6,0.39985,-9.8272
9738.3,-0.17114,-9.0984
9750,-0.87199,-10.579
9761.7,0.24386,-14.466
9773.4,0.55094,-13.628
9785.2,-1.5308,-13.437
9796.9,-3.9351,-11.05
9808.6,-3.722,-10.326
9820.3,-0.76019,-12.585
9832,0.85377,-9.5922
9843.8,-0.19072,-10.039
9855.5,-1.9156,-9.8076
9867.2,0.11145,-9.3287
9878.9,1.9191,-11.411
9890.6,2.5109,-11.272
9902.3,0.40871,-9.5577
9914.1,-0.31383,-10.623
9925.8,-1.2887,-13.253
9937.5,-1.7656,-12.559
9949.2,2.3371,-8.9717
9960.9,0.11009,-11.725
9972.7,-1.7851,-11.308
9984.4,-0.65196,-11.863
9996.1,-0.72518,-13.101
10008,-1.026,-10.647
10020,-1.5935,-12.456
10031,-0.025494,-14.652
10043,-2.2027,-14.515
10055,0.62417,-12.166
10066,2.2457,-12.94
10078,0.5248,-11.388
10090,2.4204,-11.587
10102,2.8695,-12.631
10113,-0.0039851,-13.365
10125,-1.5953,-13.383
10137,1.1014,-12.498
10148,2.189,-12.353
10160,1.7919,-13.419
10172,2.9349,-11.596
10184,3.1906,-10.864
10195,0.44712,-10.655
10207,-2.5128,-9.0956
10219,0.36033,-8.3214
10230,2.5792,-8.2018
10242,0.85043,-9.5326
10254,0.061524,-11.819
10266,0.79862,-8.9223
10277,-0.85765,-7.8161
10289,-1.7775,-9.5039
10301,0.99553,-11.053
10313,1.091,-13.676
10324,-1.271,-12.56
10336,-0.47242,-8.0649
10348,-2.72,-7.8756
10359,-3.6228,-11.624
10371,-2.413,-11.926
10383,0.010636,-10.538
10395,-0.10402,-10.124
10406,-4.6251,-10.848
10418,-1.2851,-10.284
10430,-0.45386,-10.634
10441,-0.54014,-11.265
10453,-1.1829,-11.024
10465,-1.8265,-14.221
10477,-1.7031,-13.862
10488,-1.5429,-14.854
10500,-0.61205,-9.1283
10512,0.24817,-9.0218
10523,0.40021,-14.176
10535,-2.299,-9.8383
10547,1.3893,-9.6977
10559,0.38912,-13.635
10570,-0.77008,-10.501
10582,-2.6711,-11.345
10594,-2.3001,-13.433
10605,-0.99822,-12.467
10617,-1.0948,-11.932
10629,0.13238,-11.395
10641,1.5651,-10.426
10652,-3.572,-10.711
10664,-1.3018,-10.398
10676,-2.211,-10.664
10688,-3.4466,-11.532
10699,-2.2346,-11.692
10711,0.90992,-11.635
10723,-3.2656,-12.552
10734,-2.8275,-11.488
10746,0.081117,-11.291
10758,0.34745,-12.043
10770,0.19117,-10.685
10781,-1.6423,-10.183
10793,-5.5273,-15.773
10805,-2.4203,-12.238
10816,-1.3703,-12.953
10828,-3.118,-14.874
10840,-1.7533,-14.006
10852,0.011217,-11.309
10863,-0.85706,-13.324
10875,-1.939,-11.542
10887,0.5005,-9.8277
10898,-3.0448,-10.602
10910,-4.5731,-9.9108
10922,0.36001,-10.632
10934,-1.3845,-12.189
10945,-2.2316,-12.234
10957,-3.504,-11.506
10969,-1.4052,-10.204
10980,-1.6798,-11.021
10992,-0.84647,-13.971
11004,1.1194,-12.446
11016,-0.79543,-11.096
11027,-3.0329,-12.929
11039,-2.3265,-14.01
11051,-1.678,-13.923
11063,-0.21821,-13.46
11074,-1.9927,-11.022
11086,-4.1514,-12.213
11098,1.2654,-13.088
11109,1.323,-12.685
11121,-1.8998,-13.244
11133,-3.0227,-12.713
11145,-5.6559,-12.433
11156,-5.3441,-16.724
11168,-2.2305,-14.033
11180,-0.93309,-12.341
11191,-1.8288,-13.183
11203,-1.0731,-12.226
11215,-0.32597,-13.371
11227,-0.4664,-12.944
11238,-2.4714,-12.703
11250,-5.3918,-12.107
11262,-4.5088,-12.227
11273,-0.038175,-9.718
11285,1.6709,-10.595
11297,0.54437,-14.919
11309,1.0445,-16.748
11320,-0.7974,-9.9369
11332,-3.9176,-9.5022
11344,-5.4953,-14.034
11355,-0.33068,-13.437
11367,0.92835,-12.561
11379,-1.6782,-11.636
11391,-2.3478,-10.145
11402,-2.0758,-11.314
11414,-0.77563,-12.313
11426,0.018386,-11.817
11438,-0.72963,-13.876
11449,-0.97143,-14.776
11461,-4.738,-13.743
11473,0.086183,-12.062
11484,0.71698,-11.516
11496,-2.2003,-10.467
11508,-2.0617,-10.891
11520,-1.3883,-13.957
11531,-2.4532,-12.984
11543,-3.4455,-10.722
11555,-4.2155,-9.2129
11566,-3.3718,-12.981
11578,-1.3765,-12.215
11590,1.0218,-9.4668
11602,2.5492,-11.904
11613,0.63955,-12.92
11625,-1.1966,-11.859
11637,-1.3059,-12.478
11648,-0.52471,-12.575
11660,1.6043,-12.212
11672,0.022042,-12.402
11684,-2.6344,-12.403
11695,-4.3878,-10.252
11707,-3.3371,-11.077
11719,-2.5273,-14.785
11730,-1.4561,-15.127
11742,-4.1271,-16.262
11754,-2.2897,-16.211
11766,-0.68195,-15.948
11777,0.54151,-13.974
11789,0.63451,-13.109
11801,-1.0353,-13.677
11813,-5.386,-12.351
11824,-2.1445,-13.922
11836,-2.4663,-14.106
11848,-2.2923,-12.819
11859,-6.3944,-11.575
11871,-3.658,-12.806
11883,-4.2371,-15.354
11895,-2.0543,-15.937
11906,-3.1136,-11.21
11918,-4.876,-10.31
11930,-3.9021,-11.885
11941,-0.5244,-13.024
11953,1.2253,-14.148
11965,2.3066,-12.692
11977,-2.4699,-11.983
11988,-1.5934,-11.581
12000,-0.90758,-13.663
12012,-0.11368,-13.14
12023,-4.1022,-11.028
12035,-2.3353,-12.844
12047,-2.2991,-13.92
12059,-1.7732,-11.724
12070,-1.5853,-9.7987
12082,-3.9509,-9.5135
12094,-5.3125,-10.192
12105,-3.2409,-11.204
12117,-2.1297,-13.014
12129,-2.6409,-12.127
12141,0.67491,-9.3566
12152,0.31345,-10.213
12164,-1.3544,-13.21
12176,-1.5007,-13.292
12188,-5.4597,-11.7
12199,-3.8949,-13.129
12211,-2.0984,-13.308
12223,-1.1365,-15.71
12234,-1.6586,-13.74
12246,0.11283,-12.368
12258,-0.96958,-13.515
12270,0.34625,-15.802
12281,-1.4561,-14.339
12293,-2.8986,-12.757
12305,-3.6539,-11.822
12316,-4.8936,-15.865
12328,-4.872,-14.854
12340,-2.7022,-15.086
12352,-2.6248,-14.519
12363,-1.0661,-12.066
12375,0.43342,-13.243
12387,-0.40842,-13.427
12398,-3.6194,-11.48
12410,-5.174,-11.354
12422,-0.73829,-13.725
12434,0.73591,-12.45
12445,-1.2256,-12.977
12457,-0.47104,-15.119
12469,-1.6049,-14.178
12480,-2.7502,-12.55
12492,-3.4071,-12.171
12504,-3.6524,-13.259
12516,-2.4379,-14.974
12527,-2.134,-16.664
12539,-3.2982,-14.626
12551,-4.2936,-13.534
12563,-4.7312,-12.233
12574,-5.3778,-11.942
12586,-5.9018,-12.446
12598,-1.1446,-13.478
12609,1.5666,-12.473
12621,-1.375,-11.238
12633,-0.73111,-13.598
12645,0.047449,-14.125
12656,-1.5477,-12.167
12668,-2.8333,-12.192
12680,-4.1489,-13.51
12691,-5.6884,-12.624
12703,-4.5156,-11.63
12715,-1.4804,-11.378
12727,-1.857,-11.75
12738,-4.1455,-12.741
12750,-0.88202,-10.922
12762,-1.7704,-13.981
12773,-3.3947,-12.637
12785,-5.8214,-10.921
12797,-3.8467,-11.209
12809,-2.4034,-12.574
12820,-0.93703,-11.978
12832,-0.95744,-11.481
12844,-1.9691,-9.9853
12855,-1.6382,-12.093
12867,-2.4994,-15.349
12879,-0.95401,-14.089
12891,-1.1605,-14.877
12902,-0.35486,-14.089
12914,-3.0967,-14.292
12926,-3.3629,-13.084
12938,-3.2369,-12.788
12949,-3.7046,-11.72
12961,-2.4416,-12.064
12973,-0.53461,-10.687
12984,1.1424,-9.7799
12996,-0.52075,-11.351
13008,-3.0104,-10.486
13020,-2.5333,-14.314
13031,-3.5434,-14.559
13043,-3.2087,-16.216
13055,-4.2121,-12.486
13066,-1.575,-12.656
13078,-3.7123,-13.759
13090,-3.775,-12.426
13102,-4.2666,-10.593
13113,-3.7217,-9.7351
13125,-1.3049,-11.071
13137,-4.013,-15.22
13148,-6.4479,-13.797
13160,-2.8958,-13.405
13172,-2.5737,-12.823
13184,-3.2611,-13.17
13195,-3.0175,-13.646
13207,-3.976,-11.569
13219,-2.0924,-12.265
13230,-4.8357,-14.498
13242,-2.2948,-14.578
13254,-0.084004,-14.662
13266,0.043736,-14.662
13277,-2.7276,-17.917
13289,-5.4185,-16.188
13301,-4.951,-14.127
13313,-5.0115,-14.193
13324,-7.7114,-13.777
13336,-5.7356,-10.305
13348,-6.1817,-10.98
13359,-4.9121,-11.842
13371,-2.1324,-14.069
13383,-1.8452,-15.697
13395,-3.9232,-15.062
13406,-9.5398,-14.182
13418,-5.4676,-11.818
13430,-4.7734,-11.677
13441,-4.6565,-13.055
13453,-4.7289,-12.151
13465,-3.4512,-12.441
13477,-5.1568,-15.973
13488,-6.3241,-14.005
13500,-5.5829,-14.565
13512,-3.802,-12.658
13523,-3.5191,-12.317
13535,-2.4245,-14.217
13547,-1.6524,-15.16
13559,-3.4466,-14.782
13570,-6.8892,-13.195
13582,-8.534,-14.393
13594,-5.1846,-12.77
13605,-5.6505,-10.347
13617,-3.6433,-12.296
13629,-3.3252,-13.099
13641,-7.3712,-14.792
13652,-7.5014,-15.355
13664,-9.8222,-15.43
13676,-5.5863,-15.07
13688,-2.4709,-14.474
13699,-6.3252,-14.485
13711,-8.1277,-13.561
13723,-8.1071,-12.948
13734,-3.9407,-15.24
13746,-3.7232,-15.099
13758,-2.7362,-12.925
13770,-1.9089,-15.077
13781,-4.4502,-14.634
13793,-5.7913,-13.811
13805,-1.1627,-14.408
13816,-1.4429,-15.649
13828,-3.803,-15.144
13840,-6.0891,-13.157
13852,-4.9296,-14.345
13863,-3.0238,-16.411
13875,-4.88,-15.117
13887,-6.0762,-13.566
13898,-3.1521,-11.982
13910,-4.6208,-12.566
13922,-5.2066,-16.206
13934,-2.7924,-14.873
13945,-2.5724,-13.315
13957,-3.6114,-12.165
13969,-2.6176,-14.634
13980,-2.1029,-15.012
13992,-2.2961,-12.637
14004,-2.804,-11.255
14016,-2.1232,-14.216
14027,-4.2871,-15.482
14039,-4.2722,-15.862
14051,-3.9356,-17.97
14063,-8.2595,-13.55
14074,-9.7322,-13.157
14086,-6.1816,-13.589
14098,-5.4475,-12.375
14109,-6.3816,-11.062
14121,-7.1894,-12.064
14133,-8.0136,-13.638
14145,-6.447,-15.461
14156,-5.3445,-17.224
14168,-9.5329,-13.602
14180,-5.6952,-14.177
14191,-4.8606,-12.426
14203,-4.5833,-14.003
14215,-2.9003,-15.476
14227,-5.2028,-14.406
14238,-8.2403,-13.089
14250,-4.9961,-13.301
14262,-5.6495,-14.013
14273,-5.0957,-14.023
14285,-5.3147,-13.287
14297,-4.2076,-16.941
14309,-4.0187,-17.581
14320,-5.5379,-16.085
14332,-5.9425,-15.483
14344,-7.3407,-15.654
14355,-7.2019,-16.892
14367,-7.6755,-14.939
14379,-6.1342,-12.014
14391,-7.6452,-11.291
14402,-10.893,-15.449
14414,-9.2018,-14.639
14426,-6.3968,-15.117
14438,-2.7682,-13.891
14449,-3.4248,-14.23
14461,-8.6468,-17.708
14473,-8.9997,-16.331
14484,-6.0313,-15.305
14496,-4.9178,-14.637
14508,-4.8374,-13.173
14520,-7.6924,-15.284
14531,-8.0683,-15.64
14543,-6.7588,-13.238
14555,-5.49,-12.894
14566,-4.4263,-16.209
14578,-4.4792,-17.549
14590,-4.5486,-16.887
14602,-2.4097,-14.942
14613,-0.64088,-12.702
14625,-2.9736,-13.455
14637,-3.4567,-13.772
14648,-4.8766,-12.397
14660,-6.2197,-10.404
14672,-6.7925,-11.449
14684,-4.9738,-13.012
14695,-4.7408,-14.216
14707,-7.9548,-15.421
14719,-4.9835,-14.197
14730,-4.6168,-13.607
14742,-4.1414,-13.325
14754,-3.8148,-13.763
14766,-7.3136,-15.058
14777,-4.7905,-17.656
14789,-4.5548,-16.825
14801,-8.0553,-15.221
14813,-6.7217,-16.655
14824,-6.4895,-15.284
14836,-8.4682,-13.658
14848,-8.5133,-13.518
14859,-6.8975,-12.486
14871,-5.9226,-13.021
14883,-6.7301,-15.29
14895,-8.2852,-17.496
14906,-6.0356,-15.368
14918,-3.9207,-15.401
14930,-4.6213,-13.895
14941,-5.098,-13.062
14953,-2.2548,-17.072
14965,-4.3306,-16.404
14977,-5.773,-19.22
14988,-5.0079,-15.272
15000,-5.3635,-11.78
15012,-5.5669,-12.882
15023,-5.2496,-16.33
15035,-7.8102,-15.328
15047,-8.0091,-16.875
15059,-9.0579,-15.728
15070,-9.4236,-12.227
15082,-8.2028,-12.262
15094,-6.7178,-13.534
15105,-6.3033,-13.372
15117,-6.3133,-11.494
15129,-7.426,-11.833
15141,-6.8563,-12.386
15152,-4.6794,-15.539
15164,-6.0213,-18.864
15176,-4.4891,-16.948
15188,-4.5819,-14.413
15199,-9.7377,-14.547
15211,-10.258,-16.068
15223,-4.75,-17.033
15234,-5.4888,-18.038
15246,-8.6568,-17.099
15258,-7.8143,-18.122
15270,-9.7395,-15.195
15281,-9.4102,-13.436
15293,-11.385,-17.192
15305,-9.8754,-16.61
15316,-10.446,-13.281
15328,-8.2663,-14.097
15340,-5.9733,-14.77
15352,-5.7716,-15.084
15363,-5.3264,-17.205
15375,-5.6198,-13.535
15387,-6.5526,-15.78
15398,-5.0586,-14.545
15410,-5.1433,-13.63
15422,-7.4581,-13.67
15434,-12.305,-14.817
15445,-6.4208,-13.887
15457,-5.9502,-15.698
15469,-8.8927,-16.176
15480,-8.1632,-16.054
15492,-7.7163,-14.86
15504,-7.2765,-14.415
15516,-8.3018,-14.478
15527,-6.9824,-13.862
15539,-11.159,-15.824
15551,-10.539,-14.78
15563,-9.1143,-13.61
15574,-8.0134,-14.177
15586,-7.5692,-17.355
15598,-8.9179,-17.426
15609,-9.1463,-16.548
15621,-7.3383,-18.391
15633,-6.678,-16.991
15645,-7.007,-14.516
15656,-8.3298,-13.232
15668,-7.0093,-13.261
15680,-9.2402,-14.653
15691,-10.856,-14.343
15703,-7.9425,-14.675
15715,-5.4621,-15.574
15727,-5.0341,-15.867
15738,-8.5914,-16.92
15750,-5.3114,-15.482
15762,-7.1779,-13.886
15773,-12.325,-17.076
15785,-12.473,-14.085
15797,-10.397,-13.334
15809,-9.5112,-14.377
15820,-8.8296,-15.43
15832,-9.4441,-16.223
15844,-10.437,-15.115
15855,-9.9184,-17.336
15867,-11.248,-15.416
15879,-11.498,-16.836
15891,-10.162,-15.656
15902,-8.908,-14.626
15914,-6.319,-15.673
15926,-6.8066,-15.116
15938,-7.6389,-16.144
15949,-5.9179,-18.015
15961,-4.9832,-16.49
15973,-5.6129,-15.388
15984,2.2552,-12.175
15996,13.163,-10.822
16008,11.432,-13.474
16020,-3.9259,-15.006
16031,-8.1871,-15.223
16043,-9.3616,-17.142
16055,-11.439,-17.585
16066,-8.0271,-17.073
16078,-10.162,-16.583
16090,-10.668,-19.331
16102,-7.8347,-16.351
16113,-7.6241,-17.515
16125,-7.3165,-14.276
16137,-9.6002,-12.641
16148,-12.027,-13.97
16160,-11.023,-15.095
16172,-8.9978,-14.916
16184,-7.7798,-13.263
16195,-6.5999,-14.376
16207,-8.1733,-16.983
16219,-7.1335,-14.197
16230,-7.3039,-14.036
16242,-8.9371,-16.116
16254,-7.5152,-16.66
16266,-7.1954,-15.929
16277,-5.9498,-15.117
16289,-5.6007,-13.248
16301,-7.1369,-13.751
16313,-7.4012,-15.486
16324,-6.3073,-16.081
16336,-6.8067,-17.152
16348,-8.022,-13.675
16359,-8.051,-15.575
16371,-6.3672,-16.357
16383,-7.7047,-14.229
16395,-11.197,-16.227
16406,-9.7478,-17.054
16418,-7.7925,-15.533
16430,-6.7107,-16.704
16441,-6.5017,-15.623
16453,-10.626,-15.078
16465,-11.468,-15.42
16477,-11.816,-14.469
16488,-11.134,-14.592
16500,-10.329,-15.895
16512,-10.422,-14.974
16523,-13.894,-14.52
16535,-10.744,-12.999
16547,-10.417,-11.031
16559,-11.128,-16.989
16570,-11.129,-17.087
16582,-12.148,-15.788
16594,-10.3,-15.818
16605,-9.3345,-17.062
16617,-10.17,-16.951
16629,-7.8724,-16.46
16641,-8.8407,-15.618
16652,-8.8759,-15.126
16664,-7.7996,-16.812
16676,-9.0477,-15.936
16688,-11.589,-18.375
16699,-8.1606,-17.178
16711,-5.7366,-15.722
16723,-9.9275,-17.472
16734,-11.632,-17.895
16746,-10.463,-17.847
16758,-10.084,-19.019
16770,-8.6093,-20.619
16781,-9.2056,-15.677
16793,-10.791,-16.233
16805,-7.3256,-13.905
16816,-7.5277,-13.631
16828,-8.4828,-15.032
16840,-8.3476,-15.115
16852,-10.39,-15.453
16863,-10.89,-14.463
16875,-10.122,-14.982
16887,-11.012,-15.402
16898,-12.962,-17.648
16910,-11.737,-17.597
16922,-13.026,-13.794
16934,-15.51,-12.214
16945,-11.773,-14.658
16957,-10.724,-16.556
16969,-11.948,-12.674
16980,-9.2661,-13.924
16992,-10.321,-19.131
17004,-10.423,-15.551
17016,-8.864,-16.752
17027,-9.5628,-17.806
17039,-12.896,-19.108
17051,-11.282,-15.526
17063,-11.187,-14.858
17074,-10.54,-18.292
17086,-13.706,-15.652
17098,-15.123,-15.451
17109,-11.338,-14.455
17121,-11.858,-14.339
17133,-11.293,-14.495
17145,-9.9053,-17.993
17156,-9.0292,-19.248
17168,-9.9684,-15.897
17180,-8.8102,-15.046
17191,-7.7525,-15.633
17203,-7.4964,-16.53
17215,-12.992,-16.759
17227,-10.161,-18.867
17238,-10.175,-19.771
17250,-10.464,-19.537
17262,-10.458,-17.735
17273,-9.2397,-17.893
17285,-8.4004,-16.511
17297,-10.47,-14.785
17309,-10.302,-14.528
17320,-11.941,-16.849
17332,-12.917,-18.347
17344,-10.609,-19.934
17355,-9.4726,-16.091
17367,-7.21,-16.849
17379,-6.1576,-17.857
17391,-7.2077,-19.86
17402,-7.9324,-18.815
17414,-10.398,-19.895
17426,-12.542,-18.207
17438,-13.819,-16.071
17449,-9.8912,-17.382
17461,-10.77,-19.889
17473,-10.477,-19.612
17484,-12.557,-17.825
17496,-11.207,-16.956
17508,-11.403,-19.452
17520,-10.31,-18.098
17531,-9.4884,-16.695
17543,-10.077,-16.867
17555,-11.242,-16.859
17566,-8.619,-15.773
17578,-10.012,-16.866
17590,-11.192,-18.838
17602,-10.126,-19.454
17613,-11.884,-16.661
17625,-11.231,-13.456
17637,-10.673,-12.936
17648,-10.713,-16.083
17660,-10.914,-16.99
17672,-9.9461,-17.479
17684,-8.3286,-16.674
17695,-8.6368,-15.805
17707,-11.002,-14.929
17719,-11.527,-15.938
17730,-13.744,-17.361
17742,-13.289,-15.84
17754,-9.9506,-17.585
17766,-7.5945,-14.998
17777,-8.6203,-16.92
17789,-12.46,-18.402
17801,-10.476,-15.759
17813,-10.262,-16.474
17824,-11.991,-15.432
17836,-13.765,-15.396
17848,-13.658,-16.306
17859,-10.731,-16.604
17871,-10.612,-14.455
17883,-10.574,-17.238
17895,-10.748,-15.89
17906,-11.192,-16.208
17918,-10.796,-21.045
17930,-12.368,-15.868
17941,-15.709,-14.775
17953,-14.265,-16.592
17965,-11.44,-16.602
17977,-12.952,-13.567
17988,-10.01,-15.11
18000,-9.0038,-18.746
18012,-9.8029,-18.7
18023,-9.4958,-16.668
18035,-10.436,-14.815
18047,-15.236,-14.552
18059,-11.427,-14.225
18070,-11.915,-14.516
18082,-12.447,-17.011
18094,-11.801,-14.298
18105,-9.8019,-15.414
18117,-11.405,-15.659
18129,-11.84,-14.987
18141,-15.67,-15.655
18152,-12.68,-16.46
18164,-11.147,-15.173
18176,-10.153,-15.643
18188,-9.8175,-19.153
18199,-10.185,-18.886
18211,-12.147,-18.462
18223,-12.278,-21.188
18234,-12.388,-17.32
18246,-11.212,-16.581
18258,-11.759,-18.48
18270,-12.582,-20.146
18281,-14.014,-16.324
18293,-13.518,-17.146
18305,-8.4578,-16.809
18316,-8.9363,-16.215
18328,-13.998,-19.804
18340,-10.456,-14.869
18352,-9.0899,-14.649
18363,-9.3164,-15.806
18375,-11.227,-17.302
18387,-15.792,-16.978
18398,-15.64,-14.86
18410,-11.878,-14.969
18422,-10.159,-20.72
18434,-10.753,-17.323
18445,-11.681,-21.348
18457,-15.182,-18.843
18469,-12.971,-15.209
18480,-10.782,-15.175
18492,-11.357,-14.901
18504,-11.641,-15.788
18516,-13.048,-17.062
18527,-12.081,-18.446
18539,-11.382,-19.758
18551,-10.697,-16.224
18563,-11.579,-16.797
18574,-11.632,-17.551
18586,-12.416,-18.864
18598,-11.359,-18.529
18609,-13.664,-17.261
18621,-11.828,-18.524
18633,-9.8702,-19.871
18645,-10.917,-17.716
18656,-13.248,-18.876
18668,-10.654,-17.198
18680,-11.252,-17.819
18691,-12.106,-18.19
18703,-11.083,-17.397
18715,-10.807,-16.923
18727,-15.075,-17.686
18738,-12.671,-17.442
18750,-10.866,-17.741
18762,-8.1899,-20.03
18773,-10.241,-18.223
18785,-16.506,-16.122
18797,-17.424,-18.121
18809,-14.332,-17.96
18820,-12.102,-17.077
18832,-10.139,-15.805
18844,-11.931,-17.108
18855,-14.068,-16.012
18867,-14.03,-14.689
18879,-12.008,-19.862
18891,-10.595,-17.031
18902,-14.806,-16.174
18914,-14.936,-17.693
18926,-12.744,-22.263
18938,-12.565,-21.138
18949,-13.348,-20.722
18961,-12.194,-15.566
18973,-9.895,-14.428
18984,-9.6906,-15.602
18996,-12.026,-12.593
19008,-10.134,-13.331
19020,-9.1811,-15.687
19031,-9.8693,-16.09
19043,-10.038,-17.141
19055,-14.183,-16.371
19066,-13.857,-14.8
19078,-12.532,-14.687
19090,-12.258,-18.161
19102,-14.055,-14.953
19113,-12.818,-14.828
19125,-11.016,-17.011
19137,-11.709,-17.666
19148,-13.862,-16.959
19160,-14.945,-16.518
19172,-13.492,-18.451
19184,-12.762,-17.51
19195,-16.124,-18.636
19207,-14.092,-19.811
19219,-11.152,-20.635
19230,-10.121,-19.291
19242,-14.247,-19.87
19254,-12.654,-17.501
19266,-11.249,-15.121
19277,-10.874,-17.247
19289,-11.097,-18.973
19301,-12.913,-17.664
19313,-9.3945,-14.569
19324,-12.644,-16.932
19336,-10.251,-18.81
19348,-12.268,-18.662
19359,-10.183,-20.486
19371,-9.486,-19.935
19383,-11.646,-16.999
19395,-16.151,-16.098
19406,-14.116,-17.046
19418,-15.113,-19.519
19430,-16.411,-23.471
19441,-13.628,-22.787
19453,-12.063,-19.813
19465,-10.703,-18.259
19477,-12.596,-15.48
19488,-12.455,-14.228
19500,-12.512,-17.612
19512,-14.863,-18.222
19523,-14.535,-17.839
19535,-12.8,-18.127
19547,-12.818,-23.752
19559,-14.013,-18.929
19570,-13.361,-17.06
19582,-13.008,-16.912
19594,-16.59,-15.077
19605,-13.222,-16.105
19617,-10.787,-18.419
19629,-12.998,-20.956
19641,-16.321,-17.056
19652,-13.799,-14.27
19664,-10.694,-16.288
19676,-12.622,-17.022
19688,-14.324,-17.474
19699,-15.112,-18.69
19711,-16.035,-19.977
19723,-14.918,-22.529
19734,-17.13,-16.99
19746,-17.806,-18.212
19758,-17.542,-17.842
19770,-17.077,-16.457
19781,-15.846,-17.803
19793,-13.076,-20.262
19805,-12.686,-16.877
19816,-13.338,-18.376
19828,-12.498,-23.251
19840,-12.117,-22.816
19852,-12.953,-17.565
19863,-13.472,-15.907
19875,-12.304,-19.091
19887,-11.801,-18.332
19898,-13.961,-15.565
19910,-14.393,-17.719
19922,-15.072,-23.357
19934,-13.175,-22.386
19945,-11.614,-23.452
19957,-16.958,-20.946
19969,-15.629,-18.594
19980,-13.229,-16.834
19992,-14.615,-17.602
20004,-15.808,-16.446
20016,-17.13,-19.938
20027,-16.565,-15.987
20039,-14.991,-16.076
20051,-12.089,-15.548
20063,-13.584,-17.784
20074,-13.997,-18.502
20086,-14.145,-18.324
20098,-17.125,-20.291
20109,-16.778,-18.33
20121,-15.355,-17.478
20133,-16.081,-16.965
20145,-14.908,-16.734
20156,-15.198,-16.408
20168,-16.133,-16.399
20180,-15.757,-17.488
20191,-14.068,-17.927
20203,-12.951,-17.458
20215,-14.545,-16.947
20227,-14.963,-17.369
20238,-13.884,-17.96
20250,-10.955,-17.727
20262,-12.895,-21.367
20273,-14.269,-20.73
20285,-18.929,-21.169
20297,-14.677,-17.86
20309,-14.984,-17.934
20320,-14.214,-20.008
20332,-17.394,-18.198
20344,-19.239,-17.479
20355,-13.741,-16.527
20367,-10.705,-18.125
20379,-12.631,-20.315
20391,-16.157,-17.78
20402,-16.559,-16.909
20414,-17.006,-17.588
20426,-13.784,-21.774
20438,-14.114,-19.974
20449,-16.558,-15.957
20461,-14.95,-16.178
20473,-13.77,-17.569
20484,-14.646,-19.393
20496,-13.17,-16.371
20508,-11.709,-15.911
20520,-12.888,-23.054
20531,-12.938,-18.108
20543,-11.812,-17.772
20555,-14.168,-20.285
20566,-18.337,-18.811
20578,-17.248,-17.269
20590,-15.562,-19.277
20602,-15.469,-19.855
20613,-14.783,-20.933
20625,-13.352,-17.55
20637,-10.811,-17.746
20648,-14.236,-19.453
20660,-13.929,-15.74
20672,-15.608,-16.828
20684,-13.362,-18.797
20695,-16.291,-19.835
20707,-16.362,-20.129
20719,-16.266,-20.736
20730,-13.922,-21.34
20742,-13.496,-18.809
20754,-14.311,-19.531
20766,-16.477,-20.094
20777,-17.742,-19.456
20789,-15.962,-21.876
20801,-15.903,-17.984
20813,-18.305,-20.902
20824,-19.065,-16.69
20836,-15.943,-16.229
20848,-15.069,-17.965
20859,-16.309,-18.005
20871,-17.305,-18.785
20883,-18.061,-16.541
20895,-18.244,-15.875
20906,-16.297,-18.309
20918,-16.582,-18.426
20930,-13.165,-20.251
20941,-13.036,-18.86
20953,-10.416,-16.605
20965,-13.841,-17.285
20977,-16.642,-17.153
20988,-14.288,-16.825
21000,-12.482,-16.897
21012,-11.517,-17.503
21023,-11.838,-16.177
21035,-16.375,-16.913
21047,-16.094,-20.191
21059,-12.848,-20.36
21070,-15.73,-22.589
21082,-16.257,-19.658
21094,-14.352,-17.32
21105,-16.095,-16.533
21117,-14.09,-16.381
21129,-15.545,-15.463
21141,-19.069,-17.556
21152,-21.909,-21.946
21164,-18.633,-22.657
21176,-13.947,-19.524
21188,-15.642,-17.122
21199,-17.685,-16.1
21211,-13.673,-18.538
21223,-13.607,-19.828
21234,-13.937,-19.19
21246,-11.798,-21.373
21258,-12.606,-18.658
21270,-14.177,-17.059
21281,-15.513,-17.305
21293,-14.206,-20.475
21305,-13.258,-19.781
21316,-16.138,-18.999
21328,-16.303,-21.307
21340,-12.124,-20.556
21352,-14.058,-22.086
21363,-18.311,-21.088
21375,-16.122,-21.087
21387,-16.593,-20.268
21398,-14.93,-20.877
21410,-15.007,-20.171
21422,-14.398,-19.44
21434,-15.531,-18.799
21445,-19.787,-20.912
21457,-14.842,-18.536
21469,-15.012,-18.655
21480,-16.936,-22.292
21492,-16.798,-20.704
21504,-15.492,-19.017
21516,-13.495,-17.754
21527,-14.462,-19.433
21539,-14.482,-18.889
21551,-14.127,-18.403
21563,-12.701,-17.143
21574,-14.333,-18.728
21586,-14.782,-20.425
21598,-16.387,-18.699
21609,-14.575,-22.283
21621,-12.636,-20.128
21633,-13.514,-17.638
21645,-13.651,-22.481
21656,-16.75,-23.889
21668,-15.06,-19.281
21680,-15.795,-19.049
21691,-16.572,-18.83
21703,-14.649,-20.661
21715,-13.933,-20.083
21727,-18.005,-18.174
21738,-18.02,-17.925
21750,-18.039,-18.211
21762,-15.617,-20.625
21773,-16.694,-23.603
21785,-13.005,-24.725
21797,-13.093,-22.413
21809,-14.434,-21.294
21820,-17.999,-22.894
21832,-15.069,-20.077
21844,-17.697,-18.618
21855,-13.817,-18.796
21867,-12.442,-19.999
21879,-17,-19.636
21891,-15.264,-20.115
21902,-14.888,-20.278
21914,-14.591,-20.72
21926,-17.799,-17.467
21938,-19.501,-15.854
21949,-17.39,-17.502
21961,-15.569,-19.247
21973,-14.523,-20.817
21984,-15.201,-17.962
21996,-16.762,-15.094
22008,-15.406,-17.657
22020,-16.647,-23.602
22031,-16.765,-18.422
22043,-15.925,-16.195
22055,-16.055,-16.262
22066,-17.474,-20.926
22078,-14.842,-19.776
22090,-14.798,-21.245
22102,-13.384,-21.373
22113,-13.878,-18.628
22125,-17.997,-19.047
22137,-19.059,-19.465
22148,-18.189,-18.273
22160,-15.494,-19.532
22172,-14.783,-20.891
22184,-15.928,-19.954
22195,-16.751,-20.049
22207,-15.754,-22.506
22219,-15.363,-15.983
22230,-17.602,-17.324
22242,-18.927,-21.37
22254,-16.829,-19.063
22266,-18.829,-18.376
22277,-17.911,-19.808
22289,-18.509,-20.415
22301,-17.305,-19.302
22313,-17.378,-22.41
22324,-16.245,-19.754
22336,-15.397,-15.723
22348,-17.485,-19.703
22359,-18.512,-22.247
22371,-18.163,-21.233
22383,-17.357,-16.314
22395,-19.493,-15.327
22406,-22.138,-17.892
22418,-19.18,-23.6
22430,-17.334,-19.786
22441,-16.408,-21.976
22453,-18.388,-20.508
22465,-16.392,-19.719
22477,-14.63,-19.256
22488,-16.066,-19.767
22500,-18.8,-19.193
22512,-15.931,-19.496
22523,-16.099,-19.527
22535,-16.408,-18.76
22547,-14.061,-19.778
22559,-17.16,-21.516
22570,-18.118,-22.127
22582,-18.917,-18.993
22594,-21.658,-17.926
22605,-17.69,-18.048
22617,-15.449,-19.432
22629,-16.433,-26.295
22641,-18.24,-21.863
22652,-17.474,-20.231
22664,-17.834,-20.166
22676,-16.988,-18.545
22688,-15.025,-16.547
22699,-17.941,-18.037
22711,-20.497,-20.417
22723,-18.021,-22.542
22734,-17.735,-19.583
22746,-15.862,-20.671
22758,-14.191,-19.636
22770,-18.982,-18.359
22781,-21.376,-17.002
22793,-17.971,-17.52
22805,-15.9,-20.436
22816,-15.586,-20.962
22828,-15.041,-19.637
22840,-16.358,-21.445
22852,-17.269,-22.251
22863,-18.809,-21.904
22875,-16.725,-19.706
22887,-15.37,-18.136
22898,-14.963,-19.561
22910,-15.715,-19.941
22922,-20.453,-20.404
22934,-21.018,-20.058
22945,-19.189,-20.122
22957,-20.238,-20.989
22969,-18.384,-20.934
22980,-17.891,-21.93
22992,-16.859,-18.31
23004,-15.135,-15.674
23016,-18.771,-18.441
23027,-18.19,-18.844
23039,-19.056,-19.695
23051,-17.08,-18.735
23063,-14.267,-18.366
23074,-13.481,-18.539
23086,-13.761,-22.112
23098,-14.462,-20.839
23109,-19.551,-19.926
23121,-19.759,-19.92
23133,-17.176,-21.717
23145,-15.864,-19.739
23156,-17.102,-20.991
23168,-16.774,-19.589
23180,-16.186,-18.105
23191,-19.117,-17.547
23203,-16.787,-16.656
23215,-16.184,-17.529
23227,-16.177,-20.102
23238,-17.519,-19.46
23250,-17.677,-21.636
23262,-18.633,-20.226
23273,-16.545,-22.387
23285,-17.231,-23.733
23297,-16.755,-22.714
23309,-17.379,-20.309
23320,-19.584,-20.394
23332,-15.934,-20.868
23344,-16.375,-19.653
23355,-18.803,-19.648
23367,-20.361,-21.357
23379,-20.761,-23.291
23391,-18.404,-22.468
23402,-18.077,-24.898
23414,-17.161,-19.874
23426,-15.787,-17.067
23438,-16.855,-20.202
23449,-16.565,-22.374
23461,-16.904,-22.289
23473,-16.832,-22.35
23484,-16.593,-22.922
23496,-17.898,-21.742
23508,-17.474,-22.292
23520,-16.817,-23.019
23531,-16.006,-22.603
23543,-18.243,-21.24
23555,-18.075,-20.111
23566,-18.073,-18.944
23578,-18.934,-19.72
23590,-14.348,-19.919
23602,-13.499,-20.065
23613,-15.753,-20.609
23625,-18.411,-22.327
23637,-20.022,-20.616
23648,-15.861,-19.914
23660,-17.939,-20.669
23672,-18.315,-18.966
23684,-20.691,-18.864
23695,-17.598,-19.615
23707,-14.955,-20.581
23719,-14.93,-20.075
23730,-19.206,-20.365
23742,-19.142,-23.309
23754,-16.338,-20.889
23766,-15.227,-19.486
23777,-17.423,-22.487
23789,-18.969,-21.138
23801,-20.808,-21.448
23813,-19.369,-21.001
23824,-17.4,-20.116
23836,-20.165,-19.857
23848,-19.871,-18.449
23859,-16.781,-17.169
23871,-17.039,-18.757
23883,-16.123,-19.777
23895,-14.954,-21.13
23906,-16.239,-21.829
23918,-18.241,-21.438
23930,-19.585,-20.769
23941,-20.542,-20.494
23953,-22.147,-20.116
23965,-21.782,-19.338
23977,-18.466,-17.558
23988,-17.602,-17.008
