FFT,Power Spectrum
Frequency[Hz],Level-L[dB],Level-R[dB]
11.719,-24.043,-26.471
23.438,-3.644,-6.7375
35.156,-2.6468,-4.8077
46.875,2.4945,2.6288
58.594,2.3086,4.3772
70.313,-2.7728,3.4213
82.031,2.2998,3.751
93.75,7.8831,6.4258
105.47,8.7788,5.0194
117.19,7.6983,5.2322
128.91,10.444,10.021
140.63,13.699,11.087
152.34,8.9488,7.3245
164.06,3.3836,2.734
175.78,4.3525,-0.0019969
187.5,6.8748,1.8122
199.22,6.0057,3.7868
210.94,5.4401,5.0314
222.66,7.1115,7.2457
234.38,8.4871,5.452
246.09,8.2254,4.03
257.81,7.6519,6.0576
269.53,6.1597,5.9883
281.25,9.0892,4.6501
292.97,7.4319,6.2629
304.69,5.2042,5.0883
316.41,4.0914,1.3059
328.13,5.2238,0.317
339.84,4.2216,3.96
351.56,2.7393,6.5073
363.28,3.0901,4.658
375,3.3248,4.1791
386.72,4.2398,3.1982
398.44,6.3873,3.9632
410.16,5.6051,6.753
421.88,5.4039,6.2012
433.59,4.3794,5.2376
445.31,5.1622,4.4625
457.03,7.3063,1.6068
468.75,6.9412,4.6087
480.47,5.64,5.1447
492.19,5.3286,3.4573
503.91,4.6297,1.2085
515.63,7.1498,4.9358
527.34,7.7642,6.452
539.06,6.19,6.3054
550.78,5.8189,4.4914
562.5,6.59,6.8924
574.22,6.4927,5.513
585.94,5.9693,5.4208
597.66,8.485,2.0579
609.38,7.2894,2.5773
621.09,7.0978,3.7291
632.81,7.022,5.6195
644.53,3.8695,6.1093
656.25,1.8189,6.0995
667.97,4.3918,5.1186
679.69,7.6327,4.9227
691.41,6.9509,6.8011
703.13,5.184,6.4775
714.84,7.3283,5.4802
726.56,8.0761,6.8063
738.28,5.4547,4.5903
750,6.6469,4.591
761.72,8.1625,6.6001
773.44,6.9903,8.0643
785.16,6.5452,5.8105
796.88,6.9085,3.2644
808.59,3.0936,5.8866
820.31,0.99061,6.6889
832.03,2.3376,6.1735
843.75,4.9982,3.9743
855.47,4.7226,4.3226
867.19,3.5416,3.1338
878.91,4.1281,1.7811
890.63,6.0488,5.2639
902.34,8.1304,4.3522
914.06,8.8779,2.2441
925.78,5.933,4.5155
937.5,2.1897,6.1654
949.22,4.0342,8.3541
960.94,4.5918,6.919
972.66,6.114,3.1392
984.38,6.7458,2.7631
996.09,6.5708,3.6552
1007.8,6.4801,4.2388
1019.5,5.0167,2.0363
1031.3,4.6347,3.5505
1043,7.6503,4.4409
1054.7,6.8611,6.1254
1066.4,4.5455,6.2358
1078.1,5.6584,7.241
1089.8,3.1874,6.6106
1101.6,7.657,4.1016
1113.3,9.5694,7.0519
1125,5.9566,6.3051
1136.7,6.8793,0.69975
1148.4,6.5011,2.1373
1160.2,4.2243,2.5264
1171.9,4.5787,2.3986
1183.6,5.0861,4.209
1195.3,4.5784,4.783
1207,3.9279,4.984
1218.8,4.9367,5.0973
1230.5,5.7766,4.1559
1242.2,4.8823,5.6034
1253.9,3.5028,6.3193
1265.6,4.4303,5.0151
1277.3,5.3824,3.1105
1289.1,6.2992,-1.5779
1300.8,5.0556,-0.93674
1312.5,4.8601,3.2528
1324.2,4.0639,0.57142
1335.9,3.2803,2.5531
1347.7,4.853,3.2203
1359.4,4.8043,3.6626
1371.1,3.4955,3.3218
1382.8,1.6159,3.9262
1394.5,2.2852,1.8221
1406.3,4.7156,2.2169
1418,7.3729,4.8381
1429.7,6.809,3.1647
1441.4,5.5251,4.4758
1453.1,3.5603,7.7026
1464.8,6.5165,5.0356
1476.6,7.3029,3.3455
1488.3,3.1352,3.9048
1500,7.0578,2.675
1511.7,7.8035,2.2387
1523.4,6.0625,2.2595
1535.2,1.4735,3.0587
1546.9,1.5768,4.0846
1558.6,2.4121,1.5224
1570.3,3.6726,0.46474
1582,4.6976,1.2901
1593.8,3.5973,4.125
1605.5,3.4333,2.1517
1617.2,0.089393,2.1392
1628.9,2.2746,2.9798
1640.6,5.3804,3.0827
1652.3,5.9201,1.5625
1664.1,5.6571,2.1427
1675.8,2.3912,1.263
1687.5,4.1517,2.7251
1699.2,3.0251,4.8446
1710.9,4.4928,3.3522
1722.7,6.7764,3.6303
1734.4,9.3407,3.5302
1746.1,10.07,4.4707
1757.8,4.5225,5.5211
1769.5,-0.90322,1.4422
1781.3,3.477,0.67179
1793,4.6599,2.7505
1804.7,3.9694,3.704
1816.4,2.7703,3.6433
1828.1,2.4778,2.8949
1839.8,2.7987,2.0852
1851.6,2.0692,0.59152
1863.3,2.3231,3.3207
1875,3.9141,3.8279
1886.7,4.572,3.8732
1898.4,4.2176,2.5578
1910.2,4.4245,4.0768
1921.9,6.4627,6.7697
1933.6,8.0685,6.523
1945.3,1.9771,4.2347
1957,1.0216,4.5487
1968.8,2.8511,1.3233
1980.5,3.4178,-1.2079
1992.2,3.8434,1.9981
2003.9,8.1591,3.2808
2015.6,8.2793,6.7894
2027.3,8.5826,8.7407
2039.1,4.839,7.3647
2050.8,1.167,4.6251
2062.5,3.8021,5.0936
2074.2,4.9697,5.1367
2085.9,6.0054,4.2249
2097.7,2.7886,-0.018127
2109.4,-1.6323,2.5365
2121.1,0.27371,3.4871
2132.8,0.67817,-1.0309
2144.5,1.9062,-1.4211
2156.3,3.3503,-0.97
2168,4.3331,3.4854
2179.7,4.5017,5.0125
2191.4,3.803,3.494
2203.1,3.7278,1.577
2214.8,5.1041,2.5482
2226.6,3.3877,0.61348
2238.3,2.333,3.447
2250,4.9452,5.3816
2261.7,3.3576,1.6789
2273.4,4.0891,-0.62129
2285.2,3.6709,2.7114
2296.9,1.7641,2.4288
2308.6,-0.12181,1.1655
2320.3,4.8972,0.9512
2332,5.7079,1.2289
2343.8,5.8501,1.5452
2355.5,2.8941,-1.4336
2367.2,0.47532,-0.15025
2378.9,-0.62479,4.1739
2390.6,0.8068,4.4856
2402.3,3.3261,3.4931
2414.1,3.7365,2.2345
2425.8,6.6699,4.4552
2437.5,4.0355,1.8535
2449.2,0.681,-0.56409
2460.9,2.9133,0.89429
2472.7,2.6081,1.4246
2484.4,0.67894,1.6009
2496.1,-0.58613,1.7146
2507.8,-0.1912,2.3661
2519.5,-0.52289,3.8227
2531.3,0.76322,2.7331
2543,2.4846,0.38876
2554.7,1.3404,1.1869
2566.4,0.3096,1.0406
2578.1,2.5641,0.48991
2589.8,1.7483,2.5881
2601.6,-0.047363,2.4249
2613.3,4.6738,2.8955
2625,5.2342,0.63997
2636.7,2.9193,-0.72808
2648.4,0.86605,0.96279
2660.2,1.422,-0.44638
2671.9,2.8464,-1.0224
2683.6,2.4268,1.2226
2695.3,1.1521,0.75032
2707,2.1041,-1.3826
2718.8,0.36401,-0.39326
2730.5,-0.72442,2.4284
2742.2,-0.5573,2.9586
2753.9,2.597,4.9757
2765.6,4.4877,1.7691
2777.3,4.0572,0.59788
2789.1,2.501,2.2076
2800.8,3.4886,3.8023
2812.5,2.3199,2.4877
2824.2,0.99384,1.2924
2835.9,1.4681,-2.6218
2847.7,2.1227,-2.359
2859.4,1.0042,2.16
2871.1,2.6654,3.1817
2882.8,0.66364,1.627
2894.5,1.791,0.97515
2906.3,3.8488,0.071913
2918,1.5876,-0.57555
2929.7,0.18877,2.7085
2941.4,3.0824,0.91191
2953.1,3.3087,0.83246
2964.8,-4.1972,1.2883
2976.6,-1.7418,2.0463
2988.3,1.1681,2.6413
3000,1.2881,1.6202
3011.7,2.8313,-0.13955
3023.4,0.60573,2.2695
3035.2,-0.38058,2.6191
3046.9,1.1501,-1.5092
3058.6,0.88678,-2.458
3070.3,2.5678,0.35239
3082,1.2776,0.41923
3093.8,-1.2886,-0.87388
3105.5,0.50734,-1.1421
3117.2,0.66075,-0.25781
3128.9,1.917,-1.337
3140.6,-0.6907,-2.4055
3152.3,-2.3222,-0.026639
3164.1,1.5965,2.4238
3175.8,3.0614,1.4634
3187.5,1.1806,0.57123
3199.2,0.19471,-0.09745
3210.9,1.2538,-1.9586
3222.7,1.8547,-2.4607
3234.4,0.93131,-3.5928
3246.1,-2.6544,-3.3097
3257.8,-3.7675,-2.5256
3269.5,-3.849,-1.2177
3281.3,-1.2158,0.20977
3293,2.3687,1.5709
3304.7,-0.74748,-0.53293
3316.4,-0.51178,-0.067596
3328.1,-0.54503,0.98635
3339.8,0.59862,2.1027
3351.6,0.26116,0.080038
3363.3,-2.0269,-0.29474
3375,-2.4097,-2.7869
3386.7,-0.81898,-0.5863
3398.4,-0.031177,0.64932
3410.2,-0.49004,1.8132
3421.9,-0.64648,-1.3176
3433.6,-0.30698,-3.3085
3445.3,-1.9263,0.36783
3457,-2.0252,2.1394
3468.8,-0.65457,-0.31379
3480.5,-0.28971,0.050409
3492.2,-3.1119,1.5881
3503.9,-3.5848,-0.24295
3515.6,-3.4468,-0.23753
3527.3,-2.8355,-0.24075
3539.1,-2.5893,-0.97314
3550.8,-5.0244,-2.7396
3562.5,-0.39338,-1.333
3574.2,-1.3817,0.43932
3585.9,0.61874,-2.6709
3597.7,1.97,-4.9101
3609.4,1.4665,-3.5115
3621.1,1.7294,-2.7562
3632.8,4.5442,-3.3385
3644.5,7.2278,-3.048
3656.3,12.054,-2.8877
3668,22.554,-2.2126
3679.7,47.71,22.816
3691.4,54.8,29.836
3703.1,49.892,25.014
3714.8,24.636,3.7187
3726.6,13.831,-0.46105
3738.3,7.6334,-0.63152
3750,6.9011,-1.5435
3761.7,2.9379,-0.015763
3773.4,-1.5859,1.4605
3785.2,2.0924,1.2534
3796.9,0.43875,0.82196
3808.6,-1.8309,-1.2427
3820.3,-1.4682,-0.42091
3832,-0.11186,-0.2735
3843.8,0.16418,-0.028222
3855.5,0.37621,0.02415
3867.2,-0.74759,-0.65608
3878.9,-2.6438,-0.44672
3890.6,-1.472,-1.5197
3902.3,-0.94073,-1.2642
3914.1,-0.84377,0.22787
3925.8,-1.3756,-0.71334
3937.5,-2.4735,-0.63097
3949.2,-5.0213,0.32288
3960.9,-3.3865,-0.42489
3972.7,-1.6129,-2.9113
3984.4,-5.5449,-2.7847
3996.1,-4.8156,-2.2793
4007.8,-1.308,-1.0345
4019.5,-1.7594,-0.44793
4031.3,-3.7276,-0.17332
4043,-0.87123,-4.877
4054.7,-2.318,-2.2152
4066.4,-4.3699,-1.1479
4078.1,-1.7802,-2.1443
4089.8,-0.96041,-2.9497
4101.6,-0.41808,-2.4398
4113.3,-1.1015,-4.9902
4125,-1.4963,-4.2242
4136.7,-2.9609,-1.7603
4148.4,-3.7354,-0.99028
4160.2,-1.6016,0.89542
4171.9,-1.5817,1.0541
4183.6,-3.6386,-3.0875
4195.3,-3.2811,-2.9142
4207,-3.0452,-1.1613
4218.8,-5.0252,-0.29519
4230.5,-3.1743,-3.9337
4242.2,-3.3201,-3.6504
4253.9,-2.5929,-3.091
4265.6,-3.9489,-3.1091
4277.3,-3.6202,-5.3949
4289.1,-1.0752,-4.3777
4300.8,-0.85324,-3.085
4312.5,-2.7006,-0.17992
4324.2,-2.1302,-2.8731
4335.9,-2.6434,-4.8392
4347.7,-3.2015,-2.1644
4359.4,-5.3183,-1.737
4371.1,-3.4587,-1.9592
4382.8,0.029694,-1.8749
4394.5,-2.733,-3.5219
4406.3,-2.0367,-3.239
4418,-5.2189,-2.2246
4429.7,-4.1859,-0.13445
4441.4,-3.3422,-1.0261
4453.1,-7.3859,-3.9868
4464.8,-3.525,-3.646
4476.6,-2.4722,-4.2163
4488.3,-4.9806,-2.6012
4500,-2.7254,-1.8799
4511.7,-1.8654,-5.1847
4523.4,-4.4606,-4.9557
4535.2,-5.0651,-5.1019
4546.9,-4.7817,-6.7425
4558.6,-2.4053,-6.7269
4570.3,-4.7504,-6.2227
4582,-3.9479,-5.1348
4593.8,-1.8668,-7.1009
4605.5,-0.18454,-5.2198
4617.2,-2.3819,-2.3811
4628.9,-4.3252,-2.2815
4640.6,-2.1642,-3.1154
4652.3,-1.5169,-5.7063
4664.1,-2.8913,-1.6706
4675.8,-3.6168,-3.7327
4687.5,-4.2996,-2.5907
4699.2,-5.0854,-3.2242
4710.9,-3.0833,-3.3802
4722.7,-6.7305,-3.7382
4734.4,-3.3917,-4.15
4746.1,-4.0398,-5.3171
4757.8,-6.1482,-2.8106
4769.5,-3.2209,-3.3661
4781.3,-5.8586,-3.8966
4793,-3.2214,-3.0482
4804.7,-2.6854,-5.8993
4816.4,-6.9672,-5.3259
4828.1,-5.6877,-5.2534
4839.8,-3.9639,-5.4192
4851.6,-4.1376,-5.1236
4863.3,-5.7272,-3.0673
4875,-4.0241,-2.3165
4886.7,-2.5574,-2.5549
4898.4,-1.5136,-2.3168
4910.2,-3.9462,-0.80314
4921.9,-2.8848,-0.80203
4933.6,-1.8352,-4.0756
4945.3,-3.471,-3.138
4957,-5.3508,-3.7291
4968.8,-4.4172,-6.1184
4980.5,-3.7385,-6.2853
4992.2,-2.0418,-6.8956
5003.9,-1.1515,-7.6439
5015.6,-0.20847,-8.3805
5027.3,1.1713,-4.9353
5039.1,-2.3313,-2.1614
5050.8,-4.7848,-4.0007
5062.5,-3.1992,-3.5998
5074.2,-1.7072,-4.1345
5085.9,-3.0134,-5.1547
5097.7,-3.3676,-4.7878
5109.4,-4.8022,-2.6367
5121.1,-5.3225,-1.4998
5132.8,-5.3016,-1.7196
5144.5,-5.5526,-3.4745
5156.3,-4.7783,-4.7199
5168,-4.753,-7.7644
5179.7,-4.6056,-4.9968
5191.4,-5.4531,-0.94202
5203.1,-8.333,-3.8133
5214.8,-5.6279,-3.7396
5226.6,-4.8173,-2.2325
5238.3,-5.6072,-3.1062
5250,-2.8979,-3.0304
5261.7,-2.4527,-5.884
5273.4,-2.2798,-5.9001
5285.2,-2.0206,-5.0915
5296.9,-4.5593,-3.6728
5308.6,-6.9571,-5.0882
5320.3,-5.3816,-3.7444
5332,-6.1582,-2.9333
5343.8,-4.9719,-4.4913
5355.5,-4.4103,-5.9182
5367.2,-6.8202,-4.5633
5378.9,-6.9324,-6.2808
5390.6,-5.568,-9.4556
5402.3,-3.8945,-6.4936
5414.1,-3.5479,-3.1416
5425.8,-5.4513,-1.6579
5437.5,-4.5778,-1.8911
5449.2,-6.1016,-2.7851
5460.9,-6.3647,-6.8448
5472.7,-5.5321,-7.0802
5484.4,-5.0081,-6.6203
5496.1,-5.3974,-5.5851
5507.8,-5.3916,-8.3803
5519.5,-4.5868,-7.547
5531.3,-3.4054,-7.768
5543,-4.232,-5.3199
5554.7,-7.7629,-6.4737
5566.4,-7.1059,-4.2562
5578.1,-4.9845,-3.0412
5589.8,-4.311,-2.4113
5601.6,-4.9522,-4.0899
5613.3,-7.2497,-4.2822
5625,-6.9523,-1.0859
5636.7,-7.3817,-2.6046
5648.4,-4.2382,-3.8245
5660.2,-2.6184,-3.0742
5671.9,-4.7004,-5.5904
5683.6,-1.5926,-6.3403
5695.3,-3.0241,-4.8968
5707,-4.6919,-6.1436
5718.8,-5.1951,-5.4525
5730.5,-6.4754,-6.749
5742.2,-8.4083,-5.0087
5753.9,-2.6236,-5.9893
5765.6,-2.332,-5.8157
5777.3,-4.8992,-5.0865
5789.1,-4.3002,-4.9021
5800.8,-7.9065,-4.6838
5812.5,-7.0179,-5.9118
5824.2,-4.0389,-6.2849
5835.9,-5.0986,-5.7411
5847.7,-5.8416,-4.7695
5859.4,-4.6513,-5.5672
5871.1,-2.6452,-7.6193
5882.8,-2.6124,-9.5889
5894.5,-7.0059,-9.5087
5906.3,-6.42,-9.2858
5918,-5.8911,-8.0311
5929.7,-6.9733,-4.9814
5941.4,-8.4455,-5.255
5953.1,-9.2105,-5.4595
5964.8,-7.8318,-2.9788
5976.6,-5.9269,-3.8771
5988.3,-5.8332,-6.355
6000,-6.8187,-4.5689
6011.7,-6.1179,-7.259
6023.4,-5.1301,-9.4123
6035.2,-7.5844,-5.8474
6046.9,-5.9126,-6.0141
6058.6,-5.8963,-5.9605
6070.3,-6.0063,-4.5155
6082,-4.2377,-6.2992
6093.8,-5.7311,-7.1096
6105.5,-10.915,-3.1487
6117.2,-7.1888,-7.5329
6128.9,-5.6145,-6.1764
6140.6,-6.5542,-7.8941
6152.3,-7.973,-7.7465
6164.1,-8.3492,-4.3849
6175.8,-6.4688,-4.0919
6187.5,-4.6889,-4.8631
6199.2,-3.6995,-7.9563
6210.9,-5.7488,-7.6933
6222.7,-6.0038,-4.1612
6234.4,-4.9951,-3.6822
6246.1,-3.4205,-4.886
6257.8,-2.6676,-6.9482
6269.5,-7.7992,-6.3402
6281.3,-6.1559,-6.2132
6293,-6.4434,-8.9116
6304.7,-4.0413,-6.5716
6316.4,-4.4409,-6.8298
6328.1,-5.8914,-8.3221
6339.8,-8.5524,-5.4135
6351.6,-9.2768,-7.1748
6363.3,-8.0245,-5.9865
6375,-7.7099,-7.7361
6386.7,-7.4471,-9.599
6398.4,-5.5415,-6.6169
6410.2,-4.9052,-7.5997
6421.9,-4.9805,-8.0805
6433.6,-4.7696,-5.8737
6445.3,-6.9552,-5.0072
6457,-7.1244,-6.5274
6468.8,-6.7061,-8.0978
6480.5,-5.2382,-8.6202
6492.2,-7.3302,-6.8461
6503.9,-7.7011,-3.2793
6515.6,-8.0536,-4.2958
6527.3,-6.3328,-7.3983
6539.1,-6.756,-5.7744
6550.8,-8.1547,-3.0197
6562.5,-7.3095,-1.8389
6574.2,-7.5575,-2.5096
6585.9,-7.2925,-4.8302
6597.7,-4.0255,-8.021
6609.4,-7.2038,-8.9822
6621.1,-7.0766,-8.0099
6632.8,-5.8371,-7.0712
6644.5,-5.3002,-7.7699
6656.3,-7.4239,-9.5871
6668,-5.9949,-10.328
6679.7,-4.9123,-9.9368
6691.4,-6.8239,-7.9294
6703.1,-8.3601,-7.2937
6714.8,-8.9603,-6.2746
6726.6,-7.9281,-7.8728
6738.3,-9.4312,-8.3871
6750,-8.6653,-10.397
6761.7,-7.3117,-8.291
6773.4,-6.8088,-8.8298
6785.2,-7.0641,-8.343
6796.9,-8.2172,-9.043
6808.6,-6.0328,-5.9829
6820.3,-5.2499,-4.1664
6832,-8.2197,-6.9976
6843.8,-10.078,-8.0444
6855.5,-9.529,-6.2616
6867.2,-8.5642,-4.1272
6878.9,-6.5256,-4.9731
6890.6,-5.8579,-7.2117
6902.3,-7.4253,-6.953
6914.1,-8.2745,-6.8046
6925.8,-6.8862,-9.2093
6937.5,-6.8199,-12.211
6949.2,-3.4031,-12.19
6960.9,-4.4817,-8.8879
6972.7,-8.8379,-7.5616
6984.4,-9.0861,-6.6845
6996.1,-9.9302,-6.8638
7007.8,-9.9044,-7.9097
7019.5,-10.41,-7.7911
7031.3,-11.392,-8.0441
7043,-6.2794,-9.8785
7054.7,-5.0829,-7.5346
7066.4,-5.8105,-8.8896
7078.1,-5.9578,-6.8729
7089.8,-7.3151,-6.6022
7101.6,-7.6041,-7.4794
7113.3,-7.0003,-11.265
7125,-3.8903,-7.1951
7136.7,-1.8089,-11.742
7148.4,-4.8907,-7.9093
7160.2,-8.7923,-6.1678
7171.9,-8.5692,-5.9455
7183.6,-8.1782,-8.2615
7195.3,-7.1771,-9.0566
7207,-7.1651,-9.2096
7218.8,-10.478,-8.242
7230.5,-7.0135,-8.7016
7242.2,-4.5084,-9.9611
7253.9,-8.3138,-10.286
7265.6,-7.1304,-8.895
7277.3,-8.7548,-9.6179
7289.1,-10.428,-7.8836
7300.8,-12.128,-7.3698
7312.5,-13.533,-9.1399
7324.2,-9.6095,-7.0585
7335.9,-6.5017,-6.2908
7347.7,-5.1139,-6.2393
7359.4,-8.075,-8.3379
7371.1,-9.3933,-8.8863
7382.8,-4.4544,-8.3955
7394.5,-4.0642,-7.5325
7406.3,-7.2007,-8.9194
7418,-8.7118,-10.342
7429.7,-8.677,-9.825
7441.4,-9.0323,-8.9764
7453.1,-6.4423,-4.7446
7464.8,-5.0494,-6.3709
7476.6,-7.6979,-9.5898
7488.3,-6.0851,-7.7485
7500,-6.2308,-6.2558
7511.7,-8.0816,-10.598
7523.4,-9.436,-9.8879
7535.2,-5.8208,-7.4747
7546.9,-6.0261,-7.8524
7558.6,-2.7287,-7.6565
7570.3,-6.1212,-6.7724
7582,-7.3609,-7.9459
7593.8,-4.4896,-9.1608
7605.5,-5.2794,-10.865
7617.2,-8.2398,-9.9872
7628.9,-8.4856,-7.0587
7640.6,-8.7507,-8.1881
7652.3,-8.093,-7.4704
7664.1,-9.2619,-9.3286
7675.8,-10.235,-10.491
7687.5,-9.0117,-10.18
7699.2,-10.483,-9.4407
7710.9,-11.464,-8.326
7722.7,-11.833,-6.5723
7734.4,-9.0566,-6.6555
7746.1,-8.2658,-6.921
7757.8,-9.0091,-8.4427
7769.5,-7.5861,-8.2234
7781.3,-6.685,-8.9658
7793,-7.1684,-7.134
7804.7,-8.0352,-8.9276
7816.4,-7.9902,-9.3628
7828.1,-5.8094,-8.2015
7839.8,-5.7137,-7.6786
7851.6,-6.5579,-7.424
7863.3,-8.4427,-13.241
7875,-9.0185,-8.0045
7886.7,-8.6074,-8.8779
7898.4,-9.9835,-10.769
7910.2,-11.301,-11.272
7921.9,-6.1332,-10.483
7933.6,-7.5627,-9.831
7945.3,-9.0037,-9.0364
7957,-6.865,-10.82
7968.8,-7.3428,-9.324
7980.5,-7.1983,-9.159
7992.2,-5.8635,-8.2365
8003.9,-6.5542,-8.2471
8015.6,-11.074,-10.27
8027.3,-8.173,-10.985
8039.1,-7.573,-11.141
8050.8,-7.914,-10.044
8062.5,-5.2917,-11.476
8074.2,-8.7375,-12.753
8085.9,-7.1235,-10.878
8097.7,-6.8004,-11.278
8109.4,-8.6409,-9.6987
8121.1,-7.0077,-8.9068
8132.8,-5.5541,-9.0453
8144.5,-6.9084,-11.023
8156.3,-9.3025,-13.186
8168,-8.3197,-11.278
8179.7,-8.9406,-8.2947
8191.4,-8.7913,-7.7488
8203.1,-8.2108,-10.17
8214.8,-13.247,-10.045
8226.6,-13.778,-9.95
8238.3,-12.139,-9.1645
8250,-10.315,-11.588
8261.7,-10.015,-12.373
8273.4,-11.772,-9.0796
8285.2,-8.3852,-8.7752
8296.9,-9.4171,-8.0141
8308.6,-10.669,-7.5192
8320.3,-10.628,-12.103
8332,-8.6265,-12.85
8343.8,-9.974,-9.7987
8355.5,-8.9682,-10.063
8367.2,-8.671,-13.247
8378.9,-7.882,-12.094
8390.6,-8.7347,-14.6
8402.3,-10.061,-13.226
8414.1,-10.703,-12.841
8425.8,-9.7353,-11.027
8437.5,-9.2013,-9.7055
8449.2,-8.1218,-9.46
8460.9,-9.6352,-8.2282
8472.7,-9.7095,-7.0344
8484.4,-12.144,-12.14
8496.1,-12.933,-13.052
8507.8,-9.9485,-9.694
8519.5,-10.883,-9.9787
8531.3,-8.3589,-8.3034
8543,-9.042,-8.7385
8554.7,-9.3027,-6.3318
8566.4,-8.8555,-7.9875
8578.1,-10.803,-10.711
8589.8,-10.057,-7.539
8601.6,-7.3564,-10.334
8613.3,-9.2851,-11.602
8625,-11.925,-12.141
8636.7,-10.96,-8.7972
8648.4,-11.124,-11.337
8660.2,-9.3852,-11.623
8671.9,-9.1516,-10.08
8683.6,-13.19,-10.933
8695.3,-9.2494,-10.443
8707,-11.67,-10.04
8718.8,-11.46,-12.149
8730.5,-11.592,-10.557
8742.2,-10.409,-9.8485
8753.9,-9.2595,-10.636
8765.6,-9.1365,-7.8439
8777.3,-14.581,-7.6798
8789.1,-10.14,-8.6741
8800.8,-12.404,-12.695
8812.5,-10.58,-13.007
8824.2,-11.714,-10.628
8835.9,-10.582,-10.666
8847.7,-11.047,-10.954
8859.4,-11.933,-12.83
8871.1,-10.112,-12.499
8882.8,-7.4923,-11.696
8894.5,-11.688,-12.524
8906.3,-11.358,-10.898
8918,-11.128,-10.639
8929.7,-12.025,-9.6155
8941.4,-8.6919,-6.9833
8953.1,-9.5273,-6.8598
8964.8,-10.551,-6.9736
8976.6,-12.185,-7.6269
8988.3,-9.8669,-8.1895
9000,-10.141,-8.5701
9011.7,-12.827,-7.7464
9023.4,-11.829,-11.469
9035.2,-9.2833,-14.281
9046.9,-8.1324,-13.494
9058.6,-12.173,-11.934
9070.3,-13.832,-12.624
9082,-11.666,-13.07
9093.8,-11.7,-15.367
9105.5,-10.823,-9.3992
9117.2,-12.212,-9.5624
9128.9,-8.82,-9.9232
9140.6,-10.484,-9.2168
9152.3,-10.351,-10.406
9164.1,-12.592,-12.581
9175.8,-9.8973,-12.981
9187.5,-9.7228,-13.202
9199.2,-10.985,-12.377
9210.9,-9.6468,-10.048
9222.7,-8.4058,-9.4283
9234.4,-11.205,-12.488
9246.1,-12.806,-12.413
9257.8,-9.2946,-11.477
9269.5,-7.5993,-13.36
9281.3,-9.0506,-13.064
9293,-8.9654,-10.857
9304.7,-11.56,-12.769
9316.4,-11.876,-11.89
9328.1,-12.082,-11.676
9339.8,-9.8631,-10.834
9351.6,-8.7555,-10.964
9363.3,-8.9479,-11.545
9375,-10.321,-11.191
9386.7,-10.581,-10.545
9398.4,-9.7895,-12.092
9410.2,-9.2503,-12.622
9421.9,-8.5788,-13.654
9433.6,-9.4455,-13.326
9445.3,-10.329,-14.369
9457,-13.166,-10.324
9468.8,-9.7608,-7.2183
9480.5,-11.245,-9.4262
9492.2,-9.3936,-9.7374
9503.9,-9.9143,-10.197
9515.6,-11.784,-10.315
9527.3,-13.229,-12.735
9539.1,-16.152,-12.27
9550.8,-12.051,-10.203
9562.5,-12.14,-10.099
9574.2,-13.238,-12.044
9585.9,-10.021,-14.054
9597.7,-8.1286,-13.189
9609.4,-9.6669,-12.212
9621.1,-10.91,-12.517
9632.8,-12.011,-14.776
9644.5,-13.128,-15.676
9656.3,-11.761,-10.304
9668,-11.113,-9.4941
9679.7,-12.404,-12.207
9691.4,-14.395,-10.625
9703.1,-14.435,-12.775
9714.8,-13.657,-13.573
9726.6,-12.94,-11.679
9738.3,-12.291,-10.493
9750,-10.847,-11.815
9761.7,-10.549,-14.933
9773.4,-10.009,-16.05
9785.2,-11.571,-11.899
9796.9,-12.517,-11.284
9808.6,-10.358,-11.788
9820.3,-11.154,-12.715
9832,-11.84,-11.17
9843.8,-13.133,-11.066
9855.5,-11.662,-10.115
9867.2,-12.646,-9.814
9878.9,-12.809,-12.092
9890.6,-12.386,-13.552
9902.3,-10.268,-12.266
9914.1,-9.2187,-12.566
9925.8,-8.4043,-10.623
9937.5,-8.1675,-11.265
9949.2,-8.8546,-11.91
9960.9,-10.204,-12.148
9972.7,-12.247,-9.812
9984.4,-12.937,-10.119
9996.1,-9.2952,-12.193
10008,-9.0191,-11.42
10020,-9.7773,-9.6338
10031,-11.398,-14.603
10043,-10.677,-11.884
10055,-13.099,-12.066
10066,-13.295,-9.8318
10078,-12.945,-11.831
10090,-12.727,-16.428
10102,-10.589,-14.446
10113,-9.4341,-10.335
10125,-15.529,-11.502
10137,-13.685,-13.232
10148,-12.483,-13.128
10160,-11.76,-11.681
10172,-9.6347,-12.082
10184,-9.8976,-11.246
10195,-12.223,-11.634
10207,-12.251,-12.295
10219,-11.5,-14.891
10230,-11.596,-15.112
10242,-9.8249,-12.881
10254,-12.972,-12.62
10266,-12.052,-13.181
10277,-13.631,-14.095
10289,-12.211,-10.674
10301,-10.544,-10.798
10313,-11.182,-12.041
10324,-14.622,-11.533
10336,-10.776,-14.015
10348,-12.618,-12.157
10359,-10.808,-12.655
10371,-10.315,-13.447
10383,-11.611,-13.509
10395,-11.512,-15.519
10406,-12.103,-13.595
10418,-12.588,-14.514
10430,-12.232,-14.354
10441,-10.398,-11.645
10453,-10.869,-11.4
10465,-10.834,-10.333
10477,-12.252,-10.179
10488,-13.621,-9.2618
10500,-13.216,-10.262
10512,-8.767,-12.873
10523,-10.205,-15.641
10535,-11.393,-12.932
10547,-11.63,-10.865
10559,-13.44,-12.085
10570,-12.863,-13.961
10582,-11.808,-12.277
10594,-11.849,-13.59
10605,-11.116,-12.966
10617,-11.045,-13.326
10629,-12.726,-11.587
10641,-10.39,-11.42
10652,-10.692,-14.858
10664,-13.946,-13.2
10676,-12.979,-15.067
10688,-11.013,-12.955
10699,-10.885,-13.759
10711,-11.442,-15.127
10723,-10.727,-13.677
10734,-8.6837,-12.139
10746,-10.606,-13.886
10758,-11.095,-15.849
10770,-13.367,-15.62
10781,-11.319,-12.994
10793,-13.088,-10.561
10805,-12.703,-11.41
10816,-13.167,-12.571
10828,-13.563,-11.749
10840,-10.419,-11.318
10852,-8.5478,-13.532
10863,-13.241,-13.745
10875,-13.551,-14.102
10887,-11.671,-11.565
10898,-9.8432,-10.097
10910,-9.8731,-14.564
10922,-12.42,-15.688
10934,-12.795,-17.547
10945,-10.595,-15.098
10957,-12.625,-13.084
10969,-14.205,-12.833
10980,-13.678,-10.983
10992,-14.107,-11.336
11004,-14.784,-14.427
11016,-13.825,-14.992
11027,-13.2,-17.402
11039,-10.201,-10.62
11051,-7.7106,-9.8839
11063,-3.2722,-15.704
11074,3.5428,-13.406
11086,0.87141,-12.913
11098,-8.9787,-14.707
11109,-9.7478,-12.395
11121,-9.5456,-10.052
11133,-12.302,-11.371
11145,-13.484,-13.622
11156,-11.462,-12.261
11168,-11.354,-11.238
11180,-11.323,-16.233
11191,-10.427,-17.352
11203,-10.497,-16.249
11215,-14.897,-15.162
11227,-11.479,-16.045
11238,-9.7501,-15.25
11250,-10.131,-15.252
11262,-12.819,-16.072
11273,-14.749,-14.34
11285,-13.785,-13.572
11297,-13.872,-13.086
11309,-13.053,-12.08
11320,-12.016,-12.87
11332,-11.465,-13.948
11344,-9.0423,-13.019
11355,-9.3297,-10.783
11367,-10.503,-10.962
11379,-12.351,-10.971
11391,-12.719,-13.82
11402,-12.745,-15.72
11414,-12.798,-12.902
11426,-12.015,-11.715
11438,-10.616,-14.642
11449,-10.489,-10.993
11461,-10.279,-11.767
11473,-13.583,-17.019
11484,-12.644,-16.206
11496,-13.166,-13.382
11508,-12.685,-14.403
11520,-11.422,-14.66
11531,-12.653,-14.442
11543,-12.369,-15.385
11555,-12.164,-14.973
11566,-8.6591,-14.825
11578,-9.9599,-12.921
11590,-11.58,-14.008
11602,-11.928,-12.153
11613,-15.322,-10.478
11625,-11.868,-14.933
11637,-12.769,-18.337
11648,-12.699,-16.529
11660,-11.298,-12.979
11672,-12.031,-14.073
11684,-11.972,-17.178
11695,-13.196,-16.115
11707,-12.646,-13.924
11719,-10.332,-14.703
11730,-11.41,-15.611
11742,-14.293,-13.113
11754,-12.724,-15.048
11766,-10.703,-12.581
11777,-11.898,-11.141
11789,-12.358,-12.929
11801,-10.593,-13.651
11813,-9.924,-13.654
11824,-11.281,-14.113
11836,-14.457,-14.068
11848,-12.446,-15.278
11859,-12.589,-16.314
11871,-11.94,-13.831
11883,-10.786,-13.603
11895,-10.46,-10.75
11906,-9.9982,-13.416
11918,-10.278,-13.281
11930,-9.1554,-14.186
11941,-10.558,-12.739
11953,-16.654,-13.1
11965,-11.72,-13.291
11977,-11.635,-15.097
11988,-11.697,-16.693
12000,-11.585,-17.291
12012,-12.359,-13.603
12023,-14.34,-11.74
12035,-10.527,-12.251
12047,-10.322,-12.948
12059,-12.588,-13.018
12070,-11.027,-15.423
12082,-9.9495,-14.473
12094,-8.4122,-17.158
12105,-10.847,-18.595
12117,-11.813,-16.905
12129,-12.389,-15.251
12141,-12.367,-14.239
12152,-13.994,-17.455
12164,-15.678,-14.657
12176,-12.485,-13.901
12188,-9.2984,-16.052
12199,-10.965,-14.938
12211,-14.39,-15.826
12223,-14.95,-14.524
12234,-14.945,-13.287
12246,-16.666,-17.029
12258,-13.367,-16.749
12270,-10.251,-17.495
12281,-9.0776,-15.158
12293,-10.548,-16.371
12305,-12.75,-14.481
12316,-11.961,-13.692
12328,-11.203,-14.661
12340,-14.424,-15.313
12352,-14.052,-14.896
12363,-14.199,-15.022
12375,-11.566,-17.144
12387,-11.505,-18.428
12398,-10.545,-15.192
12410,-9.2073,-12.552
12422,-10.392,-12.559
12434,-13.209,-15.497
12445,-12.37,-16.449
12457,-11.85,-15.971
12469,-12.396,-15.884
12480,-12.712,-14.499
12492,-13.172,-15.677
12504,-10.005,-17.43
12516,-12.162,-16.3
12527,-12.941,-15.042
12539,-10.267,-12.452
12551,-15.225,-14.843
12563,-13.226,-19.255
12574,-10.096,-18.449
12586,-9.4384,-15.13
12598,-13.699,-12.696
12609,-10.74,-14.133
12621,-10.632,-13.019
12633,-9.7884,-13.72
12645,-9.4977,-14.386
12656,-11.166,-14.356
12668,-11.181,-15.398
12680,-14.009,-15.875
12691,-15.161,-16.442
12703,-13.232,-18.051
12715,-12.591,-14.757
12727,-11.94,-14.571
12738,-11.305,-15.634
12750,-10.542,-13.18
12762,-8.4571,-14.543
12773,-9.2402,-15.858
12785,-10.635,-18.223
12797,-10.634,-14.481
12809,-11.551,-12.983
12820,-14.229,-14.461
12832,-13.452,-14.148
12844,-11.653,-15.038
12855,-12.493,-15.584
12867,-14.26,-15.903
12879,-13.672,-16.266
12891,-10.964,-14.878
12902,-12.204,-14.638
12914,-13.579,-14.135
12926,-10.243,-13.841
12938,-9.6089,-13.77
12949,-11.056,-13.669
12961,-10.326,-16.178
12973,-12.304,-15.607
12984,-13.919,-15.402
12996,-15.974,-18.612
13008,-13.333,-19.535
13020,-13.216,-16.389
13031,-9.1538,-17.357
13043,-11.936,-18.222
13055,-13.985,-16.465
13066,-14.068,-15.315
13078,-13.737,-17.207
13090,-10.074,-17.823
13102,-10.697,-13.667
13113,-11.708,-15.151
13125,-12.343,-15.014
13137,-13.556,-12.183
13148,-15.202,-11.302
13160,-12.186,-13.543
13172,-11.483,-14.054
13184,-14.209,-12.968
13195,-13.78,-18.662
13207,-11.164,-16.845
13219,-12.139,-15.27
13230,-11.468,-14.051
13242,-10.604,-15.351
13254,-12.662,-13.938
13266,-12.829,-13.487
13277,-9.8616,-16.268
13289,-11.872,-14.646
13301,-13.455,-15.741
13313,-14.595,-15.259
13324,-12.254,-14.865
13336,-11.837,-15.106
13348,-15.26,-15.231
13359,-15.273,-13.778
13371,-15.736,-13.653
13383,-14.919,-16.068
13395,-15.349,-16.868
13406,-12.709,-17.533
13418,-10.524,-16.149
13430,-11.594,-16.968
13441,-12.741,-17.313
13453,-10.998,-19.03
13465,-11.134,-15.912
13477,-12.879,-12.904
13488,-13.131,-15.927
13500,-13.942,-14.668
13512,-15.392,-13.747
13523,-15.495,-14.936
13535,-12.445,-16.742
13547,-13.54,-18.081
13559,-12.974,-16.974
13570,-14.694,-15.68
13582,-10.691,-15.148
13594,-8.3976,-17.024
13605,-13.067,-15.868
13617,-11.342,-17.351
13629,-11.373,-16.496
13641,-13.306,-16.222
13652,-14.011,-15.008
13664,-12.52,-16.977
13676,-13.074,-16.374
13688,-14.675,-15.256
13699,-13.506,-19.159
13711,-15.174,-16.469
13723,-14.001,-17.709
13734,-13.592,-18.184
13746,-12.451,-18.659
13758,-13.687,-17.099
13770,-12.967,-16.601
13781,-14.293,-14.696
13793,-15.095,-13.366
13805,-13.647,-16.366
13816,-15.125,-17.959
13828,-14.398,-16.54
13840,-11.762,-15.906
13852,-12.8,-17.915
13863,-11.187,-14.593
13875,-10.252,-14.016
13887,-12.326,-13.334
13898,-13.445,-14.489
13910,-11.508,-13.497
13922,-14.228,-13.781
13934,-13.986,-16.124
13945,-14.34,-15.664
13957,-17.923,-16.533
13969,-15.358,-17.262
13980,-15.953,-15.617
13992,-16.34,-18.477
14004,-14.725,-17.372
14016,-13.075,-16.372
14027,-13.15,-16.704
14039,-16.21,-17.44
14051,-18.261,-17.137
14063,-13.422,-19.031
14074,-12.277,-17.549
14086,-14.434,-16.767
14098,-14.134,-17.947
14109,-13.622,-19.042
14121,-12.757,-16.649
14133,-17.301,-14.817
14145,-15.695,-15.364
14156,-12.841,-17.605
14168,-13.188,-15.918
14180,-15.097,-18.208
14191,-12.882,-18.773
14203,-14.174,-19.618
14215,-13.021,-17.203
14227,-15.375,-16.934
14238,-16.294,-16.453
14250,-14.71,-17.675
14262,-14.597,-16.82
14273,-17.606,-14.978
14285,-17.751,-15.477
14297,-16.518,-15.792
14309,-16.587,-15.008
14320,-13.193,-14.805
14332,-15.19,-19.575
14344,-15.492,-15.58
14355,-15.444,-16.737
14367,-13.607,-19.108
14379,-12.635,-16.009
14391,-15.923,-15.922
14402,-16.914,-18.905
14414,-12.425,-19.071
14426,-14.65,-16.459
14438,-13.554,-16.151
14449,-16.247,-16.111
14461,-16.319,-17.707
14473,-14.889,-20.058
14484,-13.1,-18.79
14496,-10.64,-17.648
14508,-11.328,-16.404
14520,-15.038,-17.739
14531,-16.232,-21.533
14543,-13.416,-20.814
14555,-12.592,-19.217
14566,-13.668,-16.784
14578,-14.402,-17.274
14590,-17.56,-17.981
14602,-15.481,-17.487
14613,-13.391,-17.988
14625,-15.064,-14.989
14637,-13.947,-13.823
14648,-13.962,-17.105
14660,-16.157,-20.157
14672,-15.376,-17.09
14684,-16.286,-16.902
14695,-15.585,-19.021
14707,-15.439,-19.702
14719,-15.144,-19.41
14730,-17.051,-19.963
14742,-16.427,-18.225
14754,-9.8407,-21.327
14766,-4.2471,-18.608
14777,-6.3175,-17.547
14789,-13.859,-18.749
14801,-16.738,-19.166
14813,-17.572,-18.427
14824,-18.924,-18.457
14836,-16.043,-17.059
14848,-18.087,-20.582
14859,-18.237,-19.586
14871,-15.754,-21.045
14883,-14.613,-17.879
14895,-13.221,-17.771
14906,-15.006,-18.703
14918,-15.725,-14.569
14930,-13.119,-15.735
14941,-14.33,-17.986
14953,-15.988,-18.887
14965,-14.085,-20.419
14977,-15.66,-18.66
14988,-19.161,-16.517
15000,-15.232,-17.239
15012,-18.93,-17.526
15023,-14.776,-17.909
15035,-14.188,-19.178
15047,-15.687,-17.464
15059,-17.834,-17.619
15070,-18.924,-18.65
15082,-15.268,-19.375
15094,-16.502,-17.17
15105,-19.939,-16.514
15117,-16.487,-17.181
15129,-17.537,-17.974
15141,-17.034,-18.08
15152,-15.03,-19.11
15164,-16.219,-15.885
15176,-19.529,-15.879
15188,-16.973,-16.235
15199,-15.003,-16.882
15211,-14.277,-19.308
15223,-14.754,-20.847
15234,-17.195,-18.138
15246,-17.796,-18.016
15258,-17.376,-16.962
15270,-17.701,-17.84
15281,-18.291,-19.567
15293,-15.231,-18.676
15305,-17.221,-20.935
15316,-16.015,-20.327
15328,-17.95,-16.382
15340,-16.749,-18.664
15352,-16.335,-20.439
15363,-17.237,-18.66
15375,-17.523,-18.445
15387,-17.023,-18.888
15398,-18.316,-16.851
15410,-19.66,-17.965
15422,-16.658,-18.413
15434,-15.457,-20.407
15445,-17.269,-20.937
15457,-14.673,-19.74
15469,-16.197,-17.944
15480,-18.303,-18.767
15492,-19.129,-19.848
15504,-16.447,-22.189
15516,-17.003,-22.103
15527,-20.016,-18.912
15539,-17.764,-18.632
15551,-16.611,-18.526
15563,-16.108,-21.97
15574,-17.438,-21.113
15586,-16.286,-19.744
15598,-18.484,-19.522
15609,-20.043,-17.551
15621,-20.966,-19.245
15633,-19.313,-19.409
15645,-18.261,-16.309
15656,-17.593,-15.847
15668,-17.102,-17.827
15680,-16.352,-20.469
15691,-16.456,-18.103
15703,-17.406,-15.366
15715,-21.318,-18.13
15727,-17.137,-22.065
15738,-18.33,-20.396
15750,-18.04,-20.891
15762,-19.234,-20.07
15773,-20.693,-18.98
15785,-21.21,-19.324
15797,-22.258,-18.065
15809,-20.305,-16.202
15820,-16.851,-16.616
15832,-15.208,-17.657
15844,-21.048,-19.939
15855,-21.751,-21.879
15867,-16.867,-19.949
15879,-15.433,-17.79
15891,-15.966,-18.595
15902,-16.226,-20.159
15914,-17.951,-21.043
15926,-17.669,-21.263
15938,-18.361,-23.057
15949,-18.527,-21.356
15961,-18.579,-19.316
15973,-18.383,-18.073
15984,-14.712,-17.086
15996,-15.353,-19.053
16008,-17.351,-17.968
16020,-18.857,-20.133
16031,-18.636,-22.217
16043,-18.008,-18.865
16055,-18.301,-16.361
16066,-17.437,-18.734
16078,-16.505,-22.329
16090,-19,-24.68
16102,-21.092,-20.86
16113,-18.818,-19.647
16125,-21.368,-20.931
16137,-17.861,-22.793
16148,-16.743,-20.254
16160,-18.523,-19.698
16172,-18.052,-20.63
16184,-19.353,-19.75
16195,-21.649,-17.361
16207,-20.189,-15.415
16219,-19.252,-16.228
16230,-18.46,-16.499
16242,-19.827,-17.495
16254,-19.714,-21.099
16266,-20.026,-16.411
16277,-20.916,-17.178
16289,-21.009,-19.248
16301,-21.815,-20.808
16313,-21.052,-23.13
16324,-20.237,-19.899
16336,-21.592,-20.278
16348,-21.525,-19.779
16359,-20.416,-21.001
16371,-18.566,-21.529
16383,-19.585,-23.309
16395,-18.312,-20.075
16406,-19.316,-18.194
16418,-22.396,-22.754
16430,-20.353,-21.848
16441,-21.192,-23.292
16453,-18.859,-24.629
16465,-17.721,-22.187
16477,-19.024,-20.374
16488,-18.521,-22.176
16500,-21.807,-20.582
16512,-20.602,-20.191
16523,-18.025,-19.28
16535,-21.189,-20.837
16547,-20.784,-20.187
16559,-21.242,-20.878
16570,-20.438,-22.108
16582,-20.522,-21.888
16594,-20.397,-20.059
16605,-21.143,-19.728
16617,-21.154,-22.201
16629,-21.368,-22.886
16641,-18.803,-24.47
16652,-19.497,-21.811
16664,-21.828,-19.682
16676,-19.983,-21.218
16688,-18.659,-21.027
16699,-15.514,-22.052
16711,-19.127,-19.088
16723,-22.3,-22.48
16734,-21.45,-23.037
16746,-24.097,-23.051
16758,-23.876,-24.635
16770,-22.466,-24.339
16781,-23.138,-21.945
16793,-20.602,-19.788
16805,-20.7,-21.229
16816,-22.2,-21.332
16828,-22.133,-23.025
16840,-22.355,-20.723
16852,-16.883,-21.423
16863,-14.489,-23.096
16875,-16.698,-24.907
16887,-20.566,-21.171
16898,-21.554,-21.111
16910,-20.553,-22.103
16922,-23.95,-22.436
16934,-20.581,-22.115
16945,-19.695,-19.619
16957,-25.344,-20.267
16969,-22.817,-21.643
16980,-21.883,-20.322
16992,-23.659,-20.933
17004,-24.843,-20.001
17016,-21.905,-19.319
17027,-19.734,-23.339
17039,-19.501,-24.932
17051,-21.571,-20.829
17063,-24.11,-19.941
17074,-23.596,-22.725
17086,-23.077,-22.71
17098,-22.832,-22.331
17109,-21.074,-23.602
17121,-20.729,-21.61
17133,-23.334,-21.238
17145,-23.076,-22.459
17156,-22.692,-22.941
17168,-24.943,-21.733
17180,-18.698,-21.81
17191,-18.289,-20.508
17203,-20.792,-20.114
17215,-21.59,-23.917
17227,-21.738,-21.37
17238,-18.886,-20.077
17250,-18.872,-20.793
17262,-20.687,-25.259
17273,-20.782,-23.596
17285,-19.673,-22.421
17297,-17.483,-21.258
17309,-19.512,-20.7
17320,-20.968,-21.066
17332,-18.432,-21.95
17344,-18.812,-20.798
17355,-19.484,-21.324
17367,-21.233,-21.999
17379,-22.894,-20.058
17391,-23.37,-18.299
17402,-23.273,-17.822
17414,-18.315,-19.22
17426,-21.015,-22.148
17438,-22.1,-22.67
17449,-19.986,-20.987
17461,-20.812,-25.092
17473,-21.928,-24.15
17484,-23.167,-24.835
17496,-22.225,-23.43
17508,-23.483,-18.164
17520,-23.742,-18.881
17531,-20.849,-21.231
17543,-18.762,-22.842
17555,-23.472,-23.042
17566,-21.639,-24.264
17578,-19.367,-23.648
17590,-19.621,-20.559
17602,-23.122,-19.986
17613,-23.883,-23.288
17625,-21.378,-20.569
17637,-20.499,-20.221
17648,-22.607,-22.186
17660,-21.733,-22.133
17672,-21.028,-22.841
17684,-21.218,-25.124
17695,-20.605,-22.315
17707,-20.181,-23.288
17719,-20.841,-23.963
17730,-22.219,-22.915
17742,-21.011,-22.642
17754,-22.718,-25.465
17766,-22.109,-25.839
17777,-24.446,-22.013
17789,-21.332,-21.428
17801,-18.97,-24.415
17813,-21.37,-21.959
17824,-24.83,-21.703
17836,-24.838,-22.434
17848,-23.961,-20.945
17859,-23.361,-23.381
17871,-23.84,-25.179
17883,-24.149,-24.436
17895,-21.513,-19.199
17906,-21.504,-18.616
17918,-21.647,-23.925
17930,-19.884,-22.73
17941,-24.275,-20.004
17953,-23.634,-21.822
17965,-24.793,-22.102
17977,-22.766,-22.871
17988,-20.434,-23.141
18000,-23.244,-22.638
18012,-25.91,-21.683
18023,-24.208,-24.069
18035,-22.584,-23.108
18047,-21.147,-25.721
18059,-23.923,-24.989
18070,-19.939,-24.005
18082,-20.644,-22.559
18094,-25.095,-21.778
18105,-21.759,-21.596
18117,-18.046,-22.612
18129,-19.265,-23.934
18141,-22.454,-23.131
18152,-20.156,-22.602
18164,-21.467,-23.581
18176,-20.527,-24.098
18188,-21.211,-23.284
18199,-21.984,-26.146
18211,-20.535,-26.064
18223,-23.645,-21.868
18234,-24.455,-23.04
18246,-23.509,-22.102
18258,-23.853,-22.604
18270,-23.087,-22.294
18281,-22.806,-20.428
18293,-21.26,-19.238
18305,-18.534,-21.54
18316,-20.625,-24.402
18328,-24.72,-25.147
18340,-23.57,-25.463
18352,-24.398,-24.864
18363,-24.003,-28.04
18375,-24.737,-23.769
18387,-24.548,-24.053
18398,-23.331,-22.409
18410,-20.605,-23.589
18422,-20.367,-23.769
18434,-21.702,-26.35
18445,-23.78,-24.238
18457,-20.67,-23.91
18469,-20.757,-23.709
18480,-24.435,-23.538
18492,-25.106,-24.507
18504,-21.372,-23.842
18516,-21.296,-22.273
18527,-23.868,-20.785
18539,-23.043,-25.052
18551,-22.841,-24.654
18563,-20.559,-24.793
18574,-21.047,-24.634
18586,-22.482,-24.266
18598,-22.041,-24.72
18609,-23.169,-21.246
18621,-22.927,-22.843
18633,-23.234,-26.48
18645,-24.255,-23.241
18656,-25.821,-21.367
18668,-26.477,-20.138
18680,-23.561,-20.742
18691,-19.789,-24.052
18703,-21.889,-26.716
18715,-23.342,-23.862
18727,-24.454,-24.825
18738,-22.929,-22.828
18750,-22.54,-21.376
18762,-22.748,-22.514
18773,-20.098,-22.77
18785,-19.699,-23.471
18797,-22.191,-24.905
18809,-22.939,-25.635
18820,-23.049,-28.785
18832,-22.899,-26.932
18844,-21.668,-24.79
18855,-23.152,-24.992
18867,-24.034,-29.251
18879,-28.206,-24.436
18891,-26.319,-24.481
18902,-25.154,-24.816
18914,-26.817,-25.802
18926,-23.678,-23.602
18938,-22.022,-22.57
18949,-21.308,-22.6
18961,-21.203,-21.836
18973,-24.415,-22.996
18984,-24.803,-25.838
18996,-23.748,-25.683
19008,-24.727,-24.442
19020,-21.253,-23.514
19031,-20.853,-26.243
19043,-24.481,-28.186
19055,-23.03,-28.593
19066,-22.619,-28.054
19078,-22.596,-27.452
19090,-21.324,-24.475
19102,-22.196,-23.429
19113,-25.389,-23.438
19125,-22.286,-22.359
19137,-20.156,-22.094
19148,-22.597,-21.257
19160,-24.858,-23.265
19172,-25.276,-25.89
19184,-24.936,-23.438
19195,-23.613,-23.558
19207,-21.578,-24.941
19219,-21.418,-24.871
19230,-23.862,-23.894
19242,-22.843,-24.118
19254,-23.145,-23.939
19266,-24.26,-24.196
19277,-24.099,-24.61
19289,-22.853,-25.849
19301,-21.441,-24.688
19313,-20.7,-23.712
19324,-21.466,-25.545
19336,-24.655,-27.036
19348,-27.062,-22.1
19359,-25.495,-23.079
19371,-26.284,-25.919
19383,-27.136,-27.62
19395,-25.813,-24.623
19406,-25.476,-27.644
19418,-30.865,-26.174
19430,-28.132,-22.431
19441,-22.852,-21.528
19453,-20.202,-24.455
19465,-23.309,-24.9
19477,-26.609,-25.727
19488,-25.419,-23.486
19500,-24.548,-22.154
19512,-25.185,-27.926
19523,-25.179,-25.452
19535,-24.605,-23.873
19547,-27.296,-25.775
19559,-27.127,-25.665
19570,-23.201,-24.748
19582,-20.711,-22.436
19594,-20.986,-22.151
19605,-23.65,-25.4
19617,-25.955,-25.468
19629,-23.566,-25.899
19641,-23.829,-25.557
19652,-25.962,-25.232
19664,-24.812,-26.052
19676,-20.538,-29.236
19688,-20.885,-24.242
19699,-25.941,-22.519
19711,-25.659,-24.147
19723,-24.371,-27.984
19734,-26.708,-23.513
19746,-26.974,-22.955
19758,-25.103,-25.015
19770,-26.672,-27.951
19781,-24.527,-26.028
19793,-25.312,-26.187
19805,-22.239,-26.623
19816,-22.442,-24.709
19828,-21.959,-24.071
19840,-23.351,-26.503
19852,-22.054,-26.939
19863,-26.502,-25.061
19875,-29.114,-26.684
19887,-24.273,-23.285
19898,-23.825,-24.492
19910,-25.522,-23.809
19922,-24.365,-23.183
19934,-25.73,-23.133
19945,-23.139,-25.179
19957,-26.725,-28.04
19969,-25.985,-26.955
19980,-25.127,-25.958
19992,-23.345,-28.219
20004,-22.336,-28.026
20016,-25.46,-25.874
20027,-26.098,-25.408
20039,-26.514,-27.164
20051,-27.516,-26.246
20063,-28.115,-24.131
20074,-26.441,-22.984
20086,-27.843,-25.89
20098,-26.571,-26.629
20109,-27.395,-29.737
20121,-27.491,-27.829
20133,-26.167,-28.009
20145,-24.353,-27.087
20156,-24.423,-26.591
20168,-25.472,-25.789
20180,-24.524,-26.737
20191,-26.246,-28.501
20203,-27.265,-28.049
20215,-24.264,-27.636
20227,-23.177,-26.796
20238,-22.65,-26.455
20250,-25.589,-25.105
20262,-25.17,-24.897
20273,-25.407,-27.404
20285,-25.183,-27.168
20297,-26.923,-26.577
20309,-26.37,-27.084
20320,-24.86,-27.001
20332,-25.938,-25.603
20344,-26.024,-25.301
20355,-26.707,-26.981
20367,-23.396,-29.952
20379,-21.553,-27.584
20391,-24.042,-24.297
20402,-23.393,-22.9
20414,-22.657,-25.866
20426,-22.586,-26.317
20438,-20.64,-25.225
20449,-22.772,-25.303
20461,-24.421,-26.528
20473,-25.702,-28.304
20484,-24.743,-27.129
20496,-23.991,-24.415
20508,-26.346,-27.281
20520,-24.06,-27.485
20531,-26.207,-23.886
20543,-29.917,-25.848
20555,-27.61,-28.068
20566,-26.098,-24.252
20578,-26.97,-27.087
20590,-27.367,-29.428
20602,-26.288,-28.313
20613,-26.589,-27.98
20625,-25,-25.351
20637,-25.122,-22.163
20648,-25.135,-22.243
20660,-25.94,-23.082
20672,-27.963,-23.924
20684,-28.258,-24.33
20695,-24.504,-27.047
20707,-24.49,-25.287
20719,-28.881,-23.592
20730,-26.166,-24.375
20742,-25.297,-26.061
20754,-26.448,-25.623
20766,-26.756,-25.456
20777,-28.3,-30.274
20789,-27.527,-32.025
20801,-24.325,-25.986
20813,-25.825,-24.975
20824,-26.304,-25.281
20836,-28.776,-25.505
20848,-27.969,-26.869
20859,-26.748,-26.294
20871,-26.516,-25.108
20883,-28.048,-25.81
20895,-24.601,-25.256
20906,-26.493,-27.363
20918,-28.364,-28.677
20930,-27.092,-26.329
20941,-26.199,-25.515
20953,-24.065,-27.335
20965,-22.032,-27.538
20977,-27.158,-26.413
20988,-26.871,-29.737
21000,-27.775,-26.786
21012,-25.618,-26.433
21023,-24.942,-28.534
21035,-24.176,-25.662
21047,-25.491,-27.509
21059,-29.378,-25.428
21070,-24.95,-26.807
21082,-21.339,-29.451
21094,-23.689,-26.198
21105,-25.636,-25.5
21117,-26.003,-27.724
21129,-27.808,-30.596
21141,-25.264,-27.68
21152,-26.173,-25.313
21164,-23.646,-28.034
21176,-23.877,-26.443
21188,-25.008,-24.367
21199,-24.14,-26.721
21211,-27.208,-27.513
21223,-26.106,-28.34
21234,-26.513,-25.315
21246,-26.774,-28.332
21258,-25.241,-25.859
21270,-26.596,-22.464
21281,-27.157,-23.034
21293,-26.499,-26.717
21305,-28.338,-28.007
21316,-25.156,-26.792
21328,-24.638,-28.208
21340,-27.628,-26.197
21352,-25.792,-25.767
21363,-25.774,-27.617
21375,-26.103,-26.622
21387,-27.026,-27.292
21398,-29.809,-27.14
21410,-25.191,-27.37
21422,-24.389,-25.418
21434,-26.147,-25.307
21445,-24.836,-26.958
21457,-26.238,-24.628
21469,-24.051,-24.999
21480,-24.645,-24.664
21492,-24.603,-27.213
21504,-25.564,-25.985
21516,-23.799,-27.281
21527,-25.978,-29.166
21539,-25.064,-25.354
21551,-22.714,-26.884
21563,-23.739,-22.41
21574,-24.678,-24.054
21586,-25.323,-26.946
21598,-26.408,-29.075
21609,-25.616,-28.914
21621,-24.153,-25.99
21633,-24.007,-24.36
21645,-24.56,-23.803
21656,-25.736,-27.205
21668,-27.462,-25.553
21680,-29.398,-25.541
21691,-26.13,-30.101
21703,-24.236,-27.768
21715,-23.701,-28.811
21727,-23.789,-27.688
21738,-23.689,-28.148
21750,-27.71,-26.765
21762,-30.025,-25.616
21773,-28.861,-24.516
21785,-27.801,-25.011
21797,-26.731,-26.779
21809,-27.773,-29.399
21820,-27.547,-27.892
21832,-28.177,-26.295
21844,-29.09,-25.992
21855,-30.808,-25.357
21867,-27.494,-25.789
21879,-29.03,-26.998
21891,-32.426,-28.997
21902,-27.325,-28.581
21914,-27.856,-28.041
21926,-27.728,-29.433
21938,-27.931,-30.554
21949,-27.685,-29.539
21961,-25.257,-27.952
21973,-24.514,-28.462
21984,-27.117,-25.335
21996,-23.901,-23.657
22008,-23.602,-25.774
22020,-26.934,-31.204
22031,-26.249,-29.324
22043,-24.521,-30.728
22055,-25.175,-28.157
22066,-27.785,-27.307
22078,-28.154,-28.08
22090,-27.814,-27.071
22102,-27.258,-25.636
22113,-29.08,-24.128
22125,-29.382,-23.808
22137,-24.684,-25.322
22148,-23.719,-25.98
22160,-26.383,-25.367
22172,-28.496,-28.948
22184,-28.931,-30.804
22195,-29.414,-33.12
22207,-29.398,-30.743
22219,-27.991,-30.856
22230,-26.542,-27.579
22242,-26.858,-26.053
22254,-28.349,-26.569
22266,-28.16,-26.527
22277,-29.711,-26.888
22289,-28.263,-27.085
22301,-31.081,-26.202
22313,-28.419,-27.016
22324,-26.902,-27.83
22336,-27.194,-26.115
22348,-27.641,-24.997
22359,-27.199,-25.315
22371,-29.868,-28.046
22383,-29.948,-29.789
22395,-28.323,-28.649
22406,-27.835,-26.116
22418,-28.355,-25.626
22430,-28.139,-26.767
22441,-26.009,-29.429
22453,-27.891,-28.366
22465,-26.309,-29.397
22477,-28.319,-30.615
22488,-27.357,-29.366
22500,-24.218,-29.239
22512,-23.278,-29.465
22523,-24.574,-28.608
22535,-26.589,-27.943
22547,-28.819,-28.371
22559,-30.197,-29.216
22570,-28.674,-29.807
22582,-26.799,-29.305
22594,-26.781,-27.499
22605,-27.271,-28.521
22617,-32.259,-25.871
22629,-27.25,-26.98
22641,-28.621,-29.247
22652,-27.838,-29.711
22664,-30.24,-29.037
22676,-30.216,-29.992
22688,-26.596,-25.724
22699,-27.485,-26.346
22711,-26.698,-25.546
22723,-26.225,-27.81
22734,-25.892,-27.016
22746,-26.272,-25.985
22758,-28.405,-25.052
22770,-28.092,-25.005
22781,-26.163,-26.075
22793,-25.032,-28.494
22805,-26.643,-32.078
22816,-26.233,-33.296
22828,-25.875,-30.679
22840,-26.119,-29.833
22852,-27.679,-30.405
22863,-28.107,-30.915
22875,-27.371,-28.275
22887,-30.064,-28.174
22898,-28.789,-28.833
22910,-28.821,-28.369
22922,-29.563,-26.63
22934,-28.529,-27.926
22945,-28.684,-28.739
22957,-27.43,-28.784
22969,-30.485,-29.504
22980,-29.381,-31.855
22992,-29.435,-27.234
23004,-28.286,-27.13
23016,-24.2,-28.755
23027,-22.559,-31.053
23039,-24.752,-30.582
23051,-26.803,-27.456
23063,-28.112,-26.584
23074,-27.572,-28.104
23086,-28.531,-27.429
23098,-28.408,-26.564
23109,-28.5,-29.269
23121,-29.917,-28.946
23133,-30.116,-29.293
23145,-30.775,-25.619
23156,-29.732,-26.331
23168,-27.481,-30.207
23180,-29.87,-31.409
23191,-26.411,-29.285
23203,-27.053,-27.777
23215,-30.855,-29.461
23227,-27.614,-31.103
23238,-27.964,-32.513
23250,-31.916,-28.953
23262,-26.491,-28.934
23273,-24.354,-29.906
23285,-27.261,-28.335
23297,-29.931,-24.741
23309,-30.04,-23.98
23320,-27.999,-25.6
23332,-28.338,-24.614
23344,-27.723,-27.017
23355,-27.513,-26.324
23367,-27.514,-26.005
23379,-27.522,-26.702
23391,-31.65,-26.447
23402,-30.567,-30.738
23414,-26.884,-29.047
23426,-27.314,-27.201
23438,-27.783,-29.624
23449,-27.926,-28.542
23461,-28.138,-27.331
23473,-26.786,-28.551
23484,-28.049,-29.4
23496,-28.91,-28.791
23508,-26.673,-29.677
23520,-29.131,-30.522
23531,-28.172,-28.713
23543,-27.923,-26.733
23555,-27.804,-26.701
23566,-31.072,-28.016
23578,-28.144,-27.575
23590,-29.851,-29.263
23602,-26.373,-28.496
23613,-24.628,-27.39
23625,-25.816,-30.294
23637,-27.44,-29.549
23648,-27.714,-25.539
23660,-30.752,-27.457
23672,-27.657,-28.425
23684,-26.428,-26.38
23695,-29.216,-29.825
23707,-28.11,-29.427
23719,-26.93,-30.122
23730,-27.929,-29.286
23742,-27.842,-30.301
23754,-29.867,-26.699
23766,-30.497,-27.911
23777,-27.944,-29.291
23789,-27.111,-26.491
23801,-28.771,-26.434
23813,-28.815,-28.036
23824,-30.008,-28.873
23836,-28.878,-30.979
23848,-27.511,-27.247
23859,-27.898,-28.6
23871,-28.141,-32.523
23883,-29.939,-30.481
23895,-30.425,-28.952
23906,-28.528,-29.337
23918,-28.847,-29.565
23930,-31.175,-29.316
23941,-27.92,-27.137
23953,-27.167,-26.5
23965,-28.007,-30.105
23977,-28.572,-30.343
23988,-29.848,-27.881
