FFT,Power Spectrum
Frequency[Hz],Level-L[dB],Level-R[dB]
11.719,-25.867,-29.448
23.438,-5.841,-8.02
35.156,-4.2139,-0.08596
46.875,2.7141,3.9394
58.594,5.5564,5.416
70.313,3.2192,3.0819
82.031,7.1534,4.0737
93.75,11.909,9.2166
105.47,9.382,6.5795
117.19,7.9239,3.0064
128.91,10.845,9.3083
140.63,10.672,10.794
152.34,5.7381,6.8717
164.06,1.1795,7.8052
175.78,6.2941,6.0356
187.5,10.329,4.081
199.22,8.4397,5.7042
210.94,5.8994,6.4537
222.66,6.0672,6.569
234.38,8.1577,5.4141
246.09,11.726,6.546
257.81,11.744,3.24
269.53,8.7557,5.0952
281.25,10.121,6.7197
292.97,8.2667,4.4023
304.69,5.0721,2.0883
316.41,7.6461,2.6772
328.13,8.3278,2.5204
339.84,8.5151,5.7149
351.56,6.9761,6.8878
363.28,5.7461,6.0546
375,5.5313,3.6264
386.72,7.158,2.5898
398.44,7.1675,4.59
410.16,7.4793,3.8197
421.88,8.5631,5.18
433.59,10.029,2.7897
445.31,11.748,1.5234
457.03,10.355,4.4808
468.75,8.5757,2.7926
480.47,9.3155,3.8071
492.19,12.028,2.0502
503.91,13.424,4.5981
515.63,14.184,5.1604
527.34,14.025,6.8309
539.06,12.808,6.9718
550.78,13.039,8.9084
562.5,12.621,9.0857
574.22,16.444,6.4437
585.94,17.067,3.4643
597.66,15.675,5.2064
609.38,17.25,6.2473
621.09,17.023,5.7938
632.81,16.671,4.1982
644.53,16.63,6.6886
656.25,17.602,6.912
667.97,18.018,6.0613
679.69,18.583,6.9247
691.41,17.467,9.2634
703.13,17.489,8.6978
714.84,18.977,8.0932
726.56,18.49,5.3018
738.28,19.396,5.4078
750,18.464,5.9411
761.72,16.089,5.7454
773.44,16.425,5.8266
785.16,16.293,3.1598
796.88,16.075,4.9638
808.59,17.781,8.2447
820.31,17.792,8.2352
832.03,14.674,5.6769
843.75,16.698,5.6072
855.47,16.824,6.3009
867.19,15.905,5.4558
878.91,14.957,6.1983
890.63,13.518,6.8777
902.34,12.715,3.5428
914.06,13.149,2.6546
925.78,15.275,3.7306
937.5,12.581,6.3146
949.22,14.961,5.2946
960.94,14.812,4.2195
972.66,15.634,3.4039
984.38,15.553,2.4949
996.09,17.548,5.9717
1007.8,18.397,6.8768
1019.5,17.014,5.4759
1031.3,14.251,4.1113
1043,13.5,4.9446
1054.7,13.64,6.5453
1066.4,13.232,7.0274
1078.1,15.224,7.5978
1089.8,13.089,3.063
1101.6,13.183,1.403
1113.3,15.024,2.0741
1125,14.728,3.5035
1136.7,14.893,3.9322
1148.4,15.083,3.6841
1160.2,14.21,4.5054
1171.9,15.705,4.2371
1183.6,15.719,5.6668
1195.3,13.224,3.5838
1207,14.156,2.6712
1218.8,12.535,3.083
1230.5,10.563,2.7858
1242.2,10.292,5.4202
1253.9,12.251,4.2623
1265.6,13.089,4.1037
1277.3,13.382,3.0128
1289.1,13.958,4.5891
1300.8,13.146,7.2812
1312.5,11.799,5.304
1324.2,11.972,3.7097
1335.9,13.609,4.37
1347.7,12.916,3.7199
1359.4,12.47,2.5585
1371.1,11.523,0.6273
1382.8,11.925,2.8168
1394.5,14.277,4.0629
1406.3,13.324,3.0948
1418,12.153,3.6426
1429.7,11.77,5.7485
1441.4,9.9726,7.6744
1453.1,12.365,6.2557
1464.8,13.589,1.4199
1476.6,12.894,2.9087
1488.3,11.663,3.2116
1500,11.326,3.4951
1511.7,14.253,6.6029
1523.4,13.182,5.3409
1535.2,12.177,-0.24465
1546.9,12.805,5.9239
1558.6,13.817,4.8665
1570.3,13.359,3.5555
1582,13.869,5.4329
1593.8,12.407,7.2433
1605.5,13.963,6.3713
1617.2,11.902,-0.80189
1628.9,8.7226,4.7821
1640.6,10.197,4.6586
1652.3,10.525,3.3807
1664.1,9.936,4.8938
1675.8,11.497,3.8985
1687.5,11.705,1.807
1699.2,10.128,1.0981
1710.9,10.314,2.3515
1722.7,8.5828,5.74
1734.4,9.3145,6.5477
1746.1,10.399,6.5047
1757.8,13.014,3.5142
1769.5,14.33,1.4437
1781.3,15.423,0.40662
1793,12.069,2.7195
1804.7,12.149,3.6747
1816.4,12.434,5.4466
1828.1,10.767,7.2684
1839.8,12.196,6.6453
1851.6,13.258,6.6943
1863.3,12,5.0286
1875,11.383,2.1913
1886.7,13.146,4.0872
1898.4,13.557,6.419
1910.2,11.725,4.591
1921.9,8.4659,3.8798
1933.6,12.012,5.5222
1945.3,12.634,6.6984
1957,12.8,5.5826
1968.8,11.289,5.1223
1980.5,10.74,4.622
1992.2,12.301,4.1369
2003.9,12.763,7.4055
2015.6,12.411,7.7998
2027.3,12.365,4.657
2039.1,10.209,3.577
2050.8,11.602,5.2149
2062.5,11.426,4.1583
2074.2,11.907,1.7878
2085.9,11.999,-0.50236
2097.7,12.711,-0.2564
2109.4,12.609,2.5409
2121.1,9.8701,4.9802
2132.8,10.872,4.0482
2144.5,8.7617,2.2651
2156.3,10.949,2.6256
2168,9.1085,2.0021
2179.7,11.344,4.0896
2191.4,12.586,4.4954
2203.1,11.876,4.2427
2214.8,11.464,3.4107
2226.6,9.936,3.0775
2238.3,9.1957,2.0593
2250,9.3842,1.7848
2261.7,11.58,0.87554
2273.4,13.29,1.4822
2285.2,12.822,-0.79741
2296.9,8.8134,3.2486
2308.6,9.376,6.2876
2320.3,11.026,4.9835
2332,11.64,3.2875
2343.8,13.067,0.55741
2355.5,12.449,4.126
2367.2,12.645,6.7296
2378.9,11.132,8.0592
2390.6,11.025,2.9311
2402.3,11.987,1.8202
2414.1,13.815,2.2472
2425.8,12.46,4.4798
2437.5,9.7579,6.6849
2449.2,10.017,6.1802
2460.9,12.935,4.1058
2472.7,15.212,5.0005
2484.4,11.581,3.9045
2496.1,9.3241,4.1442
2507.8,9.2542,2.7537
2519.5,7.5512,3.8749
2531.3,9.5628,4.0647
2543,13.362,2.6243
2554.7,12.493,-0.79204
2566.4,13.772,3.5635
2578.1,14.26,2.874
2589.8,10.373,0.28639
2601.6,12.347,0.88765
2613.3,14.808,0.25031
2625,13.771,0.73452
2636.7,13.282,-1.5023
2648.4,12.743,-2.8765
2660.2,12.333,0.26615
2671.9,14.033,3.1461
2683.6,14.272,3.2399
2695.3,10.512,1.4919
2707,12.197,5.6885
2718.8,12.372,3.7365
2730.5,13.034,0.86436
2742.2,12.612,-3.0744
2753.9,10.074,-3.1293
2765.6,11.432,-1.7588
2777.3,12.144,0.52417
2789.1,12.447,2.9243
2800.8,13.328,4.0006
2812.5,12.798,2.0991
2824.2,10.418,-0.37722
2835.9,9.5999,-0.61463
2847.7,8.4751,-1.8339
2859.4,7.8888,-0.22271
2871.1,9.7242,-1.5572
2882.8,11.062,2.7142
2894.5,9.6811,3.4564
2906.3,12.315,1.8405
2918,14.223,0.074374
2929.7,9.607,-1.4345
2941.4,7.85,-3.356
2953.1,9.3086,-0.26674
2964.8,9.6013,0.94428
2976.6,8.9972,2.1381
2988.3,6.5187,1.5218
3000,6.4969,-0.83463
3011.7,9.8534,-1.654
3023.4,11.341,-0.55565
3035.2,12.118,-0.15699
3046.9,11.177,1.773
3058.6,6.3036,0.67152
3070.3,8.8785,-1.879
3082,8.8007,-0.83912
3093.8,7.7739,-0.53635
3105.5,6.7031,-1.7899
3117.2,9.0265,1.9434
3128.9,8.3785,3.2573
3140.6,8.9628,-0.70933
3152.3,9.7424,-1.0262
3164.1,7.7283,-0.94355
3175.8,7.0579,-1.5442
3187.5,5.9748,-1.3303
3199.2,9.329,1.6461
3210.9,8.8547,2.8492
3222.7,9.5809,0.00081163
3234.4,9.935,-1.2434
3246.1,8.0045,-1.1632
3257.8,8.8078,-0.45888
3269.5,7.9769,-3.4178
3281.3,6.694,-0.80584
3293,8.2214,-1.401
3304.7,9.3274,-0.62973
3316.4,7.8583,-1.118
3328.1,7.4916,-1.44
3339.8,7.102,-1.7268
3351.6,8.7421,-0.91604
3363.3,7.1472,2.1137
3375,3.8818,1.4701
3386.7,6.0625,-0.13623
3398.4,7.2854,0.20937
3410.2,8.2092,1.2451
3421.9,8.3507,-0.020406
3433.6,6.0012,0.21966
3445.3,4.4502,-0.42789
3457,6.2324,-0.96715
3468.8,7.1422,-1.3074
3480.5,5.6,-1.1397
3492.2,6.5805,-2.9341
3503.9,6.2639,-1.2121
3515.6,1.1237,0.7845
3527.3,3.5039,0.44877
3539.1,5.8531,0.56948
3550.8,4.1266,-1.1619
3562.5,5.8968,-2.8484
3574.2,7.579,0.95538
3585.9,8.2951,1.3136
3597.7,8.9859,-3.6297
3609.4,5.5475,-0.95933
3621.1,6.8582,-0.11013
3632.8,13.774,-3.5375
3644.5,16.959,-4.1069
3656.3,20.268,0.46421
3668,26.006,3.4858
3679.7,53.349,28.558
3691.4,60.755,35.932
3703.1,56.092,31.246
3714.8,29.145,5.8395
3726.6,21.36,1.8789
3738.3,18.16,-0.52474
3750,13.134,-1.9185
3761.7,8.8529,-0.9653
3773.4,6.3385,0.77858
3785.2,4.3931,2.4441
3796.9,7.2289,2.4945
3808.6,6.1757,-2.0964
3820.3,5.2208,-0.43416
3832,6.4912,-0.39266
3843.8,6.6562,-1.0245
3855.5,7.1385,-2.5188
3867.2,6.3845,-3.5486
3878.9,3.8515,-1.6531
3890.6,7.2455,-1.9432
3902.3,9.4523,0.14089
3914.1,8.1245,-1.8548
3925.8,6.3391,-3.0528
3937.5,7.2748,-1.0458
3949.2,6.7734,-2.4037
3960.9,5.9467,-1.5534
3972.7,5.8223,0.8724
3984.4,5.5051,0.55241
3996.1,5.1442,-1.0173
4007.8,3.5159,-3.9448
4019.5,4.9034,-0.4095
4031.3,2.3553,0.76456
4043,1.6346,0.94051
4054.7,-1.1,-0.9497
4066.4,2.9836,-0.94836
4078.1,4.7749,-2.2592
4089.8,4.2771,0.13108
4101.6,1.4981,-1.5922
4113.3,1.8032,-0.43934
4125,1.1147,-2.0484
4136.7,-0.70477,-3.0271
4148.4,-0.11311,-1.1348
4160.2,-0.64145,-4.755
4171.9,-0.76824,-3.1565
4183.6,0.68295,-2.9433
4195.3,1.189,-4.7851
4207,1.917,-2.0297
4218.8,2.3884,-1.9314
4230.5,1.8057,-4.8499
4242.2,0.544,-3.2438
4253.9,1.2072,-2.9879
4265.6,-0.46056,-5.085
4277.3,-0.42197,-3.7276
4289.1,-1.6382,-1.8591
4300.8,-0.31668,-3.6042
4312.5,-1.3353,-3.5687
4324.2,-2.0493,-1.4577
4335.9,-2.8451,-2.4884
4347.7,-2.975,-4.4921
4359.4,-3.1769,-4.5671
4371.1,-4.413,-3.821
4382.8,-5.8885,-4.1811
4394.5,-4.5476,-1.4829
4406.3,-2.9237,-0.3486
4418,1.1933,-0.65576
4429.7,0.18117,-2.6185
4441.4,-1.8585,-1.3274
4453.1,0.21776,-1.1109
4464.8,0.27002,-4.5977
4476.6,-0.21029,-2.3477
4488.3,-1.279,-4.1138
4500,1.4735,-4.0453
4511.7,3.5948,-1.5151
4523.4,1.6716,-1.3093
4535.2,1.5751,-6.7252
4546.9,2.2839,-4.9175
4558.6,2.3352,-3.4888
4570.3,0.98505,-3.3064
4582,1.6008,-3.8986
4593.8,-0.49001,-6.1244
4605.5,-1.102,-3.9398
4617.2,1.302,-2.6501
4628.9,1.7213,-2.3234
4640.6,-1.2635,-2.8752
4652.3,-3.9623,-4.4546
4664.1,-1.5868,-3.6159
4675.8,-0.89915,-3.0986
4687.5,1.3416,-2.452
4699.2,1.8466,-3.4284
4710.9,2.0574,-0.98303
4722.7,-0.49339,0.46285
4734.4,-0.86748,-1.7936
4746.1,-1.0432,-3.382
4757.8,-1.7757,-2.7054
4769.5,-0.81784,-2.6963
4781.3,-1.3654,-4.8423
4793,-1.7301,-4.6978
4804.7,-2.2341,-3.879
4816.4,-4.0963,-5.4772
4828.1,0.51026,-4.1822
4839.8,-0.081657,-4.8089
4851.6,-1.1366,-2.2448
4863.3,-1.3688,-1.6591
4875,-3.1655,-3.3935
4886.7,-2.7103,-3.7481
4898.4,-3.7948,-4.4922
4910.2,-4.3657,-4.2188
4921.9,-3.2847,-3.1588
4933.6,-1.6554,-3.7158
4945.3,-0.54347,-4.6512
4957,-1.0135,-3.3612
4968.8,-1.7027,-3.3069
4980.5,-1.4737,-3.8347
4992.2,-2.6928,-1.2206
5003.9,-2.561,-2.8201
5015.6,-4.7111,-5.0188
5027.3,-5.0965,-4.0476
5039.1,-4.6925,-4.3646
5050.8,-3.8584,-6.0387
5062.5,-4.2025,-4.3397
5074.2,-3.3264,-3.4938
5085.9,-1.3641,-8.3718
5097.7,-2.754,-5.7993
5109.4,-2.631,-3.8009
5121.1,-1.3797,-3.0435
5132.8,-2.9757,-4.3331
5144.5,-2.9448,-5.7434
5156.3,-0.92646,-8.0642
5168,0.32393,-5.6577
5179.7,-0.40267,-4.7667
5191.4,-2.8042,-5.1633
5203.1,-1.3063,-1.6885
5214.8,0.011427,-2.7579
5226.6,0.82232,-4.9606
5238.3,-1.0286,-3.5528
5250,-1.455,-0.7478
5261.7,-4.5819,-3.2374
5273.4,-2.7551,-3.8353
5285.2,-1.8777,-4.3179
5296.9,-2.7742,-7.0184
5308.6,-0.99717,-5.8792
5320.3,2.0349,-3.5644
5332,1.6517,-4.3025
5343.8,-0.52982,-1.3914
5355.5,1.4346,-1.5279
5367.2,0.55195,-2.8322
5378.9,3.28,-4.1849
5390.6,2.4403,-6.3283
5402.3,2.6427,-5.2371
5414.1,2.4343,-3.1869
5425.8,-0.94625,-4.8834
5437.5,1.1223,-5.617
5449.2,3.7275,-2.3684
5460.9,3.9317,-2.2663
5472.7,0.92759,-4.3604
5484.4,2.8664,-6.5845
5496.1,2.7129,-2.803
5507.8,5.4885,-5.4129
5519.5,5.0037,-5.641
5531.3,4.43,-3.0852
5543,1.9772,-4.9619
5554.7,2.5049,-4.8966
5566.4,0.76388,-5.3301
5578.1,0.71783,-4.3274
5589.8,0.61744,-5.2698
5601.6,-0.14243,-5.7879
5613.3,0.96468,-6.3495
5625,0.29018,-5.2343
5636.7,-0.98102,-5.1104
5648.4,-0.6147,-3.9811
5660.2,-1.2661,-3.9194
5671.9,-1.0401,-6.9679
5683.6,0.76793,-4.2218
5695.3,2.5531,-4.0397
5707,1.6687,-5.0755
5718.8,-1.5289,-5.1891
5730.5,-0.51358,-2.3273
5742.2,-2.573,-5.4546
5753.9,0.36937,-7.3719
5765.6,1.5714,-6.2453
5777.3,-2.5775,-4.6729
5789.1,-2.027,-5.1628
5800.8,-0.10693,-5.7514
5812.5,-0.70204,-2.9356
5824.2,-2.6951,-1.5774
5835.9,-2.8923,-4.1577
5847.7,-1.0711,-5.7531
5859.4,0.10822,-5.9048
5871.1,0.93639,-5.8668
5882.8,0.44771,-5.9313
5894.5,-1.4056,-4.7769
5906.3,-0.71429,-2.0288
5918,0.79553,-4.0629
5929.7,-1.7714,-6.6586
5941.4,0.30001,-6.906
5953.1,1.9048,-7.3004
5964.8,0.79062,-8.5346
5976.6,0.24455,-8.278
5988.3,1.1864,-7.5231
6000,-0.55049,-8.4552
6011.7,-3.572,-10.649
6023.4,-4.1536,-11.659
6035.2,-0.74835,-7.7865
6046.9,-0.82123,-6.1477
6058.6,-0.49349,-5.1108
6070.3,-2.6661,-5.5211
6082,-0.81123,-4.556
6093.8,0.27202,-3.933
6105.5,-1.4965,-6.3464
6117.2,-2.8775,-5.4434
6128.9,-1.9477,-4.5049
6140.6,-0.038539,-2.8652
6152.3,-1.4542,-3.3111
6164.1,-2.3615,-6.649
6175.8,-2.6938,-6.4366
6187.5,-1.7201,-4.8546
6199.2,-4.8152,-3.7186
6210.9,-6.8946,-3.3069
6222.7,-5.2707,-3.9515
6234.4,-2.3905,-5.1955
6246.1,-5.5451,-6.71
6257.8,-1.5179,-6.7423
6269.5,-0.37745,-6.5944
6281.3,-4.2142,-9.5425
6293,-1.3589,-7.5835
6304.7,-1.386,-7.1451
6316.4,-4.4359,-3.5406
6328.1,-7.2878,-4.9961
6339.8,-6.486,-7.1086
6351.6,-3.5853,-7.3341
6363.3,-2.7161,-4.2398
6375,-4.2,-4.3365
6386.7,-6.9087,-5.0855
6398.4,-3.6507,-6.9029
6410.2,-5.1604,-7.4052
6421.9,-5.082,-7.1129
6433.6,-4.7275,-6.1537
6445.3,-3.1032,-7.5698
6457,-4.3625,-7.471
6468.8,-6.9431,-9.4497
6480.5,-7.8829,-7.8569
6492.2,-4.7271,-5.3814
6503.9,-2.3491,-5.4906
6515.6,-3.3494,-7.3131
6527.3,-3.2168,-5.0445
6539.1,-5.3197,-6.4977
6550.8,-8.065,-7.9596
6562.5,-3.8852,-8.7477
6574.2,-3.8896,-6.9355
6585.9,-3.1984,-6.1917
6597.7,-4.2746,-5.9228
6609.4,-7.7778,-7.4008
6621.1,-5.8183,-4.1375
6632.8,-5.6785,-2.7735
6644.5,-4.8296,-6.198
6656.3,-6.0186,-6.0074
6668,-4.3817,-7.9686
6679.7,-5.1511,-6.6673
6691.4,-3.777,-7.981
6703.1,-4.0651,-7.7773
6714.8,-5.6333,-9.0699
6726.6,-5.8774,-8.9147
6738.3,-5.8296,-6.3032
6750,-6.1534,-7.2199
6761.7,-4.4636,-9.4518
6773.4,-6.5608,-10.485
6785.2,-5.549,-7.7035
6796.9,-3.9676,-7.9257
6808.6,-3.6179,-7.2596
6820.3,-5.1086,-4.6349
6832,-3.7422,-10
6843.8,-3.2227,-9.6362
6855.5,-1.8735,-9.4004
6867.2,-1.9854,-7.5548
6878.9,-1.1287,-9.2404
6890.6,0.61367,-9.4439
6902.3,-0.81846,-6.7101
6914.1,0.53514,-8.2784
6925.8,0.56802,-8.0385
6937.5,-1.7898,-8.619
6949.2,-1.0036,-7.7345
6960.9,0.17852,-10.051
6972.7,-0.65883,-9.5679
6984.4,0.96125,-6.029
6996.1,-2.0696,-7.2698
7007.8,-4.295,-7.3389
7019.5,-3.8783,-6.0655
7031.3,-4.4976,-8.8307
7043,-2.2613,-8.0101
7054.7,-0.93736,-8.6086
7066.4,-3.1325,-6.8489
7078.1,-1.939,-4.2146
7089.8,-0.32627,-3.8896
7101.6,-1.2673,-6.2266
7113.3,-2.9452,-7.8863
7125,0.4826,-7.0368
7136.7,-0.34458,-8.2719
7148.4,-0.89519,-7.1559
7160.2,1.082,-5.6179
7171.9,-1.0817,-6.6325
7183.6,1.1908,-8.35
7195.3,1.9555,-10.883
7207,-1.5388,-8.9666
7218.8,-0.88856,-7.5711
7230.5,-1.2556,-8.0728
7242.2,0.33559,-9.4619
7253.9,-1.0875,-9.6282
7265.6,-2.7323,-9.2484
7277.3,-6.3894,-8.0038
7289.1,-4.6283,-5.4884
7300.8,-4.6844,-4.0758
7312.5,-3.5269,-4.1144
7324.2,-2.5844,-4.6041
7335.9,-2.1238,-7.9626
7347.7,-2.9348,-7.7181
7359.4,-4.6392,-11.082
7371.1,-5.4851,-8.6195
7382.8,-5.5985,-8.0226
7394.5,-4.8313,-7.375
7406.3,-5.1585,-7.0796
7418,-5.5219,-7.8198
7429.7,-2.6419,-8.1824
7441.4,-2.5763,-7.243
7453.1,-6.9972,-8.6498
7464.8,-6.3838,-7.8693
7476.6,-3.2207,-7.2431
7488.3,-2.4626,-7.5413
7500,-4.0983,-6.0414
7511.7,-5.2943,-8.0755
7523.4,-2.979,-10.121
7535.2,-4.3852,-10.013
7546.9,-5.9523,-11.978
7558.6,-4.9829,-9.3304
7570.3,-6.9942,-10.301
7582,-7.8795,-9.1871
7593.8,-7.206,-6.8975
7605.5,-6.847,-5.318
7617.2,-5.3994,-7.048
7628.9,-4.2397,-7.9403
7640.6,-4.1314,-5.4493
7652.3,-5.0307,-9.9104
7664.1,-5.4395,-9.2287
7675.8,-3.6613,-10.017
7687.5,-5.2231,-6.0528
7699.2,-6.5923,-6.933
7710.9,-6.1849,-10.513
7722.7,-3.9264,-7.8586
7734.4,-3.3155,-4.5184
7746.1,-4.2566,-8.0775
7757.8,-5.4443,-7.8774
7769.5,-6.1482,-7.4102
7781.3,-5.291,-9.4835
7793,-5.1297,-7.9394
7804.7,-7.3277,-5.8772
7816.4,-8.8581,-6.8807
7828.1,-7.6305,-7.8449
7839.8,-7.213,-9.1248
7851.6,-5.3335,-8.0981
7863.3,-6.9027,-9.0454
7875,-5.1611,-10.866
7886.7,-4.0646,-7.934
7898.4,-3.3298,-9.0282
7910.2,-1.9913,-11.051
7921.9,-2.0753,-10.795
7933.6,-3.4924,-10.135
7945.3,-5.8904,-9.3719
7957,-7.201,-10.836
7968.8,-7.963,-10.692
7980.5,-4.7211,-12.394
7992.2,-3.5685,-9.3334
8003.9,-3.2762,-7.7988
8015.6,-2.2653,-8.0464
8027.3,-3.3245,-10.449
8039.1,-4.9922,-11.484
8050.8,-6.9037,-10.109
8062.5,-4.7592,-8.3579
8074.2,-2.9819,-6.946
8085.9,-4.5309,-7.4967
8097.7,-7.9399,-10.638
8109.4,-6.6908,-9.6211
8121.1,-7.2205,-8.1531
8132.8,-6.867,-9.3225
8144.5,-7.9912,-10.62
8156.3,-8.0422,-9.219
8168,-4.0319,-9.1247
8179.7,-4.2887,-10.263
8191.4,-5.5428,-10.869
8203.1,-5.7935,-12.424
8214.8,-3.2159,-8.6672
8226.6,-1.4353,-7.478
8238.3,-3.8899,-8.2872
8250,-3.9869,-9.733
8261.7,-3.654,-9.0191
8273.4,-4.372,-6.0099
8285.2,-5.2475,-7.9129
8296.9,-5.5372,-7.9907
8308.6,-5.6246,-7.2166
8320.3,-6.0117,-8.7755
8332,-4.2879,-12.576
8343.8,-4.3237,-12.64
8355.5,-4.5371,-11.033
8367.2,-6.4658,-9.058
8378.9,-8.5939,-8.1594
8390.6,-8.9741,-8.1751
8402.3,-5.7627,-9.8754
8414.1,-3.4178,-12.113
8425.8,-5.4224,-10.715
8437.5,-7.7143,-7.855
8449.2,-7.1838,-9.6498
8460.9,-7.0107,-8.7551
8472.7,-6.4887,-11.579
8484.4,-5.6096,-11.193
8496.1,-6.4306,-10.91
8507.8,-8.323,-8.9687
8519.5,-6.1072,-9.3807
8531.3,-6.2522,-9.5949
8543,-8.7445,-11.713
8554.7,-5.426,-11.627
8566.4,-3.8505,-9.7627
8578.1,-6.1595,-9.6401
8589.8,-8.2071,-9.8825
8601.6,-12.054,-7.8483
8613.3,-11.929,-9.925
8625,-8.8251,-10.626
8636.7,-6.0545,-11.366
8648.4,-6.0532,-11.86
8660.2,-7.1591,-10.181
8671.9,-7.7461,-9.7375
8683.6,-8.2595,-9.2369
8695.3,-9.8174,-8.3373
8707,-8.1245,-9.5262
8718.8,-6.7149,-9.6317
8730.5,-8.7913,-10.693
8742.2,-8.4967,-11.003
8753.9,-6.3159,-8.7144
8765.6,-5.418,-7.9358
8777.3,-5.388,-14.327
8789.1,-6.6492,-9.7665
8800.8,-9.5545,-8.1576
8812.5,-5.648,-8.307
8824.2,-6.0264,-10.605
8835.9,-12.287,-11.103
8847.7,-11.373,-10.507
8859.4,-10.289,-12.334
8871.1,-7.0723,-11.869
8882.8,-5.7076,-9.6993
8894.5,-6.5734,-9.4913
8906.3,-9.923,-8.8187
8918,-9.1561,-9.5047
8929.7,-7.9458,-9.4962
8941.4,-9.3219,-11.019
8953.1,-7.824,-13.651
8964.8,-8.0652,-11.61
8976.6,-7.6129,-10.851
8988.3,-6.2223,-11.07
9000,-5.3416,-10.387
9011.7,-5.0451,-8.2594
9023.4,-6.2258,-8.5472
9035.2,-5.7196,-9.2162
9046.9,-4.9886,-9.2886
9058.6,-6.7091,-8.313
9070.3,-7.9482,-8.5273
9082,-8.1052,-12.739
9093.8,-8.8367,-12.092
9105.5,-9.5025,-9.8233
9117.2,-11.781,-10.187
9128.9,-8.329,-12.229
9140.6,-8.223,-8.7262
9152.3,-9.058,-7.3064
9164.1,-10.002,-6.4677
9175.8,-7.8807,-6.7826
9187.5,-8.8181,-7.2168
9199.2,-9.8588,-10.842
9210.9,-10.21,-8.2165
9222.7,-9.1697,-8.8095
9234.4,-10.333,-10.946
9246.1,-11.698,-11.542
9257.8,-10.016,-10.314
9269.5,-9.548,-10.727
9281.3,-8.1989,-16.177
9293,-9.6196,-10.812
9304.7,-9.298,-11.277
9316.4,-9.6256,-13.497
9328.1,-7.8471,-13.43
9339.8,-5.2414,-9.2837
9351.6,-5.0622,-9.6104
9363.3,-6.5492,-11.455
9375,-7.395,-10.04
9386.7,-8.8969,-10.218
9398.4,-10.116,-9.9764
9410.2,-10.601,-11.973
9421.9,-9.0364,-13.913
9433.6,-5.7626,-12.298
9445.3,-2.915,-9.2124
9457,-5.1441,-13.571
9468.8,-6.7359,-14.489
9480.5,-7.3751,-13.75
9492.2,-8.3781,-14.234
9503.9,-6.5787,-12.199
9515.6,-10.365,-13.704
9527.3,-9.3756,-10.921
9539.1,-7.1229,-8.8278
9550.8,-7.1051,-10.132
9562.5,-7.32,-9.8738
9574.2,-8.3368,-10.62
9585.9,-9.5614,-14.5
9597.7,-9.3976,-11.863
9609.4,-6.1721,-11.272
9621.1,-9.8994,-11.436
9632.8,-10.743,-11.393
9644.5,-11.262,-10.895
9656.3,-10.522,-11.05
9668,-6.7093,-11.82
9679.7,-6.3808,-11.267
9691.4,-10.044,-11.853
9703.1,-8.8971,-11.569
9714.8,-7.0603,-11.312
9726.6,-9.187,-11.079
9738.3,-10.011,-10.5
9750,-8.87,-11.457
9761.7,-10.07,-11.458
9773.4,-9.2536,-12.082
9785.2,-10.031,-10.402
9796.9,-11.032,-9.8444
9808.6,-11.815,-10.031
9820.3,-11.602,-11.182
9832,-11.623,-10.149
9843.8,-8.5275,-11.288
9855.5,-5.2702,-12.63
9867.2,-6.7481,-13.448
9878.9,-7.1874,-12.588
9890.6,-7.6505,-13.387
9902.3,-7.1664,-12.25
9914.1,-7.3833,-13.656
9925.8,-8.417,-12.604
9937.5,-9.0539,-12.239
9949.2,-9.3926,-12.237
9960.9,-9.0121,-11.555
9972.7,-12.947,-10.447
9984.4,-13.42,-9.9229
9996.1,-12.248,-8.1619
10008,-10.253,-9.6395
10020,-11.812,-12.217
10031,-9.5067,-12.285
10043,-8.7044,-11.028
10055,-8.0846,-12.152
10066,-10.187,-9.7655
10078,-9.4286,-11.401
10090,-9.3036,-12.314
10102,-10.226,-9.4636
10113,-11.99,-10.24
10125,-13.45,-9.739
10137,-14.528,-9.6324
10148,-12.889,-10.14
10160,-9.5299,-9.6543
10172,-9.4338,-10.759
10184,-8.9797,-12.355
10195,-10.38,-11.711
10207,-8.9852,-12.549
10219,-8.4898,-11.572
10230,-7.2686,-10.318
10242,-7.4001,-10.599
10254,-8.4565,-12.983
10266,-6.9421,-13.472
10277,-8.09,-12.479
10289,-8.8131,-12.64
10301,-9.6927,-12.281
10313,-11.029,-11.596
10324,-9.6985,-11.719
10336,-7.6239,-10.727
10348,-7.6413,-8.125
10359,-8.7368,-9.1653
10371,-8.3455,-14.196
10383,-7.7564,-11.254
10395,-7.0119,-9.0878
10406,-7.2319,-13.667
10418,-7.8617,-17.493
10430,-10.132,-13.426
10441,-6.1548,-9.4572
10453,-2.0064,-10.791
10465,-4.3357,-12.267
10477,-5.4875,-14.175
10488,-6.9551,-14.686
10500,-8.5937,-14.392
10512,-7.0115,-14.372
10523,-4.7961,-11.399
10535,-2.9174,-11.934
10547,-5.5279,-12.096
10559,-7.5123,-11.354
10570,-5.9708,-11.511
10582,-5.7356,-11.14
10594,-6.0138,-11.758
10605,-6.6236,-9.3773
10617,-5.6634,-10.463
10629,-3.4696,-10.961
10641,-0.48559,-10.835
10652,-2.4076,-12.171
10664,-5.4358,-11.569
10676,-3.0776,-9.3048
10688,-2.384,-10.753
10699,-3.8853,-14.331
10711,-3.4291,-12.607
10723,-2.5281,-13.601
10734,-0.45065,-11.144
10746,1.0088,-11.153
10758,0.6503,-12.133
10770,-2.0246,-12.245
10781,-1.664,-13.211
10793,-1.0002,-10.409
10805,-1.8943,-10.871
10816,-2.5717,-14.838
10828,-3.0431,-12.905
10840,-2.4868,-11.376
10852,-0.47961,-11.553
10863,-0.76862,-13.214
10875,1.3415,-11.594
10887,0.1015,-10.854
10898,-2.2304,-11.223
10910,-2.5546,-11.822
10922,-2.6013,-13.873
10934,-0.87005,-9.9628
10945,0.34598,-8.9048
10957,-0.98112,-10.221
10969,-0.15256,-12.906
10980,1.0861,-13.783
10992,1.1096,-11.501
11004,-0.16487,-10.521
11016,-0.4765,-11.603
11027,-0.62472,-11.611
11039,2.2896,-10.751
11051,3.4489,-12.517
11063,2.4801,-11.158
11074,3.2331,-9.6635
11086,2.2106,-12.732
11098,-2.1296,-11.487
11109,-0.44458,-9.6363
11121,1.5388,-9.1583
11133,0.19828,-10.993
11145,3.6997,-12.959
11156,4.5153,-10.73
11168,2.3169,-11.811
11180,4.6805,-11.348
11191,2.2254,-9.7535
11203,0.70838,-10.848
11215,3.3156,-12.615
11227,4.2829,-12.299
11238,5.0817,-10.136
11250,7.5386,-10.864
11262,4.8147,-13.781
11273,2.4276,-13.055
11285,3.9213,-11.935
11297,3.3001,-11.415
11309,4.325,-13.577
11320,3.7241,-14.37
11332,2.8064,-11.607
11344,3.2336,-9.6166
11355,3.7132,-13.257
11367,2.1478,-14.277
11379,3.8508,-11.514
11391,1.8745,-9.6402
11402,4.6666,-7.3089
11414,3.6423,-8.3781
11426,4.3595,-12.017
11438,4.6294,-10.871
11449,4.2879,-10.701
11461,5.9065,-12.969
11473,5.892,-10.847
11484,6.1188,-10.417
11496,3.7413,-14.118
11508,1.513,-12.273
11520,4.5015,-12.71
11531,6.6932,-12.462
11543,2.5712,-10.872
11555,2.8466,-10.967
11566,3.009,-12.742
11578,4.8123,-11.226
11590,3.2435,-9.6922
11602,1.2725,-11.917
11613,3.6236,-10.237
11625,2.8009,-12.456
11637,4.1679,-11.412
11648,4.9095,-12.103
11660,6.9214,-10.982
11672,4.5838,-11.939
11684,4.2686,-9.8219
11695,4.9533,-9.4091
11707,3.387,-9.704
11719,3.8156,-10.745
11730,3.5478,-11.062
11742,4.1586,-9.7848
11754,2.1315,-8.5775
11766,4.4936,-8.5615
11777,3.7037,-10.599
11789,-0.50652,-8.9835
11801,1.2049,-9.356
11813,4.1336,-11.761
11824,5.0642,-10.214
11836,2.0672,-11.588
11848,2.8107,-14.835
11859,4.5468,-11.565
11871,4.8431,-11.345
11883,3.5157,-11.656
11895,1.8031,-11.514
11906,0.99027,-14.297
11918,1.94,-15.078
11930,0.93519,-13.551
11941,2.8406,-13.642
11953,4.0058,-11.93
11965,4.423,-10.838
11977,3.5207,-10.754
11988,3.8178,-13.424
12000,3.4013,-11.934
12012,4.4266,-11.13
12023,6.3953,-10.856
12035,4.484,-12.466
12047,-0.34972,-14.883
12059,1.9488,-12.98
12070,5.2194,-14.099
12082,2.5214,-16.407
12094,3.1124,-11.596
12105,5.9299,-10.425
12117,4.1922,-10.476
12129,2.742,-10.611
12141,3.4853,-10.943
12152,5.8389,-12.542
12164,7.7313,-10.981
12176,3.8788,-11.69
12188,3.974,-12.434
12199,4.2028,-11.911
12211,4.6925,-11.006
12223,7.0955,-12.193
12234,6.3598,-12.713
12246,4.7926,-11.86
12258,6.3047,-12.787
12270,6.4148,-11.94
12281,4.1356,-12.737
12293,7.1985,-14.834
12305,7.2914,-11.07
12316,8.0597,-7.3464
12328,7.258,-8.823
12340,5.2051,-11.366
12352,5.078,-10.32
12363,5.8259,-11.661
12375,5.3564,-12.448
12387,1.2667,-11.862
12398,3.365,-11.369
12410,3.1902,-13.389
12422,3.6129,-14.475
12434,2.0893,-14.108
12445,5.9081,-9.1389
12457,7.7713,-9.6647
12469,4.278,-12.879
12480,5.8644,-14.777
12492,6.8652,-13.068
12504,5.7671,-12.351
12516,4.8565,-10.431
12527,4.4188,-11.472
12539,2.4427,-13.662
12551,2.393,-11.083
12563,5.1133,-12.425
12574,3.8341,-13.397
12586,4.9419,-14.113
12598,3.6654,-13.32
12609,4.2921,-11.085
12621,3.0076,-10.225
12633,4.2876,-12.245
12645,2.4106,-12.647
12656,2.032,-13.4
12668,4.3127,-14.115
12680,4.3804,-12.583
12691,2.8677,-12.637
12703,3.2576,-12.655
12715,2.0543,-12.989
12727,1.9207,-12.895
12738,5.341,-14.069
12750,4.0779,-13.698
12762,2.8176,-13.788
12773,3.9587,-13.204
12785,3.5824,-14.133
12797,5.1035,-12.73
12809,7.4084,-12.083
12820,4.4995,-12.611
12832,3.862,-13.925
12844,6.3474,-11.535
12855,6.8198,-10.665
12867,7.5188,-15.544
12879,6.5201,-14.481
12891,4.3846,-12.616
12902,4.2519,-12.798
12914,6.3913,-13.813
12926,4.4809,-13.856
12938,5.0763,-14.861
12949,3.7029,-15.222
12961,2.3653,-14.383
12973,3.0336,-15.849
12984,2.3892,-14.081
12996,2.7172,-14.693
13008,3.1705,-13.58
13020,3.9104,-12.932
13031,4.5081,-13.249
13043,6.915,-15.221
13055,6.5762,-10.932
13066,5.7212,-11.039
13078,6.3905,-12.103
13090,5.0539,-11.961
13102,7.2583,-12.586
13113,8.5581,-12.721
13125,5.9332,-12.116
13137,6.1709,-13.395
13148,7.1797,-12.861
13160,5.7534,-11.445
13172,4.4877,-11.007
13184,1.5949,-15.816
13195,1.1631,-17.32
13207,5.0746,-14.942
13219,5.0516,-13.299
13230,1.7462,-13.668
13242,2.7355,-12.153
13254,1.1194,-15.845
13266,-0.4308,-15.303
13277,1.1619,-13.746
13289,0.90666,-12.822
13301,1.005,-14.393
13313,4.1314,-15.845
13324,3.9992,-15.88
13336,5.0332,-14.601
13348,5.9315,-12.788
13359,2.7616,-12.699
13371,1.1105,-17.072
13383,1.7603,-12.768
13395,1.9677,-12.124
13406,4.1908,-16.063
13418,5.1047,-17.862
13430,2.4922,-14.569
13441,3.2161,-14.674
13453,6.5482,-16.842
13465,5.5726,-17.113
13477,3.2359,-17.34
13488,2.3423,-17.661
13500,3.147,-16.099
13512,2.1722,-17.687
13523,0.75117,-13.924
13535,-0.27644,-12.305
13547,0.31706,-15.381
13559,0.46973,-16.467
13570,1.0189,-16.607
13582,1.9057,-17.417
13594,1.192,-15.536
13605,1.3302,-18.888
13617,2.0702,-15.248
13629,1.2425,-13.064
13641,0.87582,-13.212
13652,0.21031,-13.533
13664,2.6813,-12.437
13676,2.134,-14.279
13688,-0.84027,-18.961
13699,-1.4903,-18.237
13711,1.2242,-16.052
13723,2.8171,-15.583
13734,2.416,-15.303
13746,1.6099,-15.495
13758,-0.13782,-14.363
13770,1.6029,-14.751
13781,-0.12173,-16.667
13793,-1.511,-14.936
13805,-1.0057,-14.967
13816,0.16032,-15.145
13828,-1.1213,-12.9
13840,-2.2014,-14.96
13852,-1.8374,-18.913
13863,-0.58357,-17.826
13875,-0.12362,-15.2
13887,0.22762,-15.029
13898,1.5942,-14.808
13910,-0.75722,-16.163
13922,-1.247,-17.865
13934,0.24215,-15.803
13945,-2.0039,-14.241
13957,-3.1866,-13.646
13969,-0.92814,-14.087
13980,-2.1297,-13.624
13992,-0.84141,-14.425
14004,-0.87566,-12.92
14016,-2.1958,-16.623
14027,1.9424,-15.644
14039,2.0061,-13.394
14051,0.20224,-16.239
14063,0.77752,-17.866
14074,-0.77175,-16.848
14086,-2.4186,-14.861
14098,-2.5348,-16.362
14109,-2.9835,-16.987
14121,-1.917,-15.414
14133,0.36407,-19.014
14145,-0.35293,-15.644
14156,0.52362,-12.978
14168,-2.2842,-16.659
14180,-2.454,-15.435
14191,-1.0138,-15.909
14203,-1.8963,-18.706
14215,-3.9944,-17.337
14227,-3.0525,-16.711
14238,-3.6529,-14.034
14250,-2.4322,-13.567
14262,-2.2781,-15.288
14273,-3.4702,-15.191
14285,-4.8245,-19.499
14297,-3.4721,-17.372
14309,-4.8435,-17.788
14320,-6.1524,-15.957
14332,-3.6136,-15.2
14344,-1.6818,-14.764
14355,-4.5906,-16.121
14367,-1.9489,-15.991
14379,-1.8282,-13.416
14391,-3.748,-16.282
14402,-5.057,-16.562
14414,-6.1651,-16.296
14426,-3.9953,-18.458
14438,-1.5445,-15.948
14449,-3.1656,-15.345
14461,-2.5796,-15.564
14473,-2.3588,-15.568
14484,-2.977,-16.686
14496,-3.5899,-15.494
14508,-2.3359,-15.513
14520,-3.1664,-16.702
14531,-5.3015,-17.121
14543,-3.7142,-19.526
14555,-2.9088,-16.663
14566,-3.1755,-16.912
14578,-3.7597,-17.149
14590,-4.3623,-17.739
14602,-3.6668,-16.363
14613,-4.3796,-19.26
14625,-6.2496,-19.627
14637,-5.0339,-16.21
14648,-3.2783,-17.543
14660,-4.1878,-17.843
14672,-4.2717,-16.366
14684,-3.8398,-17.381
14695,-3.7532,-18.206
14707,-3.9503,-19.836
14719,-2.0856,-19.419
14730,-1.3232,-18.386
14742,-2.4691,-15.811
14754,-2.812,-15.636
14766,-3.4769,-17.606
14777,-4.8871,-20.571
14789,-3.4614,-19.73
14801,-3.6014,-20.022
14813,-2.4894,-20.162
14824,-3.3055,-20.527
14836,-4.9777,-18.02
14848,-2.7255,-18.371
14859,-1.5343,-17.432
14871,-2.9987,-17.91
14883,-3.9604,-18.821
14895,-3.3353,-19.919
14906,-3.2116,-19.34
14918,-1.3548,-17.144
14930,-3.1923,-16.016
14941,-2.4058,-15.71
14953,-3.1257,-15.594
14965,-3.3629,-15.22
14977,-1.3647,-16.94
14988,-0.84945,-17.452
15000,-1.3785,-16.402
15012,-1.1647,-15.65
15023,-0.73076,-15.052
15035,-0.60793,-16.523
15047,-2.886,-17.218
15059,-7.2041,-16.083
15070,-4.5432,-14.715
15082,-3.6748,-16.15
15094,-7.0896,-19.148
15105,-6.2491,-19.42
15117,-4.6573,-18.312
15129,-5.2477,-18.689
15141,-3.7213,-19.125
15152,-2.3398,-16.703
15164,-2.8919,-15.26
15176,-3.9719,-15.726
15188,-2.7554,-18.978
15199,-2.599,-20.025
15211,-2.8657,-17.81
15223,-2.2456,-17.17
15234,-1.819,-18.383
15246,0.17951,-19.459
15258,1.1216,-19.569
15270,-0.77531,-20.034
15281,-0.77825,-20.191
15293,-0.30536,-18.745
15305,1.4612,-18.792
15316,2.644,-18.719
15328,0.69915,-15.867
15340,-2.0531,-17.215
15352,-3.3081,-17.085
15363,-4.0681,-19.808
15375,-3.9962,-21.121
15387,-2.8313,-21.007
15398,-2.284,-20.142
15410,-2.1486,-19.531
15422,-1.965,-20.249
15434,-3.8698,-17.613
15445,-5.8976,-17.631
15457,-6.7351,-19.798
15469,-4.9876,-19.265
15480,-7.1159,-22.267
15492,-6.2609,-20.413
15504,-5.9737,-15.512
15516,-6.1348,-18.81
15527,-5.181,-18.345
15539,-4.837,-17.98
15551,-6.3506,-18.14
15563,-6.0672,-16.867
15574,-4.6902,-17.408
15586,-2.2034,-16.115
15598,-3.4842,-19.497
15609,-2.8721,-18.345
15621,-4.2481,-19.133
15633,-5.2076,-19.93
15645,-7.0604,-18.835
15656,-10.908,-17.458
15668,-8.2363,-15.821
15680,-5.1181,-16.316
15691,-5.8285,-19.158
15703,-6.8544,-20.953
15715,-7.0094,-21.117
15727,-7.5987,-20.23
15738,-4.7264,-19.516
15750,-6.2221,-20.783
15762,-6.0926,-18.975
15773,-4.2246,-21.052
15785,-6.3466,-21.965
15797,-9.459,-20.166
15809,-7.4177,-18.773
15820,-5.3274,-17.868
15832,-7.0226,-16.772
15844,-8.2871,-17.242
15855,-7.6911,-18.429
15867,-8.2666,-21.068
15879,-7.1831,-19.569
15891,-7.017,-17.589
15902,-8.7101,-17.678
15914,-7.6403,-21.349
15926,-8.5476,-20.811
15938,-11.965,-23.19
15949,-9.9548,-22.942
15961,-8.6256,-21.812
15973,-11.554,-21.774
15984,-11.858,-21.37
15996,-10.867,-20.069
16008,-11.671,-18.334
16020,-10.87,-19.29
16031,-11.239,-21.841
16043,-10.502,-19.479
16055,-9.6514,-16.671
16066,-9.2442,-17.606
16078,-8.4255,-17.929
16090,-10.212,-19.624
16102,-10.769,-24.257
16113,-10.218,-18.821
16125,-10.305,-17.943
16137,-9.5529,-20.53
16148,-9.9447,-22.181
16160,-10.189,-21.231
16172,-11.487,-21.182
16184,-13.997,-21.268
16195,-12.536,-20.863
16207,-10.505,-15.912
16219,-13.478,-17.997
16230,-15.74,-20.804
16242,-12.23,-18.412
16254,-10.327,-16.871
16266,-10.124,-15.964
16277,-11.686,-16.982
16289,-10.803,-18.78
16301,-10.47,-18.889
16313,-9.4575,-18.666
16324,-10.396,-18.933
16336,-10.8,-20.709
16348,-11.475,-20.805
16359,-13.104,-21.675
16371,-11.126,-22.279
16383,-11.716,-21.614
16395,-11.976,-19.021
16406,-11.008,-17.332
16418,-12.903,-17.533
16430,-11.913,-19.511
16441,-11.895,-21.337
16453,-13.243,-20.267
16465,-11.434,-18.517
16477,-9.6641,-21.708
16488,-11.995,-23.357
16500,-11.115,-20.791
16512,-9.4869,-19.952
16523,-11.455,-20.34
16535,-13.547,-20.514
16547,-12.249,-23.285
16559,-10.886,-24.686
16570,-12.979,-23.312
16582,-13.777,-20.727
16594,-11.47,-21.184
16605,-9.3433,-22.047
16617,-9.2913,-21.343
16629,-9.7758,-19.712
16641,-13.185,-16.456
16652,-13.339,-17.097
16664,-11.1,-20.449
16676,-12.531,-22.805
16688,-14.735,-24.584
16699,-13.404,-24.001
16711,-10.994,-22.228
16723,-9.899,-22.462
16734,-10.954,-22.264
16746,-12.727,-21.542
16758,-12.793,-22.625
16770,-13.192,-23.18
16781,-10.178,-22.729
16793,-10.693,-21.414
16805,-11.424,-18.777
16816,-11.545,-20.375
16828,-12.947,-19.061
16840,-10.983,-19.87
16852,-10.309,-20.739
16863,-12.37,-21.569
16875,-11.108,-20.031
16887,-9.2002,-21.231
16898,-8.2328,-23.898
16910,-8.6795,-23.963
16922,-13.28,-21.499
16934,-13.117,-20.367
16945,-11.139,-20.226
16957,-10.714,-21.659
16969,-11.196,-22.161
16980,-13.786,-21.665
16992,-10.874,-20.898
17004,-10.179,-20.07
17016,-11.403,-21.087
17027,-14.356,-24.561
17039,-12.421,-20.067
17051,-11.256,-21.276
17063,-10.064,-24.564
17074,-11.645,-23.533
17086,-11.579,-23.735
17098,-10.747,-23.075
17109,-11.205,-22.775
17121,-12.807,-19.578
17133,-11.587,-19.647
17145,-11.815,-19.795
17156,-12.385,-20.55
17168,-11.106,-22.767
17180,-11.227,-23.495
17191,-12.527,-22.041
17203,-11.615,-22.763
17215,-10.789,-20.775
17227,-11.171,-22.651
17238,-10.185,-21.717
17250,-12.337,-20.941
17262,-13.239,-22.27
17273,-12.225,-22.268
17285,-11.044,-21.15
17297,-10.901,-20.447
17309,-11.139,-20.161
17320,-11.84,-23.03
17332,-12.493,-22.586
17344,-12.394,-20.261
17355,-12.503,-23.392
17367,-13.53,-20.055
17379,-10.453,-22.906
17391,-9.7888,-20.261
17402,-8.8803,-19.965
17414,-9.6515,-20.724
17426,-12.579,-25.86
17438,-13.362,-20.122
17449,-13.478,-19.587
17461,-14.622,-23.638
17473,-10.885,-25.859
17484,-11.052,-22.941
17496,-13.365,-20.802
17508,-12.436,-21.246
17520,-13.135,-23.1
17531,-9.6372,-21.099
17543,-6.9722,-21.979
17555,-8.3338,-21.081
17566,-8.5433,-20.728
17578,-10.971,-21.503
17590,-14.747,-23.947
17602,-11.873,-21.163
17613,-13.086,-22.182
17625,-10.659,-19.371
17637,-9.5061,-19.022
17648,-10.118,-20.53
17660,-11.257,-22.497
17672,-8.013,-21.754
17684,-12.218,-21.422
17695,-8.9443,-22.405
17707,-11.822,-20.427
17719,-11.23,-20.886
17730,-11.302,-22.574
17742,-11.909,-22.974
17754,-10.625,-22.555
17766,-13.285,-21.001
17777,-11.548,-20.214
17789,-12.663,-22.405
17801,-10.727,-22.733
17813,-10.117,-22.303
17824,-10.805,-22.539
17836,-10.032,-21.88
17848,-9.5752,-19.775
17859,-10.99,-23.026
17871,-12.317,-23.087
17883,-9.9359,-23.558
17895,-9.6352,-25.569
17906,-9.4696,-22.36
17918,-8.9298,-20.912
17930,-10.015,-22.48
17941,-11.22,-22.729
17953,-13.897,-26.075
17965,-14.566,-24.608
17977,-11.694,-22.735
17988,-11.366,-23.775
18000,-10.027,-20.812
18012,-10.879,-20.881
18023,-12.894,-22.801
18035,-12.39,-23.123
18047,-12.64,-22.199
18059,-14.141,-22.036
18070,-13.239,-24.711
18082,-12.271,-24.07
18094,-12.561,-21.836
18105,-13.183,-24.357
18117,-11.673,-22.005
18129,-10.678,-21.183
18141,-12.182,-20.206
18152,-14.688,-18.876
18164,-14.935,-21.785
18176,-12.744,-24.752
18188,-10.966,-25.337
18199,-11.756,-27.66
18211,-12.074,-27.261
18223,-10.602,-22.504
18234,-10.318,-20.096
18246,-12.523,-21.955
18258,-14.613,-24.84
18270,-15.263,-23.298
18281,-16.387,-22.162
18293,-13.73,-20.989
18305,-12.13,-21.166
18316,-10.711,-24.179
18328,-12.397,-21.886
18340,-14.13,-21.19
18352,-15.543,-20.998
18363,-15.54,-21.019
18375,-14.45,-23.081
18387,-17.73,-22.956
18398,-15.081,-21.526
18410,-12.014,-20.312
18422,-13.024,-23.455
18434,-15.55,-23.278
18445,-13.597,-23.088
18457,-9.8844,-23.893
18469,-11.072,-21.619
18480,-10.514,-23.939
18492,-11.634,-24.08
18504,-14.588,-22.292
18516,-13.028,-26.27
18527,-13.887,-26.337
18539,-14.881,-23.827
18551,-12.955,-23.946
18563,-13.545,-24.675
18574,-15.967,-24.041
18586,-14.509,-24.875
18598,-12.137,-24.567
18609,-14.064,-22.916
18621,-15.839,-22.994
18633,-15.247,-25.877
18645,-16.611,-23.592
18656,-15.602,-22.319
18668,-15.471,-21.838
18680,-18.224,-23.286
18691,-16.531,-27.102
18703,-13.63,-24.369
18715,-13.774,-22.8
18727,-11.787,-24.356
18738,-13.681,-23.207
18750,-13.765,-23.969
18762,-16.802,-24.581
18773,-14.167,-21.642
18785,-15.22,-22.346
18797,-14.401,-24.932
18809,-14.358,-25.697
18820,-15.343,-26.741
18832,-15.875,-21.958
18844,-14.947,-19.825
18855,-15.097,-20.333
18867,-17.544,-22.816
18879,-18.534,-22.864
18891,-17.771,-25.787
18902,-14.926,-26.564
18914,-14.015,-21.421
18926,-14.58,-21.982
18938,-14.604,-26.114
18949,-15.44,-23.493
18961,-15.147,-24.144
18973,-13.06,-23.538
18984,-12.811,-25.976
18996,-15.206,-20.553
19008,-14.892,-21.501
19020,-13.642,-22.308
19031,-14.627,-23.959
19043,-15.234,-25.116
19055,-18.169,-22.533
19066,-17.226,-20.315
19078,-16.451,-24.553
19090,-16.466,-22.81
19102,-14.854,-21.716
19113,-16.482,-23.288
19125,-17.105,-25.362
19137,-17.951,-27.858
19148,-16.63,-25.459
19160,-15.736,-26.298
19172,-16.049,-23.695
19184,-18.804,-20.774
19195,-19.143,-22.258
19207,-16.651,-25.059
19219,-18.196,-28.973
19230,-18.219,-26.426
19242,-14.618,-26.849
19254,-14.876,-23.484
19266,-15.691,-23.03
19277,-18.384,-25.219
19289,-19.872,-24.317
19301,-17.931,-23.27
19313,-17.085,-27.341
19324,-18.138,-28.304
19336,-17.302,-23.525
19348,-19.779,-23.203
19359,-19.136,-25.93
19371,-17.394,-27.854
19383,-17.325,-24.639
19395,-17.211,-24.852
19406,-15.475,-25.598
19418,-15.65,-28.803
19430,-19.694,-25.25
19441,-19.281,-23.521
19453,-18.724,-25.12
19465,-18.438,-25.773
19477,-19.769,-25.258
19488,-19.339,-23.114
19500,-17.565,-23.574
19512,-18.041,-25.906
19523,-19.335,-31.471
19535,-19.546,-26.6
19547,-22.655,-27.184
19559,-23.04,-25.801
19570,-20.556,-23.469
19582,-18.252,-26.664
19594,-16.389,-26.243
19605,-17.991,-24.67
19617,-17.289,-27.508
19629,-19.088,-27.533
19641,-20.919,-26.831
19652,-23.064,-26.341
19664,-19.076,-28.878
19676,-18.614,-25.248
19688,-19.29,-23.65
19699,-18.6,-23.333
19711,-18.791,-24.125
19723,-18.026,-24.894
19734,-17.496,-26.516
19746,-16.973,-25.421
19758,-20.026,-26.811
19770,-20.767,-28.286
19781,-20.657,-27.131
19793,-19.178,-23.284
19805,-20.249,-21.637
19816,-23.108,-22.995
19828,-24.295,-22.353
19840,-20.337,-26.844
19852,-19.822,-24.764
19863,-19.393,-25.951
19875,-19.826,-27.292
19887,-19.534,-25.165
19898,-18.05,-25.007
19910,-18.042,-25.825
19922,-19.565,-24.685
19934,-20.495,-26.93
19945,-20.204,-24.27
19957,-21.398,-25.841
19969,-18.623,-23.876
19980,-19.285,-23.864
19992,-21.143,-25.729
20004,-19.536,-24.814
20016,-18.478,-25.443
20027,-20.334,-23.356
20039,-22.558,-25.922
20051,-18.331,-25.514
20063,-20.268,-27.897
20074,-22.058,-26.199
20086,-20.503,-25.571
20098,-19.354,-27.189
20109,-18.84,-24.606
20121,-20.967,-23.387
20133,-23.151,-29.598
20145,-21.769,-24.451
20156,-20.649,-24.225
20168,-21.269,-26.483
20180,-18.881,-27.834
20191,-18.215,-25.169
20203,-19.734,-26.173
20215,-20.796,-26.934
20227,-21.626,-27.626
20238,-21.801,-26.28
20250,-19.248,-23.985
20262,-21.06,-23.131
20273,-21.704,-25.248
20285,-20.055,-24.476
20297,-20.617,-22.326
20309,-20.284,-23.233
20320,-22.16,-23.624
20332,-21.956,-24.249
20344,-22.52,-25.656
20355,-22.722,-23.86
20367,-23.469,-26.276
20379,-22.339,-24.329
20391,-19.805,-22.437
20402,-21.912,-24.065
20414,-19.606,-22.819
20426,-20.007,-23.7
20438,-22.241,-24.343
20449,-22.782,-25.09
20461,-22.352,-26.542
20473,-21.335,-26.364
20484,-24.287,-24.179
20496,-22.287,-24.633
20508,-22.891,-26.799
20520,-19.977,-26.562
20531,-22.643,-27.072
20543,-24.154,-26.114
20555,-23.734,-26.84
20566,-24.022,-28.164
20578,-23.881,-28.035
20590,-23.062,-26.768
20602,-24.277,-29.135
20613,-27.626,-26.919
20625,-23.147,-28.823
20637,-25.05,-26.423
20648,-21.784,-25.221
20660,-22.974,-25.795
20672,-24.398,-25.873
20684,-23.868,-25.804
20695,-22.826,-25.574
20707,-22.534,-29.304
20719,-22.143,-26.969
20730,-22.146,-24.74
20742,-22.749,-25.009
20754,-25.898,-24.994
20766,-24.145,-25.308
20777,-24.287,-25.521
20789,-24.552,-25.472
20801,-24.652,-24.385
20813,-22.458,-25.557
20824,-22.236,-26.975
20836,-23.364,-25.078
20848,-22.938,-24.894
20859,-21.104,-25.829
20871,-19.701,-25.248
20883,-20.94,-23.636
20895,-20.41,-26.055
20906,-19.957,-26.463
20918,-21.896,-23.492
20930,-25.373,-23.227
20941,-24.761,-24.367
20953,-23.253,-25.625
20965,-24.277,-26.782
20977,-24.575,-26.587
20988,-26.354,-25.049
21000,-24.854,-22.738
21012,-23.394,-25.382
21023,-23.886,-29.31
21035,-22.777,-28.04
21047,-21.48,-29.903
21059,-22.514,-28.241
21070,-21.629,-26.764
21082,-23.897,-29.478
21094,-23.353,-25.099
21105,-24.173,-24.933
21117,-23.822,-26.512
21129,-24.87,-26.215
21141,-22.103,-26.022
21152,-20.641,-26.421
21164,-20.354,-27.213
21176,-21.32,-30.026
21188,-22.704,-27.883
21199,-21.572,-28.413
21211,-22.297,-28.839
21223,-22.697,-25.029
21234,-23.032,-24.225
21246,-24.034,-25.965
21258,-23.902,-25.923
21270,-22.913,-26.192
21281,-22.826,-25.192
21293,-23.427,-26.167
21305,-23.692,-26.809
21316,-26.173,-26.607
21328,-22.331,-25.52
21340,-20.527,-27.884
21352,-21.099,-27.482
21363,-23.5,-25.851
21375,-22.099,-27.503
21387,-22.208,-28.127
21398,-22.628,-28.95
21410,-21.197,-29.953
21422,-23.247,-29.952
21434,-26.203,-27.212
21445,-22.646,-27.778
21457,-22.864,-27.926
21469,-23.386,-27.316
21480,-25.477,-28.135
21492,-29.007,-29.101
21504,-26.772,-28.612
21516,-23.95,-28.028
21527,-22.342,-28.145
21539,-22.094,-27.167
21551,-20.603,-26.19
21563,-23.639,-29.929
21574,-26.6,-25.339
21586,-25.796,-27.04
21598,-23.962,-26.599
21609,-23.672,-26.272
21621,-24.793,-29.23
21633,-20.801,-26.325
21645,-21.575,-28.101
21656,-26.763,-29.139
21668,-24.65,-28.204
21680,-25.713,-26.702
21691,-25.928,-26.234
21703,-27.613,-26.794
21715,-25.246,-27.112
21727,-25.091,-28.046
21738,-25.634,-28.889
21750,-23.752,-31.111
21762,-23.935,-29.886
21773,-26.122,-27.233
21785,-26.536,-27.451
21797,-26.46,-27.123
21809,-28.741,-27.186
21820,-25.184,-28.806
21832,-25.3,-26.397
21844,-25.764,-26.023
21855,-24.122,-28.099
21867,-26.78,-28.272
21879,-27.275,-26.784
21891,-26.713,-24.836
21902,-26.171,-25.08
21914,-25.457,-26.627
21926,-25.819,-29.17
21938,-28.377,-27.984
21949,-24.191,-27.535
21961,-23.031,-24.375
21973,-27.732,-25.946
21984,-25.842,-26.88
21996,-28.173,-23.707
22008,-28.761,-24.412
22020,-26.178,-27.718
22031,-25.977,-28.5
22043,-28.067,-28.057
22055,-26.668,-27.557
22066,-26.417,-25.019
22078,-25.131,-23.564
22090,-23.396,-25.544
22102,-24.958,-30.882
22113,-25.318,-30.871
22125,-24.602,-27.754
22137,-24.904,-27.775
22148,-27.204,-25.923
22160,-26.035,-26.552
22172,-26.851,-26.773
22184,-25.447,-24.25
22195,-25.264,-24.26
22207,-25.075,-26.155
22219,-26.326,-28.391
22230,-24.826,-26.957
22242,-28.911,-24.77
22254,-28.097,-26.962
22266,-27.104,-30.415
22277,-28.331,-30.126
22289,-26.906,-28.221
22301,-26.586,-28.198
22313,-28.24,-27.897
22324,-29.038,-25.951
22336,-27.989,-27.068
22348,-26.281,-28.506
22359,-24.325,-31.52
22371,-27.756,-30.669
22383,-30.388,-28.429
22395,-26.272,-27.453
22406,-25.332,-28.23
22418,-27.385,-24.881
22430,-25.884,-25.198
22441,-25.658,-27.107
22453,-25.882,-28.286
22465,-25.812,-28.612
22477,-23.116,-26.623
22488,-22.401,-25.353
22500,-22.059,-29.24
22512,-23.146,-30.739
22523,-28.915,-31.961
22535,-26.444,-28.886
22547,-24.374,-25.506
22559,-28.183,-25.865
22570,-27.154,-25.868
22582,-25.683,-27.156
22594,-27.447,-27.026
22605,-31.078,-26.927
22617,-27.628,-28.467
22629,-26.666,-30.143
22641,-26.089,-29.758
22652,-25.877,-26.145
22664,-24.399,-26.967
22676,-27.551,-29.504
22688,-28.595,-32.939
22699,-22.991,-31.026
22711,-24.615,-32.656
22723,-25.841,-28.406
22734,-23.656,-28.439
22746,-26.986,-31.665
22758,-25.979,-29.472
22770,-25.053,-29.301
22781,-27.335,-28.775
22793,-27.608,-27.821
22805,-25.033,-27.467
22816,-25.279,-29.094
22828,-27.346,-28.168
22840,-26.972,-27.809
22852,-25.413,-29.752
22863,-25.56,-30.959
22875,-25.894,-30.594
22887,-27.781,-30.768
22898,-25.374,-28.296
22910,-24.629,-26.908
22922,-23.132,-30.344
22934,-21.569,-28.22
22945,-23.61,-28
22957,-25.292,-28.725
22969,-25.351,-28.483
22980,-23.111,-28.647
22992,-23.916,-29.794
23004,-26.343,-29.002
23016,-24.31,-29.782
23027,-26.426,-29.02
23039,-25.601,-24.731
23051,-24.973,-25.71
23063,-27.911,-30.279
23074,-25.707,-28.395
23086,-25.702,-28.293
23098,-28.664,-28.761
23109,-26.563,-29.887
23121,-26.132,-29.617
23133,-26.264,-30.155
23145,-26.293,-27.362
23156,-24.313,-28.595
23168,-24.088,-30.323
23180,-25.419,-30.086
23191,-25.662,-28.768
23203,-26.917,-29.843
23215,-25.668,-28.984
23227,-25.964,-27.23
23238,-25.264,-29.401
23250,-25.53,-30.477
23262,-25.788,-28.433
23273,-25.905,-26.201
23285,-25.876,-29.006
23297,-29.469,-28.454
23309,-27.408,-28.311
23320,-25.506,-29.189
23332,-27.543,-29.891
23344,-29.335,-31.954
23355,-25.89,-31.738
23367,-27.512,-29.323
23379,-25.999,-27.835
23391,-24.084,-25.934
23402,-24.81,-26.496
23414,-24.71,-26.735
23426,-24.932,-29.4
23438,-26.69,-27.865
23449,-24.286,-27.105
23461,-23.89,-28.407
23473,-23.735,-28.492
23484,-25.243,-28.252
23496,-24.693,-29.53
23508,-26.597,-30.245
23520,-25.933,-27.701
23531,-26.252,-27.527
23543,-24.231,-26.266
23555,-24.471,-27.192
23566,-24.984,-26.842
23578,-24.579,-24.776
23590,-24.441,-26.245
23602,-28.145,-29.324
23613,-28.997,-32.229
23625,-26.795,-31.815
23637,-25.661,-26.463
23648,-24.714,-29.784
23660,-24.318,-26.556
23672,-27.068,-26.556
23684,-25.826,-28.111
23695,-25.125,-28.124
23707,-26.985,-30.85
23719,-27.785,-29.444
23730,-25.61,-27.221
23742,-24.755,-27.027
23754,-24.947,-28.01
23766,-26.561,-27.597
23777,-24.989,-26.715
23789,-24.666,-28.532
23801,-25.887,-28.363
23813,-26.096,-26.228
23824,-24.501,-26.876
23836,-25.743,-31.751
23848,-28.623,-29.106
23859,-29.295,-27.716
23871,-28.93,-28.885
23883,-27.825,-32.103
23895,-25.451,-30.031
23906,-24.188,-27.746
23918,-26.498,-28.183
23930,-28.317,-29.737
23941,-28.046,-29.341
23953,-27.477,-30.803
23965,-26.948,-28.832
23977,-24.161,-28.039
23988,-23.578,-28.404
