FFT,Power Spectrum
Frequency[Hz],Level-L[dB],Level-R[dB]
11.719,-21.604,-23.977
23.438,-3.4448,-5.6533
35.156,-1.4532,-2.8837
46.875,2.0001,0.74969
58.594,4.3205,2.0328
70.313,5.088,0.62355
82.031,6.8047,3.455
93.75,13.602,10.474
105.47,9.7786,6.6328
117.19,10.871,9.1357
128.91,9.7255,7.2538
140.63,11.116,8.83
152.34,8.4831,6.1081
164.06,2.5394,4.2202
175.78,6.3676,4.8963
187.5,14.104,11.748
199.22,12.582,9.2553
210.94,7.3787,7.5724
222.66,8.32,6.1376
234.38,9.6884,5.8694
246.09,6.6893,3.8026
257.81,5.1414,2.8966
269.53,8.5288,3.8498
281.25,7.3734,2.784
292.97,7.1727,1.2116
304.69,6.1698,3.3526
316.41,5.6616,3.8759
328.13,8.1429,2.4552
339.84,6.3624,5.0785
351.56,3.0582,6.2388
363.28,9.0691,5.8309
375,10.853,6.0713
386.72,8.069,3.82
398.44,10.008,1.9798
410.16,9.7503,4.3621
421.88,8.2134,4.5183
433.59,4.0643,3.0895
445.31,5.6464,4.0722
457.03,6.3376,3.8848
468.75,8.5168,2.8058
480.47,7.7337,2.3624
492.19,3.0962,4.7462
503.91,5.0716,2.2422
515.63,4.102,6.4517
527.34,0.95122,8.0277
539.06,6.3037,6.7177
550.78,8.3056,6.9317
562.5,8.7801,6.3353
574.22,7.0811,3.0185
585.94,6.5717,2.5231
597.66,4.2803,5.7355
609.38,3.5521,8.0189
621.09,6.6749,7.3505
632.81,7.016,7.3719
644.53,7.6227,6.3659
656.25,7.5856,4.2018
667.97,8.4801,4.4688
679.69,7.4771,3.6879
691.41,6.0202,6.322
703.13,4.4783,7.9677
714.84,4.0754,7.5238
726.56,6.1641,3.8395
738.28,5.83,6.8934
750,7.4612,6.8151
761.72,7.3923,3.8039
773.44,6.1069,6.653
785.16,7.926,5.6128
796.88,9.4455,7.6753
808.59,8.2134,8.1511
820.31,10.035,5.2015
832.03,8.9967,4.3885
843.75,8.2327,4.8392
855.47,9.9821,9.0737
867.19,7.7284,8.6451
878.91,7.503,3.1477
890.63,9.1539,6.5609
902.34,8.4346,8.7182
914.06,9.7276,8.6959
925.78,9.7712,8.0129
937.5,8.0866,5.5188
949.22,8.7894,4.8226
960.94,8.2029,7.4126
972.66,3.92,5.4879
984.38,6.1051,3.2521
996.09,3.6989,4.036
1007.8,2.6811,1.9358
1019.5,2.5969,3.6154
1031.3,2.7482,5.5568
1043,4.4732,6.8583
1054.7,5.0644,5.8433
1066.4,3.8284,5.3233
1078.1,2.8313,5.5082
1089.8,4.8121,5.6095
1101.6,5.0916,5.7421
1113.3,5.0702,5.9657
1125,7.1574,7.0716
1136.7,7.9834,5.8169
1148.4,6.668,6.1916
1160.2,5.4396,2.0654
1171.9,7.2728,1.8413
1183.6,4.6619,5.8679
1195.3,5.2373,3.5092
1207,5.26,3.7965
1218.8,6.1177,3.9064
1230.5,6.6385,3.1758
1242.2,5.8151,3.3994
1253.9,3.1709,5.1763
1265.6,4.4446,4.5437
1277.3,4.3613,1.989
1289.1,3.4966,2.3807
1300.8,5.3611,4.8414
1312.5,6.3789,4.2477
1324.2,4.2436,1.8065
1335.9,3.1828,1.7726
1347.7,1.2963,1.9847
1359.4,4.56,5.3745
1371.1,4.0994,6.9815
1382.8,4.0205,8.0911
1394.5,8.1032,3.6653
1406.3,6.7589,0.46603
1418,3.9003,0.82047
1429.7,2.9571,2.3588
1441.4,3.6407,4.0085
1453.1,4.7653,3.7009
1464.8,5.0081,5.7091
1476.6,5.6326,7.7637
1488.3,6.8759,4.4173
1500,5.4853,6.7376
1511.7,5.8728,5.3761
1523.4,3.7968,5.7983
1535.2,1.7051,4.269
1546.9,3.5677,2.9961
1558.6,5.6235,5.4113
1570.3,9.687,6.3719
1582,9.1101,3.6403
1593.8,3.8351,3.1802
1605.5,2.6001,4.0492
1617.2,4.4344,-0.049477
1628.9,4.0629,1.5064
1640.6,1.2353,1.6444
1652.3,2.9842,3.47
1664.1,2.2203,2.0892
1675.8,4.5957,3.5781
1687.5,3.7997,3.2885
1699.2,1.7216,3.1884
1710.9,3.2238,4.5146
1722.7,1.7115,4.45
1734.4,2.3599,1.6177
1746.1,4.0328,0.67259
1757.8,3.5417,2.354
1769.5,3.8748,1.8557
1781.3,4.1532,1.8454
1793,1.2144,2.0059
1804.7,4.1239,1.1326
1816.4,4.2588,5.6217
1828.1,4.6221,7.0551
1839.8,3.9224,4.8629
1851.6,3.6951,3.3536
1863.3,2.8781,3.7537
1875,4.8094,2.3481
1886.7,5.9537,2.2875
1898.4,7.5907,-0.72263
1910.2,5.5298,0.48144
1921.9,5.3057,2.1749
1933.6,6.0642,1.3832
1945.3,4.7292,1.9219
1957,1.1777,1.1162
1968.8,1.5356,0.66448
1980.5,1.5126,0.23697
1992.2,1.9045,0.088006
2003.9,-1.5116,2.7827
2015.6,-0.29836,0.5541
2027.3,1.0638,0.36653
2039.1,0.73476,-2.2751
2050.8,4.0211,-1.8798
2062.5,3.922,-1.1717
2074.2,2.5146,2.8721
2085.9,2.6026,4.5732
2097.7,1.8191,5.1543
2109.4,1.9408,3.2992
2121.1,1.3832,4.6414
2132.8,2.1171,6.8407
2144.5,5.2513,6.2977
2156.3,3.0941,4.2768
2168,2.7566,2.958
2179.7,2.3338,3.6507
2191.4,1.4844,2.8615
2203.1,-0.95807,1.7496
2214.8,-0.32003,2.7159
2226.6,2.753,2.7791
2238.3,2.3818,2.1215
2250,2.7328,0.64074
2261.7,2.3206,1.5255
2273.4,-0.072643,1.2581
2285.2,-0.62662,1.4398
2296.9,4.1611,4.2533
2308.6,3.2637,2.5303
2320.3,2.9078,-0.98877
2332,3.4884,-0.12478
2343.8,1.6309,1.7083
2355.5,2.6789,2.8424
2367.2,2.4645,2.2837
2378.9,1.3302,1.4915
2390.6,1.5483,2.6834
2402.3,1.6903,0.043107
2414.1,3.8401,-4.2468
2425.8,2.5978,-0.13704
2437.5,2.6031,1.5897
2449.2,1.6196,1.4487
2460.9,0.66036,1.9351
2472.7,1.1198,4.0153
2484.4,0.2946,2.966
2496.1,-1.5725,1.6738
2507.8,0.39605,3.6301
2519.5,0.39143,3.9066
2531.3,-0.048245,5.7087
2543,-1.7243,4.7204
2554.7,-0.24687,1.4269
2566.4,1.7214,1.0544
2578.1,1.877,2.6707
2589.8,0.67311,2.7814
2601.6,2.1373,0.87898
2613.3,3.1412,2.1071
2625,3.1242,6.033
2636.7,1.8515,3.9854
2648.4,2.438,-2.4407
2660.2,2.8236,-2.2384
2671.9,-0.32577,-1.1296
2683.6,-0.76838,0.1984
2695.3,0.23513,-0.49554
2707,0.22329,-1.0717
2718.8,1.5787,0.12496
2730.5,0.82615,0.32877
2742.2,2.4738,-1.6657
2753.9,3.0734,-1.9091
2765.6,3.2746,-0.78043
2777.3,1.7666,0.56082
2789.1,0.14987,4.8934
2800.8,0.63713,5.0942
2812.5,-0.063965,1.8236
2824.2,2.562,-1.4594
2835.9,2.8178,-0.69239
2847.7,0.68875,0.24837
2859.4,1.1366,-0.35413
2871.1,4.9498,1.1967
2882.8,3.5923,0.7852
2894.5,-1.4449,1.6711
2906.3,1.6336,0.39887
2918,3.3601,0.19885
2929.7,1.394,0.97395
2941.4,-0.9752,3.1644
2953.1,-0.09747,0.62629
2964.8,1.0409,-0.30151
2976.6,-0.25492,-0.17789
2988.3,2.5435,0.92064
3000,1.5723,1.2751
3011.7,-0.66132,0.74137
3023.4,-1.1377,0.52668
3035.2,-1.7185,5.0014
3046.9,-0.43266,2.7883
3058.6,-3.1591,-0.75215
3070.3,-3.0753,0.3127
3082,-0.66243,-1.8066
3093.8,-1.1176,-1.3721
3105.5,1.9703,-1.6896
3117.2,2.4608,-1.9774
3128.9,-2.0858,-1.8231
3140.6,-2.7189,-4.0068
3152.3,-0.045498,0.69064
3164.1,0.64292,1.1254
3175.8,1.748,1.5886
3187.5,1.7844,-0.68985
3199.2,-0.50122,-2.9374
3210.9,-0.19455,0.14751
3222.7,1.4256,-1.6359
3234.4,1.8529,-4.1118
3246.1,-1.1646,-4.0449
3257.8,-7.5587,-5.3289
3269.5,-2.8202,-1.2117
3281.3,-5.2685,0.77114
3293,-3.3572,1.5595
3304.7,-1.5395,0.22815
3316.4,0.046056,-0.74156
3328.1,-0.27213,-0.61574
3339.8,-1.1508,2.4622
3351.6,-2.9004,4.4835
3363.3,-2.4223,1.637
3375,-0.1054,0.19162
3386.7,-0.80627,0.25789
3398.4,-3.9336,-0.63902
3410.2,0.61509,0.2417
3421.9,-0.63525,2.0369
3433.6,-5.0937,0.4286
3445.3,-3.5703,-2.9901
3457,-0.10124,-3.5389
3468.8,-2.9037,-5.4303
3480.5,-0.5538,-2.7641
3492.2,-0.82023,-0.39605
3503.9,1.6542,0.17365
3515.6,1.4955,-0.85788
3527.3,-1.4421,-1.1992
3539.1,0.78209,-0.51634
3550.8,-3.1913,0.20033
3562.5,-0.64206,-3.1339
3574.2,-3.3991,-1.5393
3585.9,-2.0626,-0.18152
3597.7,0.51044,0.79706
3609.4,-0.94573,0.22374
3621.1,-3.9431,-2.6358
3632.8,-2.6015,-3.7474
3644.5,-3.8128,-1.5368
3656.3,-3.4088,-0.57932
3668,-1.7476,1.8191
3679.7,16.934,0.83452
3691.4,20.488,-1.3292
3703.1,11.656,-1.7552
3714.8,0.12491,-3.7078
3726.6,-1.1428,-1.4246
3738.3,-1.4216,-2.7464
3750,0.0254,-1.7885
3761.7,-2.5782,-3.6679
3773.4,-0.4124,-4.3013
3785.2,0.58451,-1.1964
3796.9,-1.8964,2.7617
3808.6,-2.3896,1.5249
3820.3,-4.0766,-0.59216
3832,-2.8104,-0.46002
3843.8,-2.5909,-1.2994
3855.5,-1.5364,-1.0884
3867.2,0.19405,-0.6667
3878.9,-2.7847,-1.9962
3890.6,-10.257,-0.54709
3902.3,-4.9788,-4.5409
3914.1,-0.43551,-3.3482
3925.8,0.98726,-0.9216
3937.5,-1.8917,0.068357
3949.2,-0.39572,0.18048
3960.9,1.9759,-3.2456
3972.7,-0.23679,-5.9911
3984.4,-2.3243,-2.9724
3996.1,-0.13114,-5.7259
4007.8,-0.23536,-4.2972
4019.5,-0.82247,-1.6746
4031.3,-1.5253,-1.9834
4043,-1.7141,-3.9498
4054.7,-2.2374,-3.1271
4066.4,-3.2714,-3.8453
4078.1,-5.1951,-3.0827
4089.8,-3.7578,-3.733
4101.6,-2.4313,-0.94274
4113.3,-0.40661,-3.861
4125,0.76622,-1.0557
4136.7,-0.58214,-0.084309
4148.4,-6.8102,-1.5518
4160.2,-6.8713,0.3796
4171.9,-5.7747,-0.49462
4183.6,-1.4554,-0.36779
4195.3,-0.89027,-1.421
4207,-0.77899,-6.6347
4218.8,2.061,-5.7429
4230.5,0.92364,-2.8388
4242.2,-3.7744,-4.3796
4253.9,-3.2003,-4.3596
4265.6,-2.8925,-4.1003
4277.3,0.83161,-6.9777
4289.1,-2.8859,-5.1243
4300.8,-3.1666,-1.8724
4312.5,-0.19453,-2.8795
4324.2,-1.5729,-4.4258
4335.9,-1.4888,-2.2023
4347.7,-0.65331,0.8954
4359.4,-2.6943,0.42563
4371.1,-1.7685,-2.5142
4382.8,-1.0731,-1.805
4394.5,-3.3019,-2.3981
4406.3,-0.88125,-0.62929
4418,-3.6015,-2.7565
4429.7,-2.421,-5.2758
4441.4,-1.1799,-4.2349
4453.1,-5.7316,-1.6811
4464.8,-0.89788,-2.2832
4476.6,0.61902,-3.2539
4488.3,-1.4102,-0.60783
4500,-3.3874,-1.0801
4511.7,-3.407,-2.4135
4523.4,-1.4051,-4.6251
4535.2,-4.7626,-3.0796
4546.9,-3.8138,-1.8178
4558.6,-3.717,-4.1761
4570.3,-7.258,-3.9062
4582,-2.6767,-3.0011
4593.8,-3.2453,-5.0581
4605.5,-4.1807,-3.8644
4617.2,-2.2337,0.35268
4628.9,-1.312,-1.7905
4640.6,-6.3717,-5.6724
4652.3,-6.228,-4.7315
4664.1,-3.6032,-3.6941
4675.8,-0.26876,-3.4068
4687.5,-1.8048,-4.9295
4699.2,-1.5914,-2.8917
4710.9,-1.1932,-3.0176
4722.7,-0.50749,-3.5978
4734.4,-1.9192,-4.7155
4746.1,-3.541,-5.037
4757.8,-4.8619,-3.51
4769.5,-1.2343,-2.905
4781.3,-5.6158,-2.6317
4793,-5.3943,-1.8695
4804.7,-0.62627,-3.9082
4816.4,-5.28,-4.5093
4828.1,-2.8005,-3.3853
4839.8,-3.4417,-2.7748
4851.6,-2.038,-6.5532
4863.3,-1.0479,-2.8056
4875,-3.0679,-2.5782
4886.7,-0.56709,-3.1268
4898.4,-3.016,-2.9674
4910.2,-4.9304,-7.6545
4921.9,-6.9135,-5.4449
4933.6,-5.5138,-2.3264
4945.3,-3.8772,-1.9074
4957,-3.2528,-5.3771
4968.8,-4.7968,-7.6444
4980.5,-5.8902,-6.5908
4992.2,-4.4342,-6.0565
5003.9,-3.0997,-7.6836
5015.6,-3.9331,-5.0013
5027.3,-5.2489,-3.7767
5039.1,-2.8006,-3.6062
5050.8,-3.5527,-4.7976
5062.5,-3.502,-5.2934
5074.2,-2.5836,-4.8114
5085.9,-3.9074,-5.4125
5097.7,-3.9991,-3.5365
5109.4,-5.5417,-3.4954
5121.1,-5.096,-4.1757
5132.8,-3.1893,-4.1926
5144.5,-3.4292,-5.4198
5156.3,-4.4324,-0.75374
5168,-4.4558,0.58606
5179.7,-2.6456,-3.7121
5191.4,-2.0169,-6.1079
5203.1,-3.6087,-5.1755
5214.8,-4.31,-5.0398
5226.6,-2.65,-8.6317
5238.3,-4.7404,-2.6052
5250,-4.0453,-3.7545
5261.7,-3.8597,-3.7591
5273.4,-2.439,-5.0214
5285.2,-3.6409,-8.2711
5296.9,-6.7968,-8.5968
5308.6,-4.0775,-7.0855
5320.3,-3.8057,-4.7283
5332,-7.1264,-4.5849
5343.8,-3.6712,-5.2324
5355.5,-4.5419,-2.5616
5367.2,-7.9836,-3.1851
5378.9,-3.2983,-1.8742
5390.6,-6.801,-3.5121
5402.3,-7.6698,-4.0235
5414.1,-5.9622,-3.673
5425.8,-4.2346,-5.2328
5437.5,-9.162,-3.6882
5449.2,-7.3562,-2.6046
5460.9,-5.3415,-4.3586
5472.7,-4.4609,-6.0265
5484.4,-5.0227,-5.9752
5496.1,-4.808,-3.3671
5507.8,-3.0518,-3.2279
5519.5,-2.9535,-6.2382
5531.3,-5.561,-5.5409
5543,-4.6082,-7.1586
5554.7,-6.7638,-7.1936
5566.4,-4.745,-3.2358
5578.1,-4.124,-3.7457
5589.8,-4.1427,-6.134
5601.6,-6.2517,-4.3232
5613.3,-5.6309,-4.1062
5625,-4.9926,-5.2281
5636.7,-4.6819,-3.7567
5648.4,-5.6954,-1.0115
5660.2,-5.9794,-2.0538
5671.9,-4.5012,-4.0285
5683.6,-4.0896,-3.4049
5695.3,-4.8893,-2.8089
5707,-4.3553,-4.886
5718.8,-6.337,-3.8657
5730.5,-8.6875,-6.4292
5742.2,-6.8903,-3.9916
5753.9,-5.2949,-3.0147
5765.6,-4.629,-5.9808
5777.3,-3.9225,-7.4335
5789.1,-4.756,-4.8507
5800.8,-5.845,-3.04
5812.5,-6.254,-4.9832
5824.2,-6.4677,-6.881
5835.9,-8.9473,-3.5041
5847.7,-6.0395,-5.8464
5859.4,-5.3435,-10.547
5871.1,-5.9723,-6.5794
5882.8,-2.6339,-3.9582
5894.5,-2.1078,-3.5611
5906.3,-5.4371,-4.3225
5918,-7.5737,-6.5276
5929.7,-5.387,-7.5829
5941.4,-6.9694,-4.9381
5953.1,-8.7451,-4.3658
5964.8,-8.4691,-6.9369
5976.6,-7.0974,-3.9372
5988.3,-6.8838,-3.85
6000,-6.6093,-6.9016
6011.7,-7.0156,-7.2523
6023.4,-6.0318,-3.4681
6035.2,-4.9047,-4.8157
6046.9,-6.1952,-9.0686
6058.6,-9.5263,-8.8557
6070.3,-8.6494,-7.1569
6082,-6.941,-8.1909
6093.8,-4.43,-7.7518
6105.5,-7.1659,-3.5513
6117.2,-5.6125,-3.4706
6128.9,-6.3023,-7.8516
6140.6,-5.366,-7.1484
6152.3,-4.3625,-5.3368
6164.1,-5.5614,-6.496
6175.8,-5.4325,-2.628
6187.5,-5.546,-4.7499
6199.2,-7.8702,-6.0723
6210.9,-6.5972,-6.3172
6222.7,-5.6276,-7.6879
6234.4,-6.085,-4.983
6246.1,-7.3722,-7.9595
6257.8,-8.1712,-8.9883
6269.5,-5.0119,-6.2961
6281.3,-5.2904,-8.468
6293,-4.5326,-7.316
6304.7,-6.0377,-6.6685
6316.4,-7.7103,-6.4788
6328.1,-8.2478,-5.1847
6339.8,-6.9754,-5.7139
6351.6,-5.2255,-7.8167
6363.3,-6.3715,-5.1618
6375,-5.8007,-4.2119
6386.7,-7.6159,-6.6231
6398.4,-6.0549,-8.76
6410.2,-6.418,-8.5466
6421.9,-6.2972,-9.0457
6433.6,-6.9126,-6.8455
6445.3,-5.0325,-6.285
6457,-5.7534,-6.2182
6468.8,-6.2466,-4.5892
6480.5,-5.8829,-6.3803
6492.2,-5.8337,-7.1329
6503.9,-5.4433,-7.4012
6515.6,-4.474,-9.8207
6527.3,-6.7557,-9.762
6539.1,-7.5888,-7.096
6550.8,-10.616,-8.8059
6562.5,-9.4608,-6.2762
6574.2,-4.6446,-6.4321
6585.9,-2.117,-6.3424
6597.7,-5.0636,-6.058
6609.4,-6.7112,-8.8522
6621.1,-7.5462,-9.54
6632.8,-3.3182,-9.0462
6644.5,-2.5461,-8.2298
6656.3,-4.4231,-6.9723
6668,-7.4287,-9.5738
6679.7,-8.6386,-8.936
6691.4,-6.8948,-3.6672
6703.1,-6.0648,-4.8141
6714.8,-7.9204,-7.862
6726.6,-4.6933,-4.8274
6738.3,-5.5587,-2.6443
6750,-8.8581,-2.8329
6761.7,-6.1135,-6.1043
6773.4,-8.2248,-6.7546
6785.2,-8.856,-5.8023
6796.9,-6.0211,-8.981
6808.6,-6.8015,-10.311
6820.3,-8.2511,-7.2678
6832,-7.5751,-5.6401
6843.8,-7.7338,-4.2959
6855.5,-6.9829,-5.8615
6867.2,-4.1542,-7.7519
6878.9,-5.4558,-9.9638
6890.6,-8.1189,-7.3392
6902.3,-8.8116,-10.252
6914.1,-6.4766,-7.3229
6925.8,-7.3271,-9.4428
6937.5,-6.0093,-9.3386
6949.2,-4.0966,-10.092
6960.9,-3.9965,-9.3395
6972.7,-8.5161,-10.076
6984.4,-5.8633,-8.9922
6996.1,-4.482,-8.4967
7007.8,-8.1638,-8.0102
7019.5,-6.8228,-7.3056
7031.3,-7.0792,-8.4534
7043,-8.8524,-7.6979
7054.7,-10.729,-6.0971
7066.4,-7.5221,-6.2289
7078.1,-4.9574,-8.5535
7089.8,-6.7307,-9.2991
7101.6,-7.8352,-6.8637
7113.3,-5.8678,-8.6134
7125,-6.2658,-7.4839
7136.7,-8.7469,-6.3113
7148.4,-7.2311,-5.9662
7160.2,-7.9553,-8.0297
7171.9,-7.2123,-9.491
7183.6,-10.1,-11.231
7195.3,-9.423,-9.0129
7207,-5.9503,-6.583
7218.8,-7.4047,-7.4196
7230.5,-9.3436,-8.1128
7242.2,-8.6228,-8.1294
7253.9,-7.5414,-6.5554
7265.6,-7.1233,-9.4959
7277.3,-5.872,-8.9118
7289.1,-6.5034,-5.3356
7300.8,-9.2443,-4.7845
7312.5,-8.6362,-8.4758
7324.2,-6.8554,-6.4901
7335.9,-8.2719,-7.4137
7347.7,-7.5777,-9.1499
7359.4,-7.2769,-9.4133
7371.1,-5.6895,-10.21
7382.8,-5.3017,-6.1101
7394.5,-6.9799,-5.0974
7406.3,-8.88,-6.1338
7418,-9.3701,-10.462
7429.7,-5.2068,-9.0962
7441.4,-6.0339,-5.5052
7453.1,-7.2039,-5.991
7464.8,-7.4378,-7.2191
7476.6,-7.4339,-6.8765
7488.3,-6.6928,-8.1256
7500,-7.3759,-11.601
7511.7,-7.1823,-7.523
7523.4,-7.2656,-7.6161
7535.2,-10.026,-9.7697
7546.9,-4.026,-7.3685
7558.6,-4.4087,-8.6048
7570.3,-7.9413,-7.6081
7582,-7.9986,-7.3192
7593.8,-9.4057,-7.0674
7605.5,-8.8015,-6.2285
7617.2,-7.8118,-7.5288
7628.9,-11.389,-5.7428
7640.6,-8.5176,-5.7266
7652.3,-8.1582,-8.5603
7664.1,-7.8186,-9.4872
7675.8,-11.384,-9.403
7687.5,-10.488,-9.75
7699.2,-9.4352,-8.8819
7710.9,-11.442,-7.8302
7722.7,-9.0064,-9.9459
7734.4,-9.2454,-11.9
7746.1,-10.53,-9.9445
7757.8,-10.222,-8.3075
7769.5,-9.0283,-10.566
7781.3,-6.9125,-10.574
7793,-8.2381,-10.697
7804.7,-5.9875,-7.2588
7816.4,-5.1654,-8.036
7828.1,-10.706,-13.864
7839.8,-8.9566,-12.682
7851.6,-7.6749,-10.718
7863.3,-9.2921,-10.945
7875,-9.1915,-13.365
7886.7,-9.5679,-11.5
7898.4,-8.5019,-10.587
7910.2,-8.1916,-9.1383
7921.9,-6.2986,-7.2996
7933.6,-6.5765,-8.8424
7945.3,-10.398,-8.3716
7957,-11.673,-7.183
7968.8,-11.758,-7.6528
7980.5,-13.268,-7.9822
7992.2,-9.5112,-8.1336
8003.9,-9.9575,-6.0904
8015.6,-11.937,-3.921
8027.3,-11.274,-5.5718
8039.1,-8.666,-8.3677
8050.8,-6.3423,-9.8929
8062.5,-8.3609,-9.3883
8074.2,-8.8358,-9.2191
8085.9,-9.2357,-9.1212
8097.7,-10.262,-8.7934
8109.4,-11.699,-9.386
8121.1,-8.5049,-9.3965
8132.8,-9.0418,-8.9609
8144.5,-8.0804,-10.751
8156.3,-6.4879,-9.8966
8168,-6.5882,-8.3474
8179.7,-5.8208,-10.373
8191.4,-9.7698,-11.367
8203.1,-9.5195,-10.665
8214.8,-9.3383,-11.791
8226.6,-13.018,-10.887
8238.3,-11.047,-9.8631
8250,-7.4655,-12.086
8261.7,-9.791,-8.3987
8273.4,-9.3437,-7.7179
8285.2,-7.1866,-10.924
8296.9,-4.6058,-10.446
8308.6,-5.7679,-10.051
8320.3,-8.7904,-11.794
8332,-7.971,-11.791
8343.8,-9.3464,-11.852
8355.5,-9.1215,-13.238
8367.2,-8.7188,-8.6215
8378.9,-9.5674,-7.2748
8390.6,-7.5892,-9.7818
8402.3,-8.9316,-11.25
8414.1,-8.2764,-13.032
8425.8,-8.4352,-10.571
8437.5,-10.544,-8.7107
8449.2,-11.05,-7.1547
8460.9,-10.438,-8.443
8472.7,-7.9701,-10.497
8484.4,-7.4258,-11.424
8496.1,-7.5959,-10.392
8507.8,-8.9539,-11.512
8519.5,-11.969,-12.65
8531.3,-11.096,-12.053
8543,-9.5762,-8.4603
8554.7,-7.359,-10.645
8566.4,-6.655,-12.564
8578.1,-8.5688,-14.115
8589.8,-9.0216,-10.584
8601.6,-8.5281,-11.233
8613.3,-7.608,-12.009
8625,-7.4046,-12.307
8636.7,-8.6605,-11.235
8648.4,-11.422,-10.148
8660.2,-11.568,-10.391
8671.9,-11.353,-13.693
8683.6,-12.212,-12.731
8695.3,-11.799,-13.545
8707,-12.549,-11.678
8718.8,-11.353,-11.126
8730.5,-8.2767,-9.4526
8742.2,-11.005,-6.3349
8753.9,-7.3461,-10.015
8765.6,-10.648,-12.813
8777.3,-12.836,-13.406
8789.1,-11.758,-13.029
8800.8,-12.154,-7.7653
8812.5,-11.638,-9.3458
8824.2,-9.6627,-14.986
8835.9,-10.267,-12.435
8847.7,-11.322,-10.125
8859.4,-10.29,-9.4087
8871.1,-11.191,-8.0042
8882.8,-11.944,-6.582
8894.5,-11.275,-9.304
8906.3,-12.36,-11.292
8918,-10.76,-8.4469
8929.7,-9.2202,-8.1051
8941.4,-9.6376,-8.1673
8953.1,-11.977,-10.06
8964.8,-9.6069,-10.401
8976.6,-9.1322,-7.3208
8988.3,-10.676,-8.6362
9000,-9.3781,-11.515
9011.7,-6.3318,-13.506
9023.4,-6.9369,-11.488
9035.2,-9.6277,-9.9577
9046.9,-9.8777,-11.394
9058.6,-11.185,-13.087
9070.3,-11.89,-12.911
9082,-10.344,-12.224
9093.8,-10.64,-12.376
9105.5,-11.887,-12.025
9117.2,-10.324,-9.6526
9128.9,-10.804,-12.074
9140.6,-8.4854,-13.621
9152.3,-6.1087,-8.1229
9164.1,-8.82,-9.3337
9175.8,-9.475,-12.867
9187.5,-9.5867,-13.393
9199.2,-11.368,-14.066
9210.9,-11.527,-14.163
9222.7,-10.986,-12.183
9234.4,-10.261,-8.5333
9246.1,-9.4791,-10.738
9257.8,-8.5519,-12.19
9269.5,-7.8593,-13.53
9281.3,-9.5882,-13.995
9293,-10.73,-12.784
9304.7,-11.057,-10.839
9316.4,-12.21,-11.11
9328.1,-13.134,-11.7
9339.8,-10.295,-7.1716
9351.6,-9.083,-8.6392
9363.3,-10.552,-11.341
9375,-10.397,-12.142
9386.7,-10.896,-9.6894
9398.4,-11.031,-8.2834
9410.2,-10.577,-10.179
9421.9,-12.194,-11.027
9433.6,-10.227,-7.9009
9445.3,-8.8309,-6.6162
9457,-10.175,-11.188
9468.8,-9.4471,-9.4194
9480.5,-8.5921,-9.2715
9492.2,-11.689,-10.225
9503.9,-11.504,-13.201
9515.6,-11.527,-10.437
9527.3,-9.5969,-9.3055
9539.1,-9.7582,-9.2548
9550.8,-10.84,-9.6907
9562.5,-15.042,-9.7843
9574.2,-10.853,-10.508
9585.9,-9.7641,-11.378
9597.7,-9.1651,-12.552
9609.4,-9.3565,-10.452
9621.1,-9.0448,-10.84
9632.8,-9.3947,-12.239
9644.5,-12.211,-11.235
9656.3,-7.9297,-12.247
9668,-8.1522,-10.329
9679.7,-10.176,-11.263
9691.4,-10.933,-12.205
9703.1,-11.772,-13.667
9714.8,-13.376,-15.074
9726.6,-13.081,-11.937
9738.3,-11.032,-12.196
9750,-11.766,-12.937
9761.7,-14.216,-11.935
9773.4,-11.189,-12.22
9785.2,-9.4015,-8.787
9796.9,-12.976,-12.179
9808.6,-12.139,-11.611
9820.3,-13.784,-10.422
9832,-13.719,-12.826
9843.8,-11.754,-16.1
9855.5,-9.8753,-13.23
9867.2,-8.263,-11.984
9878.9,-9.6005,-13.106
9890.6,-10.605,-12.623
9902.3,-9.2317,-10.799
9914.1,-9.685,-9.9647
9925.8,-14.504,-7.624
9937.5,-10.902,-8.0996
9949.2,-10.386,-8.8473
9960.9,-11.216,-9.6935
9972.7,-12.191,-11.536
9984.4,-12.633,-9.4738
9996.1,-13.99,-11.679
10008,-11.728,-10.817
10020,-10.982,-10.35
10031,-11.228,-10.78
10043,-8.9615,-12.325
10055,-10.244,-11.05
10066,-11.095,-11.214
10078,-11.543,-12.662
10090,-12.097,-13.104
10102,-11.292,-12.446
10113,-14.978,-13.691
10125,-14.028,-14.228
10137,-11.878,-14.447
10148,-12.92,-11.67
10160,-11.873,-9.3331
10172,-12.417,-9.7322
10184,-11.391,-12.586
10195,-14.744,-10.278
10207,-14.144,-9.1553
10219,-13.457,-11.091
10230,-11.131,-9.5194
10242,-11.901,-11.513
10254,-13.539,-14.584
10266,-15.423,-15.525
10277,-14.284,-13.098
10289,-12.282,-14.049
10301,-10.612,-15.843
10313,-9.2685,-15.283
10324,-11.52,-12.896
10336,-11.746,-13.805
10348,-10.196,-10.82
10359,-11.117,-11.874
10371,-11.469,-13.322
10383,-15.839,-12.245
10395,-14.333,-11.885
10406,-13.417,-11.748
10418,-12.624,-10.469
10430,-12.087,-9.6695
10441,-10.256,-8.5595
10453,-10.844,-9.0999
10465,-13.206,-12.44
10477,-13.488,-11.745
10488,-13.427,-11.418
10500,-11.882,-13.103
10512,-10.322,-13.145
10523,-11.816,-12.201
10535,-12.116,-11.373
10547,-13.935,-12.269
10559,-13.407,-12.064
10570,-13.531,-10.288
10582,-12.906,-12.395
10594,-12.304,-13.689
10605,-13.365,-11.584
10617,-16.049,-9.679
10629,-12.777,-9.8652
10641,-8.9675,-15.336
10652,-12.553,-14.985
10664,-14.464,-14.594
10676,-13.841,-15.641
10688,-12.546,-16.109
10699,-12.248,-12.971
10711,-10.615,-11.07
10723,-11.289,-12.198
10734,-11.024,-12.882
10746,-12.082,-13.235
10758,-13.608,-13.121
10770,-11.659,-14.55
10781,-10.485,-12.973
10793,-11.169,-12.165
10805,-12.46,-15.347
10816,-11.549,-15.873
10828,-11.906,-15.72
10840,-10.917,-15.838
10852,-11.729,-13.83
10863,-10.628,-13.203
10875,-9.6485,-14.716
10887,-14.111,-13.681
10898,-12.552,-12.856
10910,-11.819,-11.213
10922,-14.232,-11.475
10934,-13.151,-14.974
10945,-12.354,-13.764
10957,-14.224,-14.641
10969,-11.484,-16.088
10980,-10.421,-13.33
10992,-16.739,-13.965
11004,-10.195,-13.319
11016,-10.387,-14.26
11027,-8.4531,-14.979
11039,-10.619,-13.079
11051,-13.1,-16.719
11063,-7.9832,-13.455
11074,-9.6445,-12.239
11086,-10.193,-11.177
11098,-10.927,-13.039
11109,-12.086,-12.042
11121,-12.187,-11.904
11133,-14.079,-12.45
11145,-17.463,-11.702
11156,-13.913,-10.331
11168,-8.963,-10.683
11180,-9.1287,-13.788
11191,-12.798,-12.344
11203,-13.458,-11.157
11215,-11.699,-15.072
11227,-10.748,-15.685
11238,-14.458,-15.033
11250,-12.108,-15.205
11262,-14.744,-16.033
11273,-10.925,-17.125
11285,-13.664,-12.176
11297,-12.483,-12.546
11309,-9.0754,-15.04
11320,-11.369,-15.519
11332,-11.656,-16.182
11344,-12.428,-14.19
11355,-14.124,-13.573
11367,-17.273,-14.234
11379,-14.89,-19.928
11391,-12.936,-17.069
11402,-12.868,-13.108
11414,-10.053,-11.99
11426,-11.031,-12.91
11438,-13.08,-14.937
11449,-13.334,-16.021
11461,-12.828,-15.273
11473,-10.312,-14.205
11484,-9.7136,-15.794
11496,-12.66,-15.073
11508,-12.466,-13.344
11520,-13.367,-12.368
11531,-15.396,-9.3635
11543,-8.6935,-10.401
11555,-8.3075,-18.315
11566,-11.49,-14.757
11578,-11.106,-17.559
11590,-11.168,-17.141
11602,-11.937,-15.84
11613,-11.626,-12.836
11625,-13.011,-13.786
11637,-14.578,-13.027
11648,-12.117,-15.96
11660,-11.382,-13.527
11672,-10.245,-13.907
11684,-7.8748,-15.257
11695,-13.578,-12.991
11707,-12.268,-13.894
11719,-14.731,-11.734
11730,-15.135,-13.006
11742,-11.657,-15.358
11754,-12.666,-16.048
11766,-14.281,-16.082
11777,-15.978,-11.959
11789,-12.766,-14.561
11801,-12.036,-13.761
11813,-11.602,-11.647
11824,-10.742,-14.707
11836,-12.279,-15.464
11848,-13.049,-14.24
11859,-10.13,-14.699
11871,-10.62,-14.469
11883,-16.645,-15.398
11895,-12.128,-14.714
11906,-10.831,-14.932
11918,-11.261,-15.171
11930,-9.1197,-10.42
11941,-10.306,-10.931
11953,-11.453,-12.409
11965,-10.622,-12.187
11977,-11.534,-13.355
11988,-9.9306,-15.706
12000,-11.349,-14.147
12012,-12.875,-13.893
12023,-12.098,-18.522
12035,-11.984,-16.983
12047,-12.407,-15.81
12059,-11.995,-15.011
12070,-13.036,-16.934
12082,-15.477,-16.82
12094,-13.533,-14.421
12105,-14.024,-16.407
12117,-13.368,-17.791
12129,-14.713,-17.648
12141,-15.51,-16.384
12152,-15.411,-15.518
12164,-13.816,-13.69
12176,-15.771,-15.853
12188,-14.507,-15.191
12199,-13.129,-14.272
12211,-13.59,-14.466
12223,-16.787,-13.896
12234,-14.184,-14.575
12246,-13.254,-14.496
12258,-15.295,-17.072
12270,-15.516,-18.242
12281,-15.146,-12.1
12293,-16.91,-11.727
12305,-14.15,-16.269
12316,-11.328,-15.711
12328,-11.398,-14.279
12340,-13.699,-14.557
12352,-11.714,-14.743
12363,-10.503,-14.247
12375,-10.876,-14.946
12387,-14.776,-15.339
12398,-14.79,-14.408
12410,-16.809,-14.855
12422,-16.847,-17.061
12434,-15.071,-13.957
12445,-15.398,-16.085
12457,-16.238,-17.591
12469,-16.228,-14.679
12480,-13.605,-13.248
12492,-11.885,-10.968
12504,-13.239,-11.93
12516,-14.517,-17.434
12527,-14.078,-14.919
12539,-12.291,-15.69
12551,-12.632,-15.571
12563,-14.393,-17.417
12574,-15.377,-16.546
12586,-17.894,-17.952
12598,-14.173,-15.114
12609,-12.003,-13.851
12621,-11.318,-16.868
12633,-12.326,-15.696
12645,-13.197,-16.534
12656,-12.737,-19.121
12668,-13.419,-17.824
12680,-13.147,-18.004
12691,-11.953,-16.646
12703,-12.112,-18.46
12715,-12.246,-14.842
12727,-13.215,-13.6
12738,-12.812,-15.842
12750,-14.478,-14.928
12762,-10.66,-13.375
12773,-12.202,-16.441
12785,-12.287,-17.625
12797,-12.314,-16.437
12809,-12.237,-16.017
12820,-12.935,-16.096
12832,-15.103,-16.071
12844,-17.634,-15.019
12855,-14.282,-13.637
12867,-12.777,-16.255
12879,-16.72,-20.489
12891,-15.562,-18.54
12902,-16.461,-17.681
12914,-14.387,-19.112
12926,-17.238,-19.062
12938,-14.19,-16.115
12949,-13.146,-14.825
12961,-11.644,-17.637
12973,-12.228,-18.182
12984,-12.475,-17.02
12996,-12.409,-17.425
13008,-12.229,-18.442
13020,-15.759,-15.275
13031,-16.387,-16.492
13043,-14.799,-18.559
13055,-13.854,-17.851
13066,-16.612,-16.249
13078,-14.732,-16.244
13090,-15.637,-14.116
13102,-13.906,-14.885
13113,-14.515,-18.031
13125,-16.005,-17.7
13137,-16.588,-15.093
13148,-12.091,-15.167
13160,-10.867,-14.512
13172,-12.24,-13.742
13184,-15.27,-13.855
13195,-13.796,-16.516
13207,-14.024,-15.923
13219,-13.019,-16.992
13230,-11.388,-15.514
13242,-11.751,-15.269
13254,-12.202,-13.726
13266,-14.578,-15.327
13277,-15.859,-18.104
13289,-14.831,-19.413
13301,-13.11,-17.338
13313,-14.834,-15.128
13324,-13.265,-17.736
13336,-12.503,-18.997
13348,-13.105,-19.525
13359,-14.121,-16.678
13371,-16.153,-17.571
13383,-14.341,-19.674
13395,-10.681,-17.766
13406,-12.881,-16.354
13418,-14.76,-15.786
13430,-12.824,-15.709
13441,-14.076,-15.115
13453,-15.83,-18.355
13465,-15.436,-18.248
13477,-14.643,-17.707
13488,-12.336,-16.016
13500,-11.866,-16.685
13512,-14.746,-18.362
13523,-16.007,-18.544
13535,-14.769,-14.931
13547,-10.973,-15.38
13559,-11.103,-16.692
13570,-18.299,-16.379
13582,-14.344,-16.421
13594,-13.005,-17.167
13605,-13.027,-16.729
13617,-13.046,-19.838
13629,-12.744,-17.121
13641,-13.832,-17.414
13652,-15.585,-15.125
13664,-13.022,-13.184
13676,-14.449,-14.888
13688,-14.975,-14.682
13699,-11.25,-16.5
13711,-13.014,-15.778
13723,-13.474,-16.152
13734,-12.417,-15.894
13746,-14.016,-15.793
13758,-16.557,-14.899
13770,-15.826,-14.076
13781,-13.538,-16.722
13793,-13.317,-18.075
13805,-11.585,-17.954
13816,-9.8079,-16.149
13828,-10.821,-15.377
13840,-13.481,-13.699
13852,-16.718,-17.077
13863,-13.285,-18.099
13875,-14.646,-17.865
13887,-16.017,-16.545
13898,-14.593,-16.915
13910,-15.217,-19.516
13922,-14.086,-19.933
13934,-14.343,-20.077
13945,-13.599,-17.93
13957,-11.076,-16.544
13969,-12.312,-16.169
13980,-14.271,-15.216
13992,-13.248,-16.042
14004,-14.967,-19.191
14016,-18.802,-18.191
14027,-15.323,-18.062
14039,-14.168,-17.371
14051,-17.691,-15.32
14063,-17.239,-15.72
14074,-15.089,-17.887
14086,-13.698,-14.438
14098,-15.068,-14.797
14109,-14.334,-18.192
14121,-12.634,-17.473
14133,-13.222,-15.568
14145,-15.517,-15.153
14156,-16.399,-14.455
14168,-16.804,-14.875
14180,-16.016,-14.735
14191,-14.624,-16.013
14203,-14.319,-18.78
14215,-16.764,-16.34
14227,-19.036,-17.291
14238,-17.773,-17.002
14250,-13.879,-15.073
14262,-15.178,-15.362
14273,-14.996,-17.365
14285,-15.32,-15.316
14297,-17.309,-17.831
14309,-13.579,-18.695
14320,-14.097,-15.779
14332,-18.032,-14.349
14344,-15.79,-17.649
14355,-16.76,-20.851
14367,-16.311,-19.083
14379,-15.957,-18.154
14391,-15.887,-17.498
14402,-15.42,-16.591
14414,-19.995,-17.814
14426,-20.907,-18.984
14438,-21.801,-16.299
14449,-16.802,-15.808
14461,-13.127,-18.254
14473,-15.364,-20.278
14484,-20.589,-20.463
14496,-19.843,-19.552
14508,-16.949,-16.583
14520,-17.034,-15.508
14531,-17.38,-15.8
14543,-17.288,-17.659
14555,-16.069,-19.704
14566,-16.811,-17.237
14578,-18.118,-16.763
14590,-16.962,-14.926
14602,-18.746,-15.527
14613,-16.696,-17.771
14625,-15.661,-17.073
14637,-18.068,-15.091
14648,-16.083,-15.705
14660,-16.361,-15.084
14672,-16.475,-16.368
14684,-15.091,-14.674
14695,-17.387,-16.792
14707,-17.541,-16.436
14719,-16.326,-14.517
14730,-18.565,-14.286
14742,-19.916,-18.848
14754,-17.176,-19.798
14766,-16.344,-20.138
14777,-15.925,-20.051
14789,-17.535,-21.485
14801,-19.593,-22.88
14813,-21.331,-17.318
14824,-19.854,-16.513
14836,-21.938,-19.357
14848,-16.197,-17.97
14859,-15.626,-17.784
14871,-15.82,-17.349
14883,-17.916,-14.935
14895,-15.964,-16.405
14906,-17.144,-19.228
14918,-18.273,-19.757
14930,-17.427,-19.882
14941,-16.962,-18.459
14953,-18.339,-18.346
14965,-20.308,-19.263
14977,-20.525,-18.051
14988,-16.65,-17.178
15000,-16.615,-16.357
15012,-18.047,-16.233
15023,-17.053,-15.991
15035,-14.747,-18.931
15047,-18.335,-20.649
15059,-15.167,-18.808
15070,-14.954,-16.58
15082,-20.636,-17.313
15094,-21.282,-17.433
15105,-19.131,-17.686
15117,-16.812,-20.353
15129,-19.041,-19.319
15141,-21.122,-16.193
15152,-23.423,-19.856
15164,-18.75,-21.034
15176,-19.862,-19.858
15188,-17.737,-17.54
15199,-16.709,-16.304
15211,-17.313,-17.406
15223,-15.405,-17.806
15234,-16.915,-19.312
15246,-18.302,-19.152
15258,-17.936,-18.299
15270,-17.763,-17.983
15281,-18.282,-14.792
15293,-17.837,-16.681
15305,-16.931,-20.16
15316,-19.256,-17.66
15328,-21.469,-18.968
15340,-15.384,-19.91
15352,-14.542,-18.025
15363,-16.228,-18.515
15375,-18.866,-18.317
15387,-14.594,-18.306
15398,-13.574,-21.843
15410,-17.23,-18.86
15422,-17.714,-18.474
15434,-18.355,-18.295
15445,-20.152,-16.861
15457,-18.202,-18.469
15469,-18.266,-18.621
15480,-16.833,-18.74
15492,-16.335,-19.127
15504,-19.736,-17.408
15516,-20.58,-17.928
15527,-18.911,-18.053
15539,-16.217,-16.862
15551,-17.92,-18.552
15563,-17.16,-19.175
15574,-18.301,-16.387
15586,-20.169,-16.449
15598,-19.595,-20.456
15609,-20.69,-21.838
15621,-21.521,-20.477
15633,-19.036,-20.312
15645,-19.863,-21.457
15656,-19.579,-21.83
15668,-19.862,-21.42
15680,-20.098,-18.594
15691,-19.569,-16.047
15703,-18.515,-19.167
15715,-20.383,-18.533
15727,-20.945,-16.751
15738,-20.514,-17.496
15750,-18.759,-18.412
15762,-18.019,-19.637
15773,-17.973,-18.073
15785,-18.58,-17.75
15797,-17.418,-18.489
15809,-16.716,-18.185
15820,-15.497,-18.594
15832,-17.818,-21.193
15844,-20.694,-20.032
15855,-18.24,-22.445
15867,-19.766,-19.129
15879,-21.042,-18.868
15891,-21.644,-20.445
15902,-21.004,-19.6
15914,-17.74,-20.382
15926,-16.893,-20.46
15938,-15.195,-19.072
15949,-16.443,-19.036
15961,-18.806,-18.075
15973,-19.286,-18.626
15984,-19.326,-18.393
15996,-18.433,-18.429
16008,-15.742,-21.83
16020,-16.586,-20.319
16031,-19.3,-20.992
16043,-19.789,-24.128
16055,-17.794,-22.738
16066,-16.886,-17.908
16078,-18.787,-18.723
16090,-20.023,-20.564
16102,-17.595,-21.282
16113,-17.643,-23.112
16125,-17.437,-21.873
16137,-20.303,-20.896
16148,-19.868,-21.087
16160,-19.464,-20.44
16172,-19.92,-19.451
16184,-18.884,-24.227
16195,-17.751,-24.181
16207,-18.411,-20.985
16219,-21.555,-20.31
16230,-21.362,-21.116
16242,-21.827,-19.362
16254,-18.999,-17.423
16266,-18.648,-20.467
16277,-20.242,-19.96
16289,-21.728,-22.363
16301,-20.421,-23.281
16313,-21.348,-23.306
16324,-22.329,-20.263
16336,-24.544,-19.352
16348,-21.103,-20.385
16359,-20.027,-20.615
16371,-19.338,-22.384
16383,-20.359,-20.333
16395,-21.835,-20.7
16406,-21.147,-24.531
16418,-24.271,-24.73
16430,-24.312,-22.906
16441,-22.089,-22.15
16453,-22.097,-22.397
16465,-24.226,-20.608
16477,-18.786,-18.547
16488,-17.445,-17.744
16500,-19.208,-17.854
16512,-24.66,-19.673
16523,-23.146,-18.726
16535,-21.922,-19.544
16547,-22.403,-21.977
16559,-20.95,-24.885
16570,-20.424,-23.208
16582,-21.606,-19.925
16594,-19.06,-18.801
16605,-20.797,-23.328
16617,-24.502,-22.99
16629,-22.692,-21.04
16641,-20.377,-17.882
16652,-22.27,-19.862
16664,-21.101,-21.618
16676,-22.716,-19.415
16688,-23.921,-19.56
16699,-24.349,-21.052
16711,-20.635,-21.311
16723,-24.109,-21.09
16734,-24.278,-23.187
16746,-26.916,-20.588
16758,-25.494,-19.902
16770,-22.802,-20.598
16781,-22.511,-20.409
16793,-23.804,-21.102
16805,-22.889,-21.445
16816,-24.245,-22.463
16828,-25.823,-24.975
16840,-23.025,-23.229
16852,-22.71,-24.518
16863,-22.685,-24.528
16875,-19.148,-24.898
16887,-17.562,-23.098
16898,-18.871,-22.55
16910,-21.565,-21.266
16922,-23.688,-22.884
16934,-22.613,-23.675
16945,-17.086,-22.119
16957,-19.387,-20.354
16969,-24.65,-21.137
16980,-24.876,-21.916
16992,-24.973,-19.871
17004,-19.443,-21.986
17016,-21.015,-24.727
17027,-22.158,-21.041
17039,-21.101,-20.32
17051,-22.96,-22.238
17063,-23.906,-21.093
17074,-23.367,-22.176
17086,-21.644,-22.455
17098,-22.877,-19.974
17109,-23.285,-20.653
17121,-20.53,-21.965
17133,-22.227,-22.035
17145,-21.809,-23.982
17156,-20.9,-20.718
17168,-21.479,-20.898
17180,-21.756,-24.007
17191,-22.131,-21.333
17203,-24.133,-20.319
17215,-22.989,-23.986
17227,-23.076,-23.138
17238,-21.318,-23.83
17250,-20.168,-21.995
17262,-19.946,-20.189
17273,-22.953,-20.682
17285,-23.714,-20.879
17297,-22.844,-19.697
17309,-20.742,-22.262
17320,-19.813,-22.404
17332,-19.872,-23.776
17344,-22.162,-20.349
17355,-22.634,-22.504
17367,-22.052,-23.703
17379,-23.051,-20.879
17391,-23.235,-20.032
17402,-21.577,-20.642
17414,-21.763,-20.45
17426,-22.384,-21.364
17438,-21.631,-23.057
17449,-21.029,-24.822
17461,-21.028,-23.182
17473,-24.362,-21.673
17484,-20.438,-22.286
17496,-18.165,-22.234
17508,-19.13,-22.993
17520,-20.672,-23.456
17531,-20.406,-20.178
17543,-20.681,-20.919
17555,-22.081,-21.215
17566,-23.485,-21.041
17578,-22.449,-21.807
17590,-20.791,-22.429
17602,-20.145,-22.853
17613,-21.036,-21.855
17625,-19.666,-21.989
17637,-23.072,-24.011
17648,-21.754,-22.638
17660,-23.056,-22.953
17672,-23.363,-22.477
17684,-21.029,-20.874
17695,-19.909,-19.556
17707,-20.503,-20.829
17719,-22.847,-22.554
17730,-20.938,-20.499
17742,-25.453,-21.164
17754,-29.752,-23.546
17766,-23.28,-21.827
17777,-21.8,-22.94
17789,-24.321,-27.335
17801,-23.834,-27.446
17813,-24.395,-24.274
17824,-24.513,-22.341
17836,-24.026,-21.889
17848,-25.197,-23.614
17859,-21.868,-24.916
17871,-19.974,-26.944
17883,-23.68,-23.287
17895,-22.699,-19.146
17906,-23.925,-22.759
17918,-25.288,-22.656
17930,-25.4,-22.596
17941,-24.494,-23.998
17953,-21.547,-22.85
17965,-21.9,-23.286
17977,-21.336,-23.997
17988,-20.703,-25.556
18000,-20.525,-23.394
18012,-20.073,-20.845
18023,-21.933,-19.552
18035,-24.569,-21.693
18047,-25.36,-22.705
18059,-26.259,-24.518
18070,-25.242,-26.565
18082,-22.987,-24.899
18094,-23.414,-22.325
18105,-21.946,-20.748
18117,-20.919,-21.94
18129,-21.841,-21.711
18141,-21.109,-22.36
18152,-23.42,-24.102
18164,-25.021,-22.041
18176,-21.787,-20.702
18188,-22.418,-22.331
18199,-22.506,-22.205
18211,-22.371,-20.803
18223,-21.078,-24.128
18234,-20.571,-24.713
18246,-24.514,-22.516
18258,-22.232,-22.311
18270,-19.952,-23.821
18281,-23.683,-24.332
18293,-24.204,-26.809
18305,-21.924,-25.297
18316,-22.853,-23.859
18328,-28.724,-25.557
18340,-24.507,-22.532
18352,-22.468,-22.874
18363,-23.842,-23.813
18375,-23.681,-22.271
18387,-20.612,-20.899
18398,-18.313,-22.93
18410,-21.386,-21.185
18422,-23.899,-21.248
18434,-20.358,-23.212
18445,-18.542,-23.183
18457,-23.928,-24.521
18469,-22.92,-28.138
18480,-23.014,-28.763
18492,-21.368,-28.321
18504,-20.716,-25.888
18516,-23.607,-25.913
18527,-22.545,-23.013
18539,-23.889,-22.206
18551,-22.698,-19.648
18563,-20.515,-21.006
18574,-23.284,-26.884
18586,-23.698,-24.059
18598,-22.241,-23.275
18609,-22.264,-21.529
18621,-24.766,-19.679
18633,-26.262,-19.778
18645,-28.396,-20.403
18656,-25.739,-23.047
18668,-22.321,-22.324
18680,-23.775,-23.864
18691,-26.62,-23.983
18703,-25.887,-21.751
18715,-25.032,-20.925
18727,-22.261,-21.525
18738,-21.715,-21.277
18750,-22.572,-21.028
18762,-22.811,-24.691
18773,-22.602,-24.295
18785,-23.521,-24.257
18797,-23.62,-25.609
18809,-21.513,-23.201
18820,-24.057,-24.68
18832,-24.693,-27.656
18844,-24.951,-24.881
18855,-22.667,-22.488
18867,-23.403,-25.163
18879,-22.603,-28.408
18891,-23.142,-24.567
18902,-23.318,-26.335
18914,-22.813,-26.646
18926,-20.675,-25.569
18938,-21.196,-22.351
18949,-22.256,-18.798
18961,-24.484,-19.573
18973,-23.935,-22.835
18984,-25.785,-24.407
18996,-25.906,-26.544
19008,-24.364,-25.74
19020,-25.752,-25.701
19031,-26.911,-27.705
19043,-22.799,-25.065
19055,-23.844,-22.588
19066,-22.134,-23.745
19078,-20.849,-24.279
19090,-24.575,-25.543
19102,-26.19,-26.127
19113,-24.736,-26.149
19125,-26.685,-26.579
19137,-24.147,-25.151
19148,-24.252,-22.678
19160,-24.774,-25.519
19172,-22.993,-25.677
19184,-24.298,-23.142
19195,-25.304,-23.496
19207,-24.77,-24.196
19219,-23.763,-24.798
19230,-21.953,-22.401
19242,-23.571,-22.161
19254,-26.702,-27.013
19266,-24.616,-22.331
19277,-25.648,-20.915
19289,-22.147,-22.912
19301,-22.033,-25.767
19313,-22.407,-25.441
19324,-24.664,-26.95
19336,-24.318,-26.054
19348,-23.3,-23.45
19359,-22.947,-25.338
19371,-21.179,-24.779
19383,-24.704,-24.889
19395,-25.431,-26.055
19406,-25.013,-24.875
19418,-25.231,-26.876
19430,-23.172,-28.696
19441,-25.322,-25.889
19453,-28.21,-25.731
19465,-27.058,-23.728
19477,-25.067,-20.841
19488,-26.031,-22.225
19500,-28.517,-23.862
19512,-29.503,-23.456
19523,-26.066,-26.871
19535,-24.526,-25.443
19547,-23.414,-27.472
19559,-21.679,-23.358
19570,-23.366,-22.931
19582,-25.694,-25.221
19594,-24.283,-22.523
19605,-22.411,-26.235
19617,-23.361,-28.503
19629,-25.456,-24.453
19641,-25.288,-24.883
19652,-25.631,-26.679
19664,-24.369,-23.613
19676,-26.598,-22.544
19688,-27.653,-23.829
19699,-27.62,-24.687
19711,-24.691,-23.183
19723,-23.288,-22.893
19734,-23.014,-22.259
19746,-22.096,-23.845
19758,-25.032,-26.841
19770,-23.788,-27.577
19781,-24.97,-28.45
19793,-26.343,-28.281
19805,-24.005,-27.168
19816,-25.098,-24.57
19828,-23.714,-25.211
19840,-24.722,-27.608
19852,-25.79,-26.994
19863,-26.705,-26.274
19875,-26.738,-28.369
19887,-27.093,-25.693
19898,-24.27,-24.328
19910,-25.944,-25.513
19922,-24.965,-27.584
19934,-23.785,-24.818
19945,-25.757,-24.187
19957,-24.389,-26.177
19969,-25.422,-25.375
19980,-26.115,-22.433
19992,-24.167,-25.182
20004,-24.09,-24.086
20016,-26.313,-24.497
20027,-25.453,-25.594
20039,-25.441,-24.653
20051,-25.902,-25.897
20063,-24.545,-23.255
20074,-25.794,-21.958
20086,-25.714,-22.702
20098,-25.549,-22.914
20109,-25.634,-21.841
20121,-25.092,-24.077
20133,-22.737,-25.244
20145,-23.874,-23.876
20156,-23.882,-25.015
20168,-22.471,-24.259
20180,-22.797,-25.981
20191,-25.95,-26.641
20203,-22.314,-26.474
20215,-23.299,-25.131
20227,-25.289,-25.398
20238,-24.252,-27.82
20250,-22.111,-26.948
20262,-25.287,-26.491
20273,-26.73,-25.8
20285,-25.468,-25.972
20297,-25.333,-27
20309,-25.346,-26.757
20320,-27.891,-23.127
20332,-27.638,-22.319
20344,-24.586,-23.165
20355,-22.666,-23.089
20367,-23.358,-23.548
20379,-24.818,-20.554
20391,-26.584,-21.188
20402,-24.703,-21.284
20414,-25.486,-24.215
20426,-25.407,-28.962
20438,-25.378,-30.638
20449,-24.986,-30.761
20461,-24.731,-24.409
20473,-24.633,-21.187
20484,-23.326,-24.985
20496,-23.352,-25.691
20508,-25.593,-25.914
20520,-23.811,-27.302
20531,-25.561,-24.985
20543,-26.958,-24.556
20555,-28.007,-26.291
20566,-24.145,-25.642
20578,-23.594,-26.957
20590,-27.204,-26.864
20602,-28.084,-22.45
20613,-27.304,-26.341
20625,-23.603,-27.686
20637,-21.387,-27.658
20648,-23.042,-25.56
20660,-25.788,-26.339
20672,-28.404,-28.224
20684,-27.595,-26.832
20695,-26.068,-26.676
20707,-22.931,-25.568
20719,-24.863,-23.808
20730,-27.675,-25.025
20742,-26.861,-22.916
20754,-27.061,-23.935
20766,-26.257,-23.682
20777,-24.828,-23.001
20789,-24.742,-24.576
20801,-25.852,-27.807
20813,-27.711,-26.208
20824,-29.368,-25.47
20836,-27.896,-27.083
20848,-26.859,-28.653
20859,-25.69,-25.355
20871,-22.845,-24.442
20883,-22.839,-28.343
20895,-25.065,-25.055
20906,-27.556,-21.85
20918,-25.028,-22.068
20930,-23.928,-24.441
20941,-25.915,-25.755
20953,-27.875,-23.755
20965,-27.328,-23.449
20977,-27.727,-23.499
20988,-25.177,-24.889
21000,-24.149,-24.005
21012,-23.687,-24.583
21023,-25.852,-25.47
21035,-27.439,-28.057
21047,-26.037,-24.454
21059,-25.345,-24.059
21070,-27.611,-25.039
21082,-27.445,-26.483
21094,-28.231,-26.797
21105,-27.471,-25.046
21117,-24.14,-24.892
21129,-25.689,-25.009
21141,-25.535,-28.583
21152,-25.406,-28.453
21164,-24.815,-28.049
21176,-24.585,-26.038
21188,-26.833,-23.774
21199,-26.145,-24.243
21211,-26.785,-26.82
21223,-27.081,-26.678
21234,-27.011,-26.852
21246,-25.29,-26.535
21258,-23.853,-28.044
21270,-27.415,-26.562
21281,-25.904,-25.207
21293,-25.952,-26.746
21305,-28.659,-25.315
21316,-29.942,-24.514
21328,-24.339,-26.248
21340,-22.614,-29.82
21352,-21.161,-30.959
21363,-23.83,-26.074
21375,-25.621,-25.021
21387,-24.048,-23.421
21398,-24.734,-23.171
21410,-23.602,-25.401
21422,-25.071,-24.999
21434,-25.272,-25.972
21445,-26.63,-27.679
21457,-27.465,-25.623
21469,-26.482,-26.456
21480,-26.047,-29.877
21492,-24.348,-30.146
21504,-25.878,-29.419
21516,-27.955,-27.285
21527,-27.607,-26.223
21539,-27.307,-25.931
21551,-24.423,-25.221
21563,-23.36,-28.298
21574,-24.98,-27.262
21586,-28.342,-27.673
21598,-27.183,-28.58
21609,-28.766,-25.275
21621,-27.868,-24.348
21633,-27.852,-25.361
21645,-27.257,-26.102
21656,-26.25,-23.293
21668,-26.511,-26.846
21680,-25.861,-23.263
21691,-25.852,-24.091
21703,-29.754,-26.714
21715,-26.621,-28.085
21727,-25.277,-29.137
21738,-27.275,-28.515
21750,-27.061,-24.349
21762,-25.639,-27.457
21773,-24.516,-33.002
21785,-27.115,-30.236
21797,-26.895,-25.642
21809,-24.892,-25.397
21820,-28.841,-24.123
21832,-27.449,-23.514
21844,-25.3,-24.857
21855,-26.515,-26.264
21867,-25.259,-28.247
21879,-23.897,-28.104
21891,-25.453,-29.196
21902,-25.046,-27.101
21914,-26.524,-25.893
21926,-23.247,-26.762
21938,-21.152,-29.668
21949,-28.249,-29.673
21961,-25.149,-28.681
21973,-23.759,-26.506
21984,-26.328,-28.288
21996,-23.281,-28.677
22008,-24.18,-27.275
22020,-24.951,-26.016
22031,-25.925,-27.297
22043,-31.142,-25.436
22055,-29.346,-24.446
22066,-27.51,-27.292
22078,-27.79,-29.612
22090,-26.486,-25.62
22102,-24.36,-24.383
22113,-25.692,-23.412
22125,-26.812,-24.35
22137,-26.773,-26.368
22148,-28.479,-27.759
22160,-27.175,-29.707
22172,-27.787,-27.962
22184,-26.291,-26.219
22195,-25.247,-26.37
22207,-26.279,-27.609
22219,-27.83,-29.692
22230,-28.561,-31.141
22242,-27.605,-30.068
22254,-27.58,-29.323
22266,-26.183,-28.084
22277,-25.656,-27.807
22289,-25.398,-27.672
22301,-26.613,-26.488
22313,-25.612,-25.256
22324,-27,-22.123
22336,-29.942,-25.611
22348,-27.74,-28.979
22359,-25.582,-27.369
22371,-26.518,-26.281
22383,-29.202,-25.986
22395,-27.118,-27.636
22406,-26.952,-28.329
22418,-30.429,-28.226
22430,-30.901,-26.662
22441,-29.919,-26.513
22453,-28.599,-27.609
22465,-29.079,-28.027
22477,-27.675,-26.641
22488,-27.872,-25.788
22500,-28.63,-26.812
22512,-27.07,-26.248
22523,-25.517,-24.687
22535,-26.227,-25.519
22547,-27.492,-28.615
22559,-27.74,-30.143
22570,-28.094,-29
22582,-27.618,-27.206
22594,-28.332,-26.191
22605,-28.521,-31.199
22617,-27.198,-28.234
22629,-28.332,-28.598
22641,-28.916,-26.221
22652,-29.912,-27.29
22664,-29.374,-29.922
22676,-27.696,-31.311
22688,-28.758,-29.302
22699,-28.545,-27.658
22711,-30.187,-26.256
22723,-30.534,-25.1
22734,-25.765,-26.442
22746,-24.326,-26.279
22758,-27.059,-25.493
22770,-25.215,-27.942
22781,-27.292,-27.65
22793,-24.425,-30.671
22805,-25.515,-29.763
22816,-25.261,-26.303
22828,-26.929,-26.386
22840,-27.644,-27.359
22852,-28.909,-28.699
22863,-30.751,-29.047
22875,-30.759,-27.629
22887,-29.038,-29.738
22898,-29.643,-27.483
22910,-32.356,-27.627
22922,-26.332,-30.163
22934,-26.556,-29.17
22945,-27.806,-30.103
22957,-27.64,-30.684
22969,-29.488,-27.689
22980,-32.268,-28.015
22992,-29.448,-28.297
23004,-25.809,-30.533
23016,-24.766,-28.637
23027,-30.02,-29.58
23039,-30.287,-30.02
23051,-27.959,-26.725
23063,-26.847,-26.665
23074,-28.012,-30.446
23086,-27.51,-27.881
23098,-27.954,-26.407
23109,-30.831,-27.482
23121,-27.144,-27.714
23133,-26.658,-29.243
23145,-29.853,-29.332
23156,-31.025,-30
23168,-29.726,-29.844
23180,-26.099,-28.979
23191,-26.181,-28.106
23203,-30.083,-28.517
23215,-30.715,-28.086
23227,-29.683,-27.741
23238,-29.247,-26.626
23250,-29.466,-28.449
23262,-29.916,-27.974
23273,-29.362,-26.647
23285,-27.516,-28.434
23297,-26.661,-29.94
23309,-29.667,-27.927
23320,-30.49,-27.914
23332,-28.364,-27.557
23344,-27.837,-29.253
23355,-34.869,-29.403
23367,-29.331,-30.115
23379,-28.539,-30.002
23391,-25.143,-28.824
23402,-24.616,-28.062
23414,-27.457,-30.057
23426,-28.157,-25.939
23438,-29.763,-26.445
23449,-30.103,-28.533
23461,-28.236,-29.206
23473,-29.629,-29.328
23484,-26.629,-28.006
23496,-27.164,-26.792
23508,-29.393,-27.972
23520,-30.31,-28.246
23531,-28.017,-29.387
23543,-30.685,-27.806
23555,-30.209,-26.807
23566,-26.318,-27.087
23578,-28.955,-29.57
23590,-30.663,-28.266
23602,-30.042,-27.762
23613,-28.939,-28.085
23625,-26.609,-28.166
23637,-28.521,-30.507
23648,-29.364,-29.94
23660,-25.584,-30.746
23672,-25.42,-31.983
23684,-26.899,-32.658
23695,-27.009,-30.996
23707,-30.425,-31.492
23719,-31.074,-30.271
23730,-30.497,-28.143
23742,-29.062,-29.556
23754,-26.576,-27.052
23766,-29.853,-24.771
23777,-29.262,-25.057
23789,-26.403,-28.126
23801,-26.737,-29.395
23813,-28.706,-29.133
23824,-27.375,-29.754
23836,-28.748,-28.733
23848,-27.622,-32.178
23859,-30.728,-29.791
23871,-31.387,-28.597
23883,-29.069,-30.273
23895,-29.598,-28.763
23906,-28.847,-25.508
23918,-30.096,-27.864
23930,-29.379,-27.566
23941,-31.817,-25.319
23953,-22.257,-26.23
23965,-15.01,-29.041
23977,-18.321,-29.025
23988,-27.871,-26.952
