FFT,Power Spectrum
Frequency[Hz],Level-L[dB],Level-R[dB]
11.719,-16.11,-18.959
23.438,3.7047,1.4613
35.156,3.2354,3.5592
46.875,2.7012,2.6546
58.594,3.5604,1.9311
70.313,1.6106,2.3933
82.031,7.312,7.097
93.75,11.742,10.863
105.47,10.96,10.317
117.19,10.568,9.4867
128.91,8.2446,7.4831
140.63,10.627,6.8513
152.34,8.3157,5.7479
164.06,2.6209,4.8298
175.78,7.6578,6.5225
187.5,13.007,12.318
199.22,12.233,10.654
210.94,6.965,3.073
222.66,6.1688,5.3
234.38,8.4099,4.7571
246.09,8.7698,4.0666
257.81,6.9947,3.6666
269.53,7.8786,4.227
281.25,9.8583,3.1786
292.97,9.7738,6.5422
304.69,7.5324,6.7999
316.41,8.3433,8.5256
328.13,9.0057,9.8723
339.84,8.3322,5.6849
351.56,5.9729,6.6494
363.28,4.7845,2.3852
375,6.4776,4.8941
386.72,5.9045,4.4207
398.44,3.8206,3.8322
410.16,5.4137,5.3515
421.88,6.575,3.1455
433.59,4.9378,6.2815
445.31,5.6053,7.4324
457.03,6.0724,3.8065
468.75,5.858,4.9618
480.47,5.614,4.2026
492.19,3.4053,4.782
503.91,3.3137,3.5001
515.63,2.4034,4.2638
527.34,6.2165,2.3797
539.06,4.8808,2.555
550.78,4.6575,1.6916
562.5,7.5652,6.2345
574.22,10.116,7.1867
585.94,9.7685,5.4056
597.66,8.4125,3.6235
609.38,7.5739,4.432
621.09,6.8039,7.0891
632.81,7.1427,3.311
644.53,7.0166,5.5018
656.25,5.5593,6.8453
667.97,6.7505,10.744
679.69,6.2292,8.6813
691.41,6.563,5.8994
703.13,5.9665,4.9435
714.84,2.9044,4.5459
726.56,3.3485,5.9787
738.28,2.3635,7.0004
750,3.1366,4.8085
761.72,5.8048,4.7844
773.44,7.4975,3.257
785.16,4.9536,7.1491
796.88,6.4524,8.5871
808.59,7.6599,7.8876
820.31,6.7042,4.7783
832.03,7.2501,3.0528
843.75,8.7559,8.7965
855.47,6.6573,7.8461
867.19,9.83,4.4405
878.91,7.9806,4.5299
890.63,7.151,5.0796
902.34,9.0823,6.3309
914.06,10.021,6.3185
925.78,9.4068,5.9818
937.5,7.5839,5.0554
949.22,6.5474,5.4993
960.94,5.6762,3.0763
972.66,5.2533,4.0874
984.38,4.4108,2.1896
996.09,2.0061,3.0426
1007.8,2.4698,1.8254
1019.5,3.0157,5.0483
1031.3,0.62125,4.5354
1043,2.0937,2.3809
1054.7,3.0212,4.052
1066.4,5.292,5.8368
1078.1,5.4381,3.9451
1089.8,2.232,3.4368
1101.6,2.2892,4.0705
1113.3,3.9822,3.0504
1125,2.6038,3.3743
1136.7,6.2674,3.0723
1148.4,5.8358,2.0789
1160.2,4.6411,-0.94607
1171.9,6.7404,-0.20867
1183.6,5.5552,-0.43819
1195.3,4.3294,3.665
1207,2.262,4.8258
1218.8,2.6004,1.9397
1230.5,9.9095,5.5035
1242.2,7.87,4.4476
1253.9,4.5441,4.2189
1265.6,3.2412,5.1814
1277.3,-0.59665,2.0084
1289.1,1.2456,2.8357
1300.8,4.9478,1.7153
1312.5,4.0181,1.5029
1324.2,0.28434,3.112
1335.9,2.615,4.4919
1347.7,3.0191,4.1406
1359.4,4.849,3.9285
1371.1,1.0089,3.492
1382.8,2.497,2.0677
1394.5,6.6952,2.8602
1406.3,7.0494,4.1208
1418,0.79545,2.5897
1429.7,4.8853,5.5339
1441.4,3.9689,5.0887
1453.1,1.7923,1.3101
1464.8,3.1865,-1.6288
1476.6,4.3153,-0.70345
1488.3,6.1151,1.481
1500,6.315,5.2342
1511.7,6.3832,6.3649
1523.4,5.6841,5.9412
1535.2,0.26979,4.9522
1546.9,2.7138,2.6475
1558.6,4.8199,0.92282
1570.3,4.8414,3.4311
1582,3.0214,5.0177
1593.8,2.5558,3.4073
1605.5,1.9924,-0.42503
1617.2,0.22688,2.3242
1628.9,1.9722,3.328
1640.6,5.8453,0.18969
1652.3,3.9394,-1.9567
1664.1,2.4145,3.3759
1675.8,3.9116,5.0148
1687.5,1.9319,5.1285
1699.2,3.0289,7.4348
1710.9,5.8951,7.1667
1722.7,8.0602,2.7185
1734.4,0.8327,3.4742
1746.1,5.3608,1.9068
1757.8,3.3922,0.19471
1769.5,4.0227,2.4913
1781.3,4.6855,3.2573
1793,1.3407,2.9092
1804.7,2.261,3.5426
1816.4,5.768,3.2907
1828.1,5.6325,4.4383
1839.8,2.4295,3.7331
1851.6,3.1201,3.8273
1863.3,0.56464,5.0736
1875,0.47353,2.0991
1886.7,2.7367,1.6749
1898.4,1.3095,2.4098
1910.2,3.9419,3.4452
1921.9,5.3678,2.9811
1933.6,2.9198,-1.9889
1945.3,1.2197,1.6775
1957,0.9598,2.1045
1968.8,-0.13901,3.0795
1980.5,2.1257,1.8482
1992.2,2.4991,1.2739
2003.9,2.0832,3.4663
2015.6,-0.92627,3.4236
2027.3,4.2742,1.4859
2039.1,3.4094,1.8631
2050.8,2.6198,-0.65008
2062.5,3.028,1.7984
2074.2,3.3336,3.6517
2085.9,3.8172,6.185
2097.7,2.5901,4.2885
2109.4,2.9907,2.1008
2121.1,2.2578,0.47026
2132.8,3.4826,0.99734
2144.5,4.8573,1.0478
2156.3,-1.0872,0.18507
2168,4.4154,7.011
2179.7,4.6528,6.3335
2191.4,2.9765,0.91054
2203.1,3.523,0.92718
2214.8,3.0703,3.8649
2226.6,0.051513,4.0796
2238.3,1.5147,1.718
2250,1.0893,2.5635
2261.7,-0.4164,0.5809
2273.4,1.6173,0.54795
2285.2,4.4929,2.1631
2296.9,2.5791,0.097365
2308.6,1.2743,3.3904
2320.3,3.2208,4.3423
2332,4.2185,0.4032
2343.8,2.5072,1.1525
2355.5,2.8434,4.5729
2367.2,3.1589,4.5494
2378.9,0.49295,2.7327
2390.6,-1.1322,3.6443
2402.3,-0.33329,3.55
2414.1,-0.084913,3.5142
2425.8,1.9483,2.9615
2437.5,1.6638,1.2592
2449.2,-2.0121,1.4751
2460.9,-1.8025,1.5506
2472.7,0.13602,1.3525
2484.4,1.8535,1.319
2496.1,2.9971,-0.96663
2507.8,4.3941,0.84171
2519.5,3.6859,-1.6277
2531.3,0.5028,1.3005
2543,-0.13183,0.55675
2554.7,-0.36285,2.2876
2566.4,-1.0991,5.2191
2578.1,1.8743,4.019
2589.8,3.0928,2.5399
2601.6,0.43223,2.9987
2613.3,-4.5756,2.0592
2625,-4.1158,2.9871
2636.7,-2.1891,0.14856
2648.4,1.6672,-3.053
2660.2,2.4011,-2.9346
2671.9,-0.35781,1.224
2683.6,-2.5333,1.7929
2695.3,-1.1802,-0.21936
2707,0.28096,-0.24705
2718.8,2.3653,1.7856
2730.5,2.4021,0.61515
2742.2,-0.70084,0.58308
2753.9,-0.35908,-0.88593
2765.6,1.5598,-0.64438
2777.3,3.0459,0.15846
2789.1,0.17868,-1.4425
2800.8,-2.5172,-2.3433
2812.5,-0.17509,-1.2957
2824.2,0.11393,1.4016
2835.9,-1.3533,1.5186
2847.7,-1.4386,-3.5317
2859.4,-1.0072,-1.4139
2871.1,-0.34932,-0.084724
2882.8,-0.12715,1.074
2894.5,0.94376,0.55369
2906.3,1.5332,0.74896
2918,2.4293,1.8192
2929.7,-0.96196,-0.23141
2941.4,-0.61424,-0.86302
2953.1,-2.845,-0.7331
2964.8,-0.52724,-0.96058
2976.6,-0.11161,-1.0502
2988.3,0.47429,2.2912
3000,-0.79935,5.24
3011.7,-0.19561,1.2647
3023.4,-0.43863,-0.77618
3035.2,0.58749,-1.2511
3046.9,-0.044769,-1.8358
3058.6,-2.4584,1.4115
3070.3,-3.2636,0.30166
3082,-1.4684,-2.128
3093.8,0.96076,1.107
3105.5,-0.27089,1.0848
3117.2,-0.23657,-1.2881
3128.9,-1.7167,-0.91807
3140.6,-0.45259,3.1491
3152.3,0.17088,2.6615
3164.1,0.055866,-0.34048
3175.8,0.64662,-0.93306
3187.5,-1.8495,-3.2788
3199.2,0.1669,-1.592
3210.9,0.94064,-0.73684
3222.7,-1.8696,-1.2056
3234.4,-0.1354,0.93577
3246.1,-0.20643,0.87893
3257.8,-0.79628,-0.90397
3269.5,-0.6032,-2.0869
3281.3,-2.3528,-1.2289
3293,0.12588,-0.53406
3304.7,-2.729,-2.0151
3316.4,-4.046,-2.9937
3328.1,-0.76664,-3.0469
3339.8,-0.80286,0.059333
3351.6,0.64093,2.4473
3363.3,0.010825,1.359
3375,-2.6314,-0.53044
3386.7,-1.1729,0.72955
3398.4,-3.329,-2.0947
3410.2,-2.1372,-0.41091
3421.9,-0.72625,-1.8235
3433.6,-4.2096,-0.94586
3445.3,-3.2547,-0.056704
3457,-1.579,-2.9815
3468.8,-2.5093,-0.8344
3480.5,-2.0878,0.36896
3492.2,1.0785,0.5335
3503.9,-0.64953,-1.8462
3515.6,-0.86499,-0.025398
3527.3,-3.0552,-0.60704
3539.1,-2.0826,0.30314
3550.8,-2.5467,0.20808
3562.5,-5.0045,-0.25802
3574.2,-2.7103,0.17037
3585.9,0.065934,0.090476
3597.7,1.2432,-0.76116
3609.4,-0.14228,-1.8979
3621.1,-3.6674,-4.0307
3632.8,-1.6997,-0.54924
3644.5,-0.47674,-0.2224
3656.3,2.3723,-3.0305
3668,9.9793,-2.3629
3679.7,26.878,1.5027
3691.4,29.201,3.9689
3703.1,19.047,0.73123
3714.8,2.2343,0.82817
3726.6,-2.5945,1.317
3738.3,-3.134,1.4875
3750,-0.86298,-1.3579
3761.7,-1.3535,-0.67264
3773.4,-0.15588,-1.9931
3785.2,-0.96051,-1.02
3796.9,1.9828,-0.73691
3808.6,-1.6126,-1.1338
3820.3,-6.0248,1.05
3832,-2.0742,1.4702
3843.8,-2.4116,-0.75129
3855.5,-2.6996,-2.7639
3867.2,-1.2564,-1.9442
3878.9,-0.92226,-0.93802
3890.6,-1.6039,-2.6925
3902.3,-1.9477,-4.2111
3914.1,-3.0353,-1.9652
3925.8,-4.1332,-2.5606
3937.5,-1.7545,-5.8946
3949.2,-1.2064,-2.0275
3960.9,-1.4654,-2.652
3972.7,-2.6345,-3.8369
3984.4,-3.8199,-0.73115
3996.1,-4.5059,-0.1002
4007.8,-4.2265,-3.3548
4019.5,-4.0624,-4.1912
4031.3,-2.9987,-5.7787
4043,-1.3539,-3.2238
4054.7,-3.7186,-0.397
4066.4,-2.7689,-2.2543
4078.1,0.79856,-3.2887
4089.8,-1.0789,-2.0721
4101.6,0.85804,-3.9208
4113.3,-2.3673,-5.9594
4125,-4.4267,-4.8183
4136.7,-3.6782,-3.0295
4148.4,-4.6845,-0.9367
4160.2,-5.1727,0.46973
4171.9,-2.7251,-1.5849
4183.6,-2.3201,-2.7006
4195.3,-3.5094,-2.5141
4207,-1.5386,-1.6546
4218.8,-2.5444,-1.7437
4230.5,-4.5904,-4.8471
4242.2,-1.217,-5.1434
4253.9,-2.0193,-4.5791
4265.6,-2.6127,-0.92472
4277.3,-1.6814,0.18231
4289.1,0.13,-1.2332
4300.8,-1.0112,-2.3909
4312.5,-5.5085,-5.4105
4324.2,-2.8503,-2.0293
4335.9,-1.2385,-4.1952
4347.7,-1.5358,-2.3598
4359.4,-2.4476,-1.7885
4371.1,-2.6258,-0.40516
4382.8,-3.5499,-3.6091
4394.5,-3.4481,-4.1498
4406.3,-4.98,-4.4253
4418,-5.2811,-4.7016
4429.7,-3.4908,-0.74685
4441.4,-0.79564,-1.0478
4453.1,-1.7081,-4.2904
4464.8,-2.3433,-4.309
4476.6,-5.15,-4.1907
4488.3,-3.8645,-5.8982
4500,-6.1179,-3.5412
4511.7,-2.2457,-2.2785
4523.4,1.3092,-0.6171
4535.2,0.36853,-1.3575
4546.9,-5.6607,-1.6664
4558.6,-1.1305,-4.1772
4570.3,-1.9226,-7.7025
4582,-8.1596,-7.7788
4593.8,-5.5192,-5.4783
4605.5,-4.0253,-3.3377
4617.2,-3.5471,-1.5478
4628.9,-1.3871,-6.1064
4640.6,-2.8331,-3.1807
4652.3,-2.2443,-3.7833
4664.1,-2.1555,-7.3068
4675.8,-1.2204,-9.1416
4687.5,-2.6325,-3.177
4699.2,-1.1198,-1.2572
4710.9,-3.1547,-4.758
4722.7,-2.5221,-2.3672
4734.4,-3.2399,-4.2902
4746.1,-6.4602,-1.6174
4757.8,-5.3698,-2.3745
4769.5,-2.2824,-1.0146
4781.3,-1.4687,-3.4077
4793,-5.2963,-6.4636
4804.7,-4.5666,-3.5681
4816.4,-3.9425,-4.3058
4828.1,-5.684,-2.1501
4839.8,-3.2587,-3.3564
4851.6,-4.2368,-2.2092
4863.3,-3.8828,-1.787
4875,-5.7294,-2.3029
4886.7,-4.0596,-4.1273
4898.4,-2.1739,-2.5472
4910.2,-3.7233,-1.9334
4921.9,-2.5808,-6.0413
4933.6,-0.97753,-8.4256
4945.3,-2.2824,-5.4429
4957,-1.5333,-5.0173
4968.8,-1.2241,-4.8987
4980.5,-1.8657,-3.6044
4992.2,-3.2387,-2.9882
5003.9,-3.487,-5.9578
5015.6,-2.7209,-5.8352
5027.3,-3.5013,-5.2975
5039.1,-5.6951,-4.2176
5050.8,-3.6283,-5.358
5062.5,-4.1926,-5.6979
5074.2,-1.418,-4.8881
5085.9,-0.35823,-2.133
5097.7,-1.3803,-2.4959
5109.4,-1.3582,-6.3153
5121.1,-3.0246,-3.9424
5132.8,-5.2368,-4.2943
5144.5,-5.4227,-5.9475
5156.3,-4.5862,-3.5334
5168,-3.2296,-9.223
5179.7,-4.5431,-3.5141
5191.4,-4.1218,-1.7089
5203.1,-4.693,-0.99134
5214.8,-4.9749,-0.46161
5226.6,-4.4816,-3.2727
5238.3,-3.7384,-3.9193
5250,-1.8979,-4.3312
5261.7,-0.7749,-5.4296
5273.4,-2.0273,-3.92
5285.2,-4.4424,-3.5911
5296.9,-2.4434,-3.2228
5308.6,-1.8165,-2.8345
5320.3,-0.5635,-6.6701
5332,-0.78784,-5.6775
5343.8,-4.593,-5.2612
5355.5,-9.2852,-6.6817
5367.2,-6.411,-5.1561
5378.9,-4.1104,-5.8893
5390.6,-3.1917,-3.6827
5402.3,-1.315,-2.6953
5414.1,-2.0841,-5.8972
5425.8,-4.4372,-2.35
5437.5,-8.9682,-3.0448
5449.2,-4.5509,-3.0646
5460.9,-6.6565,-4.0473
5472.7,-8.5572,-3.7301
5484.4,-5.4404,-5.5617
5496.1,-3.4372,-7.6899
5507.8,-2.6217,-8.1669
5519.5,-1.855,-8.3481
5531.3,-1.5485,-8.1363
5543,-4.5883,-6.9305
5554.7,-6.7285,-6.5218
5566.4,-4.5038,-5.8886
5578.1,-3.5266,-5.9871
5589.8,-2.2188,-6.5189
5601.6,-5.2612,-5.821
5613.3,-4.056,-5.6662
5625,-6.3392,-5.0963
5636.7,-3.1868,-3.9369
5648.4,-4.8543,-4.972
5660.2,-7.9926,-6.4629
5671.9,-5.6048,-6.9541
5683.6,-5.1115,-6.5618
5695.3,-4.8239,-6.3191
5707,-4.6287,-7.6791
5718.8,-5.6835,-3.4912
5730.5,-4.8473,-1.1612
5742.2,-3.5665,-5.1888
5753.9,-4.8167,-10.477
5765.6,-4.2236,-4.4717
5777.3,-3.4729,-1.5681
5789.1,-2.8975,-5.2776
5800.8,-5.6481,-4.9137
5812.5,-7.471,-8.9752
5824.2,-5.0772,-5.4161
5835.9,-6.0179,-3.6699
5847.7,-6.7738,-3.7292
5859.4,-8.2596,-4.5107
5871.1,-6.2584,-6.4199
5882.8,-7.3501,-12.195
5894.5,-6.9557,-10.836
5906.3,-5.8136,-6.4532
5918,-4.7417,-4.9112
5929.7,-5.9567,-4.5012
5941.4,-7.3174,-6.6017
5953.1,-5.8813,-7.7033
5964.8,-5.717,-8.3905
5976.6,-5.9952,-6.5622
5988.3,-6.6257,-5.2646
6000,-5.7784,-4.1771
6011.7,-4.2534,-6.1622
6023.4,-8.4407,-5.9605
6035.2,-7.5655,-6.1993
6046.9,-4.7564,-6.3767
6058.6,-4.2273,-7.2611
6070.3,-3.2412,-7.1945
6082,-3.3088,-7.4991
6093.8,-2.4855,-7.4986
6105.5,-3.0135,-9.0092
6117.2,-5.144,-10.798
6128.9,-6.5329,-8.7875
6140.6,-6.1241,-7.4866
6152.3,-4.9355,-6.9142
6164.1,-7.0771,-7.7517
6175.8,-5.5373,-7.3983
6187.5,-3.2031,-6.7224
6199.2,-5.936,-6.0804
6210.9,-6.3003,-5.4347
6222.7,-6.112,-3.6346
6234.4,-4.8264,-5.3922
6246.1,-4.7804,-6.4046
6257.8,-4.3764,-5.2513
6269.5,-3.0734,-5.2294
6281.3,-4.6668,-6.8295
6293,-4.794,-5.1352
6304.7,-5.4756,-4.3523
6316.4,-8.1298,-5.8407
6328.1,-6.8497,-8.576
6339.8,-5.6607,-7.6293
6351.6,-6.03,-5.6139
6363.3,-8.4922,-6.273
6375,-10.401,-4.6864
6386.7,-8.1672,-7.4286
6398.4,-6.3026,-8.0898
6410.2,-7.4601,-7.9243
6421.9,-4.0485,-7.8844
6433.6,-3.9748,-3.9451
6445.3,-5.6296,-4.9108
6457,-5.3809,-9.0547
6468.8,-4.8889,-5.7015
6480.5,-7.709,-5.6011
6492.2,-4.3723,-8.5743
6503.9,-3.298,-5.3201
6515.6,-7.069,-4.3871
6527.3,-8.3911,-6.0838
6539.1,-5.0544,-5.1613
6550.8,-3.3696,-5.9468
6562.5,-5.2476,-6.3725
6574.2,-3.211,-3.8107
6585.9,-5.8906,-6.361
6597.7,-6.7033,-4.6144
6609.4,-5.8911,-3.14
6621.1,-7.6581,-4.9873
6632.8,-5.5655,-6.2288
6644.5,-4.1713,-5.6765
6656.3,-4.9266,-7.7217
6668,-6.2232,-8.2427
6679.7,-9.8337,-7.0517
6691.4,-9.3508,-6.2876
6703.1,-6.1076,-8.9767
6714.8,-4.6888,-8.6794
6726.6,-6.9352,-5.4823
6738.3,-7.818,-4.1508
6750,-5.1772,-5.1098
6761.7,-4.5273,-5.7289
6773.4,-6.8244,-4.8721
6785.2,-7.4754,-6.276
6796.9,-7.6068,-7.3733
6808.6,-7.5023,-6.8186
6820.3,-8.587,-7.9885
6832,-6.6213,-7.7237
6843.8,-6.099,-8.951
6855.5,-9.3896,-9.2618
6867.2,-9.5643,-10.052
6878.9,-8.5355,-6.6371
6890.6,-11.038,-5.7525
6902.3,-9.26,-7.1566
6914.1,-8.9126,-7.8331
6925.8,-6.237,-10.533
6937.5,-6.0549,-9.329
6949.2,-6.2868,-8.2153
6960.9,-8.2423,-7.7743
6972.7,-8.7104,-9.6972
6984.4,-5.0628,-9.793
6996.1,-5.7648,-8.7751
7007.8,-6.2844,-7.5141
7019.5,-5.0518,-8.2888
7031.3,-5.8234,-6.5992
7043,-7.1114,-4.3873
7054.7,-6.9044,-5.8321
7066.4,-5.4756,-8.1329
7078.1,-5.8765,-7.7254
7089.8,-8.4518,-6.7759
7101.6,-9.8491,-8.2652
7113.3,-9.5411,-8.5565
7125,-9.2478,-10.58
7136.7,-9.431,-8.986
7148.4,-6.85,-5.7074
7160.2,-9.1577,-7.2423
7171.9,-10.465,-9.3412
7183.6,-9.3278,-9.339
7195.3,-8.6561,-10.823
7207,-7.27,-6.3133
7218.8,-3.7012,-5.2114
7230.5,-3.5881,-5.1652
7242.2,-6.6012,-7.3953
7253.9,-8.191,-6.849
7265.6,-10.098,-5.1831
7277.3,-12.049,-5.6608
7289.1,-7.5924,-9.0327
7300.8,-8.4255,-11.667
7312.5,-10.29,-9.8859
7324.2,-9.643,-9.7752
7335.9,-7.9826,-8
7347.7,-9.8162,-6.443
7359.4,-9.8907,-4.7989
7371.1,-7.1655,-8.2865
7382.8,-5.4078,-9.3382
7394.5,-4.9685,-9.6647
7406.3,-9.4466,-9.1979
7418,-5.3195,-9.189
7429.7,-4.2948,-9.3889
7441.4,-7.2733,-9.9112
7453.1,-7.4404,-8.8358
7464.8,-7.0238,-8.7716
7476.6,-9.2549,-8.2518
7488.3,-9.1566,-6.0142
7500,-7.4965,-6.141
7511.7,-7.296,-8.4334
7523.4,-7.7059,-9.14
7535.2,-9.3249,-6.2158
7546.9,-10.155,-9.3794
7558.6,-13.276,-12.111
7570.3,-9.3771,-10.381
7582,-7.9826,-12.672
7593.8,-7.1348,-9.6113
7605.5,-6.8884,-10.152
7617.2,-8.5594,-6.9382
7628.9,-9.0279,-9.0274
7640.6,-7.5942,-7.4331
7652.3,-7.2302,-9.0952
7664.1,-8.3202,-8.1874
7675.8,-8.5464,-4.4903
7687.5,-5.4154,-4.8274
7699.2,-5.8641,-10.29
7710.9,-10.526,-8.8621
7722.7,-9.1803,-8.6478
7734.4,-9.1612,-11.152
7746.1,-8.5605,-7.7881
7757.8,-8.0583,-5.2565
7769.5,-8.9696,-5.9483
7781.3,-9.4462,-9.1266
7793,-9.7975,-8.3165
7804.7,-10.259,-8.0499
7816.4,-10.04,-8.1855
7828.1,-9.4584,-6.5066
7839.8,-7.5548,-7.6697
7851.6,-7.8993,-9.3097
7863.3,-5.552,-9.8538
7875,-6.7194,-8.1392
7886.7,-7.5256,-8.1352
7898.4,-8.5455,-8.9457
7910.2,-8.8967,-8.3908
7921.9,-9.885,-8.4919
7933.6,-8.4165,-9.0567
7945.3,-12.657,-9.8257
7957,-9.3551,-9.481
7968.8,-8.6106,-10.834
7980.5,-6.2619,-8.1437
7992.2,-6.82,-8.0297
8003.9,-7.4115,-10.123
8015.6,-9.7122,-12.62
8027.3,-7.2853,-11.461
8039.1,-8.0879,-9.324
8050.8,-10.205,-9.5914
8062.5,-11.898,-9.6506
8074.2,-11.037,-8.8315
8085.9,-9.2028,-8.2606
8097.7,-8.42,-7.2138
8109.4,-8.075,-8.0344
8121.1,-9.0013,-7.4163
8132.8,-11.964,-7.56
8144.5,-9.3651,-8.1975
8156.3,-7.0628,-5.86
8168,-7.9917,-7.2795
8179.7,-10.042,-12.241
8191.4,-12.248,-10.646
8203.1,-11.206,-9.1027
8214.8,-9.6599,-9.9057
8226.6,-8.3111,-11.17
8238.3,-9.5613,-12.805
8250,-9.9378,-12.595
8261.7,-12.945,-9.0249
8273.4,-11.82,-8.3926
8285.2,-10.864,-9.7738
8296.9,-7.7343,-7.6849
8308.6,-8.7055,-6.5835
8320.3,-10.864,-10.498
8332,-11.699,-9.724
8343.8,-7.6967,-7.7696
8355.5,-8.2892,-7.7228
8367.2,-11.204,-7.7618
8378.9,-11.431,-8.5522
8390.6,-9.0335,-10.462
8402.3,-10.447,-10.053
8414.1,-7.7466,-8.5537
8425.8,-8.0973,-9.1744
8437.5,-9.0851,-10.742
8449.2,-9.125,-9.9218
8460.9,-9.0222,-8.2864
8472.7,-11.522,-9.6319
8484.4,-8.9285,-11.784
8496.1,-6.9117,-10.419
8507.8,-7.1779,-10.73
8519.5,-10.784,-10.901
8531.3,-13.681,-8.5889
8543,-7.6634,-8.7627
8554.7,-7.1377,-9.8343
8566.4,-9.6504,-10.196
8578.1,-10.434,-11.503
8589.8,-9.8112,-10.484
8601.6,-8.5266,-7.6559
8613.3,-8.6507,-9.6287
8625,-10.226,-12.014
8636.7,-9.4024,-12.455
8648.4,-11.841,-9.9995
8660.2,-9.1984,-10.559
8671.9,-8.705,-7.5666
8683.6,-9.3537,-8.0654
8695.3,-9.1533,-5.4224
8707,-9.0678,-6.2245
8718.8,-9.018,-7.6829
8730.5,-8.6358,-8.1558
8742.2,-8.8346,-9.8831
8753.9,-9.0727,-11.364
8765.6,-10.851,-9.876
8777.3,-9.9546,-11.037
8789.1,-9.0924,-9.2688
8800.8,-9.1391,-11.666
8812.5,-6.4765,-11.396
8824.2,-7.7512,-10.868
8835.9,-12.695,-12.566
8847.7,-11.943,-11.707
8859.4,-11.944,-9.845
8871.1,-7.4475,-8.9781
8882.8,-6.9033,-11.993
8894.5,-9.4608,-10.471
8906.3,-13.488,-11.751
8918,-14.929,-11.772
8929.7,-10.125,-9.9801
8941.4,-11.165,-9.8005
8953.1,-11.997,-10.904
8964.8,-10.689,-12.052
8976.6,-9.4641,-12.654
8988.3,-12.074,-12.906
9000,-9.2725,-13.463
9011.7,-11.905,-14.064
9023.4,-12.244,-10.924
9035.2,-10.767,-8.9003
9046.9,-10.127,-8.796
9058.6,-9.9895,-12.319
9070.3,-9.7629,-11.259
9082,-11.287,-10.233
9093.8,-10.41,-14.498
9105.5,-9.5634,-13.223
9117.2,-8.5839,-12.505
9128.9,-11.88,-15.839
9140.6,-12.959,-11.511
9152.3,-10.522,-12.382
9164.1,-12.884,-9.0577
9175.8,-11.983,-10.595
9187.5,-10.155,-13.662
9199.2,-10.506,-13.001
9210.9,-10.635,-12.307
9222.7,-10.591,-8.5359
9234.4,-11.574,-8.1767
9246.1,-10.111,-14.564
9257.8,-10.973,-10.519
9269.5,-10.931,-9.2269
9281.3,-7.7764,-9.5524
9293,-8.3149,-11.265
9304.7,-10.206,-9.833
9316.4,-11.414,-9.3965
9328.1,-9.0945,-15.182
9339.8,-9.3319,-12.778
9351.6,-12.624,-10.839
9363.3,-14.751,-12.972
9375,-13.835,-9.3818
9386.7,-11.481,-9.8898
9398.4,-11.394,-13.574
9410.2,-9.2467,-9.596
9421.9,-11.517,-9.3623
9433.6,-9.6313,-10.807
9445.3,-9.2812,-8.7039
9457,-10.099,-11.032
9468.8,-10.081,-8.3015
9480.5,-10.491,-8.3284
9492.2,-12.938,-14.398
9503.9,-9.9143,-14.042
9515.6,-10.974,-12.129
9527.3,-11.117,-12.638
9539.1,-8.6609,-10.763
9550.8,-10.416,-11.12
9562.5,-9.8193,-9.9706
9574.2,-7.9362,-9.7687
9585.9,-9.1535,-14.083
9597.7,-12.461,-13.977
9609.4,-13.439,-12.519
9621.1,-12.858,-13.144
9632.8,-12.863,-11.648
9644.5,-13.198,-11.499
9656.3,-13.662,-12.34
9668,-12.219,-10.322
9679.7,-11.588,-14.378
9691.4,-11.08,-12.634
9703.1,-9.8838,-13.567
9714.8,-9.9064,-11.421
9726.6,-10.264,-12.884
9738.3,-12.251,-13.065
9750,-11.679,-14.129
9761.7,-11.847,-9.9808
9773.4,-11.126,-9.4889
9785.2,-11.053,-11.252
9796.9,-12.123,-11.423
9808.6,-12.024,-9.4143
9820.3,-10.385,-9.8613
9832,-9.9785,-12.569
9843.8,-13.431,-10.873
9855.5,-10.477,-12.807
9867.2,-12.599,-13.076
9878.9,-12.773,-12.245
9890.6,-12.224,-11.598
9902.3,-10.405,-13.074
9914.1,-12.574,-13.378
9925.8,-14.662,-12.521
9937.5,-11.411,-14.164
9949.2,-10.261,-14.06
9960.9,-10.865,-12.051
9972.7,-10.333,-13.291
9984.4,-11.503,-15.455
9996.1,-10.73,-14.119
10008,-12.417,-14.327
10020,-10.689,-12.717
10031,-9.2205,-12.17
10043,-9.6931,-13.833
10055,-10.65,-12.186
10066,-13.683,-14.505
10078,-11.079,-15.061
10090,-11.683,-13.097
10102,-14.429,-10.681
10113,-10.844,-9.9453
10125,-10.299,-11.066
10137,-9.0111,-12.019
10148,-7.5423,-13.939
10160,-9.0079,-12.656
10172,-9.2101,-10.354
10184,-11.147,-12.015
10195,-13.418,-12.897
10207,-9.189,-11.523
10219,-10.301,-12.378
10230,-12.241,-11.459
10242,-11.784,-12.537
10254,-13.976,-11.706
10266,-11.008,-10.565
10277,-11.404,-13.717
10289,-10.583,-14.672
10301,-13.324,-11.885
10313,-12.7,-12.163
10324,-12.513,-14.717
10336,-11.718,-16.018
10348,-8.6896,-17.049
10359,-6.9344,-12.101
10371,-6.9551,-8.9424
10383,-7.5129,-9.5772
10395,-9.6918,-10.511
10406,-13.848,-12.498
10418,-12.046,-15.824
10430,-11.233,-15.11
10441,-11.826,-13.248
10453,-11.097,-14.705
10465,-12.388,-16.301
10477,-9.7522,-14.083
10488,-12.68,-15.207
10500,-11.317,-15.058
10512,-9.3975,-13.223
10523,-9.9525,-13.489
10535,-11.691,-14.897
10547,-12.961,-14.941
10559,-13.269,-13.916
10570,-14.415,-13.776
10582,-12.896,-12.101
10594,-9.369,-13.699
10605,-11.802,-11.38
10617,-11.365,-11.098
10629,-9.3495,-10.341
10641,-11.429,-10.837
10652,-12.802,-13.691
10664,-13.437,-12.189
10676,-13.816,-12.419
10688,-10.9,-12.124
10699,-10.72,-12.449
10711,-11.462,-16.837
10723,-11.434,-16.002
10734,-10.652,-12.67
10746,-12.625,-13.983
10758,-11.646,-16.148
10770,-13.253,-13.756
10781,-13.083,-13.662
10793,-13.016,-14.993
10805,-16.164,-11.545
10816,-13.98,-10.477
10828,-11.637,-11.36
10840,-12.197,-13.482
10852,-10.767,-11.883
10863,-8.4576,-11.03
10875,-10.829,-13.384
10887,-11.492,-11.274
10898,-11.86,-10.241
10910,-12.09,-11.213
10922,-13.342,-14.762
10934,-10.216,-11.47
10945,-11.214,-10.619
10957,-8.8063,-11.618
10969,-10.667,-13.324
10980,-12.748,-12.779
10992,-11.826,-12.241
11004,-9.7529,-12.61
11016,-9.9588,-12.4
11027,-13.763,-12.88
11039,-13.4,-13.723
11051,-10.807,-13.56
11063,-6.0789,-14.781
11074,-7.7859,-15.432
11086,-11.66,-12.274
11098,-13.255,-15.211
11109,-12.755,-15.344
11121,-15.7,-15.397
11133,-12.709,-15.347
11145,-10.411,-12.803
11156,-10.899,-11.31
11168,-11.811,-13.107
11180,-12.193,-14.327
11191,-11.557,-15.375
11203,-13.832,-14.832
11215,-13.632,-13.287
11227,-14.67,-12.834
11238,-14.787,-12.378
11250,-12.357,-11.387
11262,-9.3556,-14.182
11273,-10.144,-12.215
11285,-11.754,-11.887
11297,-13.415,-13.588
11309,-15.315,-13.695
11320,-14.337,-14.364
11332,-13.823,-16.801
11344,-13.358,-12.126
11355,-12.813,-14.537
11367,-13.75,-15.512
11379,-12.565,-15.143
11391,-12.093,-16.746
11402,-10.449,-15.359
11414,-9.5798,-14.778
11426,-10.345,-15.886
11438,-14.497,-16.855
11449,-14.676,-14.234
11461,-12.022,-14.209
11473,-11.3,-15.135
11484,-12.622,-16.555
11496,-14.294,-13.3
11508,-13.995,-12.815
11520,-13.763,-14.008
11531,-13.716,-12.86
11543,-13.082,-11.454
11555,-10.32,-12.28
11566,-8.362,-14.049
11578,-10.498,-17.22
11590,-10.567,-18.045
11602,-8.504,-19.016
11613,-10.009,-16.585
11625,-13.98,-18.074
11637,-11.848,-16.088
11648,-14.348,-12.173
11660,-12.509,-14.183
11672,-11.733,-14.951
11684,-10.601,-13.937
11695,-11.111,-13.593
11707,-9.4618,-16.049
11719,-9.8601,-16.329
11730,-10.953,-14.687
11742,-10.553,-13.246
11754,-13.057,-14.065
11766,-15.472,-14.609
11777,-13.061,-13.36
11789,-14.137,-13.807
11801,-12.519,-13.629
11813,-14.243,-15.894
11824,-14.025,-17.131
11836,-12.516,-15.076
11848,-10.757,-14.588
11859,-10.51,-13.955
11871,-12.343,-15.984
11883,-15.489,-15.855
11895,-13.855,-16.827
11906,-14.531,-19.777
11918,-12.688,-17.587
11930,-10.444,-16.057
11941,-11.097,-11.972
11953,-11.496,-13.841
11965,-13.325,-16.149
11977,-17.636,-14.382
11988,-11.347,-14.376
12000,-11.201,-14.354
12012,-11.589,-13.207
12023,-12.731,-12.289
12035,-12.213,-11.223
12047,-11.142,-11.254
12059,-12.912,-14.348
12070,-14.66,-16.005
12082,-15.507,-15.326
12094,-15.65,-12.85
12105,-14.467,-15.579
12117,-14.087,-16.185
12129,-12.641,-13.339
12141,-12.84,-14.137
12152,-14.993,-13.24
12164,-15.142,-14.532
12176,-10.656,-16.218
12188,-10.488,-14.286
12199,-14.577,-12.952
12211,-13.653,-15.733
12223,-9.8785,-17.852
12234,-12.693,-15.047
12246,-11.72,-13.961
12258,-9.8882,-14.72
12270,-10.51,-14.725
12281,-12.736,-13.49
12293,-14.093,-16.292
12305,-11.104,-18.596
12316,-13.752,-18.377
12328,-12.065,-15.644
12340,-10.754,-14.292
12352,-14.695,-13.749
12363,-15.18,-17.146
12375,-13.239,-17.292
12387,-14.669,-15.592
12398,-12.346,-13.739
12410,-9.9494,-15.638
12422,-12.281,-17.831
12434,-12.447,-14.611
12445,-11.602,-15.859
12457,-11.897,-15.007
12469,-13.371,-11.402
12480,-15.278,-12.733
12492,-13.911,-16.132
12504,-13.512,-14.796
12516,-13.814,-12.486
12527,-13.319,-14.775
12539,-12.633,-16.561
12551,-12.427,-17.043
12563,-13.739,-16.182
12574,-15.136,-17.712
12586,-10.641,-16.343
12598,-10.218,-16.274
12609,-10.919,-18.4
12621,-11.824,-15.839
12633,-11.989,-13.904
12645,-10.242,-13.721
12656,-8.8713,-15.123
12668,-13.372,-14.091
12680,-14.032,-14.999
12691,-10.076,-15.933
12703,-12.161,-14.205
12715,-13.554,-14.43
12727,-11.181,-13.247
12738,-10.956,-14.458
12750,-14.155,-16.121
12762,-13.142,-15.906
12773,-12.426,-15.717
12785,-11.129,-14.913
12797,-12.059,-13.017
12809,-12.314,-17.342
12820,-10.341,-16.747
12832,-13.945,-14.28
12844,-16.111,-13.139
12855,-16.709,-15.559
12867,-15.746,-18.469
12879,-15.652,-15.487
12891,-14.449,-14.368
12902,-13.16,-15.18
12914,-12.579,-16.886
12926,-13.18,-16.629
12938,-14.262,-18.597
12949,-15.472,-16.88
12961,-12.504,-14.994
12973,-12.662,-15.594
12984,-14.451,-17.233
12996,-13.82,-19.643
13008,-13.429,-16.911
13020,-11.361,-14.743
13031,-11.193,-15.188
13043,-13.109,-16.452
13055,-14.794,-16.778
13066,-14.752,-14.527
13078,-13.145,-14.416
13090,-11.441,-15.198
13102,-10.378,-16.359
13113,-11.688,-14.094
13125,-13.708,-15.664
13137,-13.311,-14.511
13148,-12.78,-14.524
13160,-15.652,-14.001
13172,-14.169,-13.889
13184,-13.74,-14.869
13195,-15.329,-18.071
13207,-13.9,-16.285
13219,-13.04,-14.102
13230,-14.055,-16.54
13242,-13.131,-16.448
13254,-13.587,-16.942
13266,-12.587,-18.328
13277,-13.162,-13.956
13289,-10.933,-12.738
13301,-13.385,-17.918
13313,-15.621,-18.993
13324,-16.571,-16.138
13336,-16.482,-16.848
13348,-14.33,-15.321
13359,-17.175,-14.195
13371,-15.952,-16.493
13383,-14.641,-16.711
13395,-14.69,-14.582
13406,-15.054,-13.157
13418,-12.679,-16.256
13430,-11.664,-16.968
13441,-10.32,-17.503
13453,-10.769,-18.065
13465,-12.154,-15.13
13477,-13.57,-15.337
13488,-14.951,-19.879
13500,-15.715,-18.435
13512,-18.201,-15.664
13523,-17.407,-14.32
13535,-12.682,-15.599
13547,-12.606,-14.526
13559,-16.239,-16.659
13570,-14.897,-16.693
13582,-15.23,-19.015
13594,-14.492,-18.96
13605,-13.714,-18.856
13617,-13.092,-15.064
13629,-12.039,-14.104
13641,-12.788,-15.81
13652,-15.803,-19.512
13664,-13.96,-18.783
13676,-12.206,-18.608
13688,-12.271,-16.11
13699,-15.379,-16.991
13711,-18.914,-20.763
13723,-16.112,-16.813
13734,-16.422,-16.96
13746,-13.661,-15.44
13758,-14.696,-18.451
13770,-15.949,-16.655
13781,-14.167,-15.353
13793,-14.382,-17.142
13805,-14.398,-16.212
13816,-19.886,-14.518
13828,-14.082,-15.021
13840,-14.143,-16.386
13852,-15.474,-17.153
13863,-15.422,-16.335
13875,-15.556,-16.392
13887,-16.005,-16.55
13898,-13.719,-16.878
13910,-11.698,-17.25
13922,-15.783,-17.592
13934,-15.494,-19.671
13945,-14.493,-17.43
13957,-13.122,-14.962
13969,-16.239,-14.341
13980,-17.001,-17.17
13992,-17.404,-18.043
14004,-16.904,-15.556
14016,-16.293,-14.967
14027,-15.157,-14.492
14039,-16.121,-18.487
14051,-18.808,-16.24
14063,-17.899,-14.874
14074,-14.823,-15.849
14086,-16.371,-17.81
14098,-17.957,-18.361
14109,-15.5,-19.544
14121,-12.545,-15.366
14133,-16.013,-14.417
14145,-17.022,-18.985
14156,-15.378,-16.656
14168,-15.4,-15.875
14180,-13.651,-18.353
14191,-15.255,-18.9
14203,-14.569,-17.858
14215,-15.901,-16.431
14227,-16.521,-15.291
14238,-20.775,-16.577
14250,-15.257,-17.904
14262,-15.594,-19.366
14273,-17.581,-18.034
14285,-16.885,-16.762
14297,-16.072,-20.559
14309,-15.499,-15.965
14320,-14.248,-14.356
14332,-17.649,-14.531
14344,-18.505,-15.338
14355,-17.381,-16.274
14367,-15.773,-18.726
14379,-13.335,-18.325
14391,-17.55,-18.432
14402,-15.298,-18.09
14414,-15.118,-20.656
14426,-17.711,-19.862
14438,-15.669,-17.521
14449,-15.241,-17.397
14461,-16.987,-17.389
14473,-15.335,-17.318
14484,-14.328,-15.859
14496,-16.327,-15.952
14508,-18.182,-18.343
14520,-16.462,-18.304
14531,-14.874,-15.872
14543,-17.006,-16.744
14555,-18.486,-18.587
14566,-16.094,-16.179
14578,-15.031,-18.361
14590,-16.39,-16.336
14602,-17.812,-16.818
14613,-16.676,-18.7
14625,-16.593,-17.388
14637,-16.284,-16.036
14648,-15.51,-15.937
14660,-14.881,-16.872
14672,-18.879,-16.558
14684,-16.966,-18.791
14695,-18.251,-17.416
14707,-15.607,-16.412
14719,-15.538,-17.936
14730,-16.263,-17.771
14742,-17.225,-18.536
14754,-17.363,-17.036
14766,-16.975,-18.361
14777,-17.083,-18.455
14789,-15.428,-19.91
14801,-16.214,-23.527
14813,-19.156,-21.898
14824,-20.524,-20.165
14836,-18.891,-19.745
14848,-17.394,-17.352
14859,-21.425,-20.116
14871,-18.391,-20.498
14883,-19.08,-17.899
14895,-18.831,-18.366
14906,-18.629,-18.296
14918,-17.893,-18.928
14930,-17.801,-18.125
14941,-19.954,-19.828
14953,-15.883,-21.34
14965,-14.441,-17.821
14977,-15.688,-16.533
14988,-19.914,-16.567
15000,-22.707,-17.04
15012,-19.637,-19.865
15023,-19.432,-20.553
15035,-17.509,-22.274
15047,-17.284,-18.234
15059,-19.259,-16.838
15070,-19.042,-15.485
15082,-20.402,-17.225
15094,-19.825,-16.513
15105,-19.887,-15.513
15117,-19.755,-15.444
15129,-16.536,-16.841
15141,-17.342,-18.646
15152,-18.656,-20.281
15164,-18.057,-23.022
15176,-17.786,-17.732
15188,-17.163,-14.712
15199,-19.037,-16.548
15211,-20.533,-19.713
15223,-17.686,-20.089
15234,-18.755,-20.22
15246,-19.741,-18.184
15258,-19.511,-18.882
15270,-19.929,-18.189
15281,-19.666,-16.906
15293,-20.784,-17.221
15305,-17.567,-18.047
15316,-16.379,-17.834
15328,-16.266,-18.433
15340,-17.167,-19.088
15352,-15.985,-21.077
15363,-17.973,-19.759
15375,-19.575,-16.564
15387,-18.278,-18.087
15398,-16.865,-20.617
15410,-18.816,-18.434
15422,-17.417,-19.262
15434,-17.861,-20.326
15445,-18.017,-20.356
15457,-18.792,-17.607
15469,-19.538,-21.195
15480,-17.671,-18.53
15492,-18.218,-19.878
15504,-18.809,-22.461
15516,-19.751,-22.102
15527,-19.645,-19.517
15539,-21.064,-17.2
15551,-17.202,-18.324
15563,-17.053,-18.834
15574,-16.484,-18.491
15586,-18.181,-17.977
15598,-20.163,-20.715
15609,-18.786,-22.512
15621,-18.021,-20.982
15633,-19.768,-22.153
15645,-21.874,-22.431
15656,-19.116,-19.437
15668,-18.734,-19.443
15680,-18.037,-18.482
15691,-20.653,-19.86
15703,-20.472,-18.611
15715,-21.644,-17.837
15727,-19.242,-19.808
15738,-16.586,-18.508
15750,-17.689,-19.281
15762,-17.859,-20.363
15773,-19.205,-21.106
15785,-20.997,-23.302
15797,-19.707,-20.148
15809,-18.438,-18.471
15820,-19.262,-18.912
15832,-19.326,-19.554
15844,-16.462,-20.788
15855,-17.936,-20.391
15867,-18.029,-22.941
15879,-18.572,-20.343
15891,-19.642,-22.697
15902,-18.866,-20.407
15914,-20.698,-16.303
15926,-19.954,-18.681
15938,-19.179,-22.718
15949,-19.78,-19.333
15961,-19.488,-17.321
15973,-19.676,-17.236
15984,-17.483,-18.785
15996,-15.664,-18.471
16008,-17.004,-18.746
16020,-19.087,-18.984
16031,-20.523,-19.414
16043,-19.274,-21.302
16055,-19.945,-19.114
16066,-21.389,-21.896
16078,-20.345,-22.516
16090,-19.897,-21.967
16102,-17.691,-22.19
16113,-18.113,-20.773
16125,-22.276,-20.296
16137,-20.809,-23.753
16148,-21.952,-21.74
16160,-22.686,-20.601
16172,-19.823,-19.804
16184,-19.389,-20.411
16195,-18.373,-21.683
16207,-19.544,-20.098
16219,-21.371,-17.847
16230,-22.545,-18.077
16242,-22.928,-20.003
16254,-23.072,-19.29
16266,-19.845,-19.794
16277,-22.425,-20.96
16289,-20.032,-21.06
16301,-20.853,-20.615
16313,-19.092,-18.652
16324,-19.327,-19.169
16336,-19.251,-25.188
16348,-23.395,-21.767
16359,-20.497,-24.244
16371,-20.071,-22.24
16383,-23.294,-21.757
16395,-22.482,-20.738
16406,-18.551,-19.709
16418,-21.452,-25.877
16430,-23.174,-20.236
16441,-21.16,-19.617
16453,-17.74,-22.524
16465,-18.548,-20.733
16477,-23.235,-18.863
16488,-22.359,-18.601
16500,-19,-19.39
16512,-18.43,-20.448
16523,-17.63,-19.886
16535,-18.006,-19.793
16547,-20.431,-19.306
16559,-19.99,-17.651
16570,-20.067,-18.781
16582,-19.951,-20.278
16594,-21.54,-21.128
16605,-20.166,-21.12
16617,-19.113,-18.624
16629,-21.608,-18.648
16641,-20.885,-19.361
16652,-20.263,-22.094
16664,-22.902,-22.484
16676,-21.521,-23.996
16688,-22.99,-23.527
16699,-19.773,-23.4
16711,-17.291,-21.312
16723,-20.856,-23.059
16734,-23.891,-24.182
16746,-23.97,-22.711
16758,-23.542,-20.841
16770,-17.915,-19.59
16781,-18.3,-17.693
16793,-19.817,-19.34
16805,-19.347,-22.793
16816,-21.119,-23.054
16828,-22.802,-20.995
16840,-20.714,-21.758
16852,-21.832,-22.606
16863,-23.357,-24.932
16875,-19.329,-23.043
16887,-20.186,-22.886
16898,-23.225,-20.231
16910,-24.585,-21.605
16922,-20.396,-20.993
16934,-18.812,-22.976
16945,-20.374,-20.637
16957,-21.87,-20.304
16969,-21.099,-21.105
16980,-20.451,-21.195
16992,-20.373,-19.412
17004,-19.99,-18.988
17016,-17.585,-18.527
17027,-20.225,-20.162
17039,-20.71,-22.588
17051,-20.514,-22.436
17063,-20.532,-23.134
17074,-21.026,-21.349
17086,-20.918,-20.438
17098,-21.684,-20.628
17109,-20.61,-19.497
17121,-18.542,-23.709
17133,-18.4,-26.948
17145,-21.284,-20.467
17156,-23.859,-22.109
17168,-21.723,-22.549
17180,-24.01,-22.235
17191,-22.204,-22.175
17203,-22.622,-21.612
17215,-23.609,-18.216
17227,-23.349,-21.597
17238,-25.526,-23.401
17250,-22.831,-21.624
17262,-21.783,-22.006
17273,-21.611,-23.654
17285,-17.383,-20.15
17297,-24.515,-19.092
17309,-19.546,-22.444
17320,-19.076,-23.424
17332,-20.269,-22.819
17344,-22.982,-22.564
17355,-19.735,-19.82
17367,-21.849,-20.499
17379,-22.689,-23.543
17391,-19.733,-25.494
17402,-21.816,-25.597
17414,-23.483,-22.448
17426,-27.673,-22.782
17438,-25.364,-20.176
17449,-22.81,-20.548
17461,-22.747,-22.101
17473,-21.607,-19.252
17484,-22.724,-20.081
17496,-24.679,-22.427
17508,-21.991,-24.056
17520,-19.974,-23.442
17531,-22.386,-23.853
17543,-22.341,-23.3
17555,-24.296,-23.787
17566,-22.847,-21.1
17578,-20.516,-21.387
17590,-20.293,-22.585
17602,-20.608,-24.687
17613,-21.056,-24.815
17625,-21.409,-24.056
17637,-24.603,-22.673
17648,-23.557,-24.274
17660,-24.394,-21.499
17672,-22.452,-22.089
17684,-21.502,-23.052
17695,-20.489,-21.061
17707,-19.578,-24.517
17719,-22.337,-26.29
17730,-23.342,-21.585
17742,-20.024,-21.301
17754,-21.406,-22.574
17766,-23.11,-22.018
17777,-22.867,-23.037
17789,-22.523,-25.388
17801,-21.361,-24.029
17813,-22.686,-24.156
17824,-25.762,-21.648
17836,-26.314,-21.083
17848,-24.029,-23.722
17859,-23.283,-21.747
17871,-25.238,-21.39
17883,-21.864,-22.387
17895,-19.853,-22.39
17906,-20.201,-21.591
17918,-20.94,-22.064
17930,-20.434,-23.575
17941,-22.298,-23.445
17953,-20.343,-24.661
17965,-19.958,-26.497
17977,-23.19,-24.69
17988,-24.78,-27.868
18000,-21.246,-24.045
18012,-22.577,-23.943
18023,-28.168,-23.646
18035,-21.882,-22.314
18047,-21.103,-22.994
18059,-21.698,-20.338
18070,-24.176,-19.487
18082,-20.078,-21.659
18094,-19.635,-24.68
18105,-21.8,-27.325
18117,-22.999,-26.702
18129,-22.25,-25.007
18141,-23.198,-27.216
18152,-21.809,-22.905
18164,-21.88,-21.594
18176,-21.744,-23.977
18188,-22.091,-23.406
18199,-24.423,-23.461
18211,-23.457,-23.553
18223,-21.746,-22.29
18234,-22.223,-25.707
18246,-24.871,-24.64
18258,-23.652,-23.907
18270,-22.57,-23.392
18281,-22.414,-24.331
18293,-24.276,-24.37
18305,-22.505,-25.449
18316,-23.625,-23.417
18328,-24.211,-22.271
18340,-24.752,-22.848
18352,-25.768,-23.789
18363,-27.726,-23.679
18375,-23.636,-23.221
18387,-20.097,-21.715
18398,-23.121,-26.002
18410,-23.71,-26.729
18422,-23.957,-24.154
18434,-21.27,-22.045
18445,-20.458,-24.629
18457,-21.873,-24.972
18469,-23.005,-24.713
18480,-22.643,-28.027
18492,-21.966,-25.402
18504,-19.489,-22.389
18516,-20.648,-22.616
18527,-22.589,-23.853
18539,-23.703,-22.329
18551,-22.817,-22.165
18563,-23.554,-23.75
18574,-20.415,-25.802
18586,-19.706,-23.62
18598,-22.132,-22.079
18609,-25.745,-22.516
18621,-25.663,-24.556
18633,-24.305,-23.757
18645,-22.171,-22.392
18656,-26.73,-24.352
18668,-27.253,-24.377
18680,-24.315,-25.015
18691,-23.293,-23.038
18703,-26.339,-20.021
18715,-24.812,-21.946
18727,-23.463,-24.257
18738,-26.291,-24.454
18750,-25.144,-23.578
18762,-22.876,-21.552
18773,-21.714,-20.789
18785,-20.895,-23.683
18797,-23.884,-24.821
18809,-24.708,-23.726
18820,-24.097,-23.2
18832,-21.314,-23.373
18844,-21.807,-23.724
18855,-21.199,-23.43
18867,-21.534,-25.302
18879,-24.733,-26.279
18891,-25.963,-27.405
18902,-24.1,-24.406
18914,-22.237,-21.327
18926,-23.047,-22.654
18938,-25.527,-27.051
18949,-26.424,-24.276
18961,-23.538,-25.664
18973,-22.901,-27.572
18984,-24.511,-24.677
18996,-29.971,-24.242
19008,-25.31,-25.329
19020,-25.121,-24.488
19031,-23.606,-25.451
19043,-22.463,-25.877
19055,-22.347,-26.303
19066,-22.824,-25.204
19078,-23.86,-23.329
19090,-24.509,-25.544
19102,-23.338,-26.603
19113,-21.957,-23.931
19125,-26.54,-25.557
19137,-23.268,-25.928
19148,-23.511,-23.304
19160,-23.113,-25.548
19172,-21.873,-23.841
19184,-22.866,-23.659
19195,-24.841,-24.193
19207,-27.628,-24.385
19219,-26.435,-24.916
19230,-24.082,-23.993
19242,-23.59,-23.992
19254,-25.278,-26.244
19266,-25.587,-25.862
19277,-26.613,-24.791
19289,-24.979,-23.814
19301,-25.083,-24.062
19313,-26.047,-23.279
19324,-24.624,-22
19336,-24.526,-24.009
19348,-24.042,-24.529
19359,-24.337,-24.591
19371,-24.247,-25.713
19383,-24.041,-27.659
19395,-24.417,-27.366
19406,-25.189,-24.395
19418,-24.473,-22.654
19430,-22.627,-21.664
19441,-23.268,-23.799
19453,-24.421,-26.736
19465,-23.208,-27.636
19477,-22.852,-22.612
19488,-25.001,-22.896
19500,-25.43,-23.309
19512,-26.878,-22.834
19523,-24.807,-24.939
19535,-22.957,-25.759
19547,-24.728,-23.451
19559,-27.107,-24.725
19570,-24.878,-25.824
19582,-22.976,-28.273
19594,-26.911,-30.322
19605,-27.468,-25.544
19617,-23.312,-22.853
19629,-22.473,-26.778
19641,-23.915,-28.217
19652,-24.85,-26.833
19664,-25.194,-25.247
19676,-25.292,-25.326
19688,-23.998,-25.321
19699,-22.487,-24.781
19711,-22.999,-22.954
19723,-24.45,-25.453
19734,-24.393,-26.25
19746,-24.055,-27.371
19758,-26.171,-28.795
19770,-25.078,-24.771
19781,-22.712,-24.452
19793,-25.662,-24.828
19805,-27.156,-25.393
19816,-26.263,-25.024
19828,-26.969,-25.192
19840,-26.137,-24.594
19852,-27.958,-23.63
19863,-24.512,-26.391
19875,-21.998,-25.544
19887,-24.316,-24.019
19898,-25.687,-25.142
19910,-24.279,-25.352
19922,-25.4,-27.133
19934,-27.96,-24.122
19945,-27.683,-24.218
19957,-26.582,-24.419
19969,-23.89,-22.401
19980,-24.384,-23.114
19992,-24.085,-24.254
20004,-24.861,-23.984
20016,-25.41,-25.59
20027,-23.432,-25.63
20039,-25.747,-25.108
20051,-23.36,-25.719
20063,-25.34,-25.983
20074,-26.915,-23.94
20086,-25.794,-24.935
20098,-26.765,-27.784
20109,-26.009,-22.671
20121,-24.094,-25.695
20133,-26.141,-24.957
20145,-26.448,-28.771
20156,-24.534,-27.147
20168,-24.414,-24.954
20180,-25.713,-26.372
20191,-26.354,-24.583
20203,-25.356,-25.174
20215,-24.467,-25.634
20227,-25.71,-23.289
20238,-27.28,-27.083
20250,-26.795,-25.561
20262,-26.015,-28.568
20273,-26.807,-27.811
20285,-25.315,-26.206
20297,-24.714,-26.13
20309,-24.18,-29.631
20320,-22.533,-25.362
20332,-25.251,-25.095
20344,-25.968,-23.991
20355,-25.042,-28.155
20367,-25.425,-28.884
20379,-27.202,-24.875
20391,-25.477,-24.937
20402,-25.12,-26.438
20414,-24.505,-28.055
20426,-23.971,-26.869
20438,-23.313,-27.102
20449,-22.937,-28.652
20461,-24.413,-29.297
20473,-25.459,-27.607
20484,-26.319,-23.896
20496,-26.538,-25.166
20508,-26.853,-24.735
20520,-27.6,-25.276
20531,-23.267,-25.91
20543,-22.459,-25.045
20555,-26.364,-26.259
20566,-26.804,-25.015
20578,-24.617,-24.327
20590,-21.74,-27.756
20602,-23.804,-27.714
20613,-26.174,-28.293
20625,-24.347,-26.493
20637,-23.511,-25.464
20648,-25.185,-24.947
20660,-21.058,-28.48
20672,-22.486,-25.035
20684,-28.308,-27.994
20695,-27.794,-26.978
20707,-23.104,-27.154
20719,-20.586,-26.353
20730,-23.611,-24.137
20742,-23.379,-23.661
20754,-24.179,-24.253
20766,-25.81,-23.608
20777,-26.359,-23.274
20789,-25.581,-25.692
20801,-22.479,-25.3
20813,-23.696,-24.086
20824,-24.838,-23.919
20836,-26.138,-23.136
20848,-27.303,-22.836
20859,-28.27,-25.187
20871,-26.41,-27.253
20883,-27.558,-25.954
20895,-26.714,-29.633
20906,-24.521,-28.802
20918,-23.853,-29.891
20930,-26.306,-29.05
20941,-26.603,-31.235
20953,-24.199,-29.552
20965,-25.886,-28.468
20977,-25.469,-30.225
20988,-25.6,-30.643
21000,-26.628,-28.099
21012,-25.127,-25.263
21023,-25.37,-26.957
21035,-26.282,-23.297
21047,-26.088,-23.885
21059,-25.499,-24.82
21070,-27.153,-25.795
21082,-24.47,-27.616
21094,-27.083,-27.961
21105,-24.093,-25.049
21117,-26.214,-23.624
21129,-27.384,-25.548
21141,-25.873,-27.91
21152,-28.363,-23.651
21164,-25.261,-23.957
21176,-24.738,-26.536
21188,-24.918,-28.336
21199,-25.177,-25.063
21211,-27.737,-25.645
21223,-26.458,-24.114
21234,-25.306,-26.208
21246,-27.657,-26.327
21258,-26.81,-29.207
21270,-26.29,-27.649
21281,-27.13,-31.074
21293,-25.75,-30.56
21305,-28.998,-26.787
21316,-28.533,-25.881
21328,-28.897,-23.549
21340,-24.681,-22.812
21352,-23.697,-25.732
21363,-28.146,-28.462
21375,-26.958,-28.528
21387,-24.165,-25.618
21398,-24.312,-25.721
21410,-22.539,-28.144
21422,-23.077,-28.161
21434,-24.516,-26.357
21445,-25.744,-27.215
21457,-26.992,-27.859
21469,-28.303,-26.915
21480,-28.11,-27.805
21492,-27.469,-29.247
21504,-27.238,-28.821
21516,-27.11,-24.856
21527,-28.537,-24.451
21539,-25.392,-27.46
21551,-26.948,-29.367
21563,-28.112,-31.099
21574,-27.251,-27.043
21586,-26.543,-26.118
21598,-26.489,-26.678
21609,-23.478,-28.773
21621,-24.905,-27.208
21633,-28.403,-28.276
21645,-26.872,-32.134
21656,-25.293,-27.318
21668,-25.613,-26.459
21680,-25.204,-25.737
21691,-25.812,-26.616
21703,-26.92,-24.924
21715,-26.131,-24.61
21727,-26.687,-25.326
21738,-27.133,-27.012
21750,-25.182,-28.643
21762,-25.087,-26.551
21773,-23.4,-25.291
21785,-22.715,-24.549
21797,-22.872,-24.468
21809,-21.795,-26.472
21820,-23.55,-27.59
21832,-28.191,-27.856
21844,-27.21,-28.773
21855,-26.282,-25.981
21867,-24.395,-24.89
21879,-24.425,-23.133
21891,-23.836,-25.722
21902,-23.626,-25.574
21914,-26.593,-23.959
21926,-27.693,-26.799
21938,-28.208,-26.648
21949,-29.079,-25.604
21961,-25.541,-30.284
21973,-26.19,-27.772
21984,-26.412,-25.496
21996,-28.02,-25.841
22008,-29.142,-25.607
22020,-29.166,-26.101
22031,-28.267,-28.799
22043,-27.117,-27.887
22055,-25.96,-27.299
22066,-26.749,-27.255
22078,-26.26,-29.958
22090,-30.54,-31.025
22102,-32.502,-28.21
22113,-29.394,-26.516
22125,-24.858,-26.678
22137,-25.004,-26.005
22148,-25.072,-27.782
22160,-24.848,-28.577
22172,-24.303,-29.71
22184,-26.758,-25.682
22195,-29.513,-26.108
22207,-26.952,-28.181
22219,-26.854,-28.351
22230,-27.291,-28.653
22242,-25.762,-29.621
22254,-26.68,-27.866
22266,-25.97,-28.449
22277,-25.038,-28.114
22289,-25.389,-27.362
22301,-26.717,-26.283
22313,-25.975,-25.91
22324,-28.79,-30.034
22336,-25.958,-29.301
22348,-24.22,-26.486
22359,-25.756,-27.188
22371,-28.54,-31.095
22383,-30.153,-28.312
22395,-29.134,-27.15
22406,-27.722,-27.789
22418,-27.585,-28.189
22430,-27.679,-25.187
22441,-30.03,-23.628
22453,-29.238,-27.604
22465,-28.663,-28.359
22477,-26.638,-27.335
22488,-26.594,-25.801
22500,-28.264,-24.453
22512,-27.617,-25.822
22523,-28.517,-26.987
22535,-31.232,-28.209
22547,-28.29,-30.39
22559,-27.415,-28.364
22570,-26.222,-29.34
22582,-21.947,-28.618
22594,-23.959,-30.227
22605,-28.556,-29.399
22617,-28.253,-28.976
22629,-28.28,-28.522
22641,-27.922,-28.639
22652,-27.673,-26.609
22664,-28.791,-26.556
22676,-27.346,-27.422
22688,-27.509,-30.236
22699,-31.477,-30.619
22711,-28.784,-28.641
22723,-25.341,-31.746
22734,-24.471,-29.616
22746,-25.211,-28.507
22758,-28.354,-30.215
22770,-28.655,-31.255
22781,-27.865,-27.386
22793,-27.321,-25.649
22805,-27.868,-28.269
22816,-27.905,-27.838
22828,-26.483,-26.808
22840,-29.298,-28.682
22852,-30.516,-29.165
22863,-29.894,-28.951
22875,-29.402,-25.225
22887,-26.573,-26.988
22898,-27.796,-29.494
22910,-27.899,-27.314
22922,-27.911,-27.544
22934,-25.857,-30.145
22945,-28.963,-30.387
22957,-27.619,-27.534
22969,-27.18,-25.699
22980,-29.356,-28.32
22992,-27.299,-25.73
23004,-28.409,-24.739
23016,-26.662,-28.001
23027,-24.531,-28.564
23039,-25.56,-29.737
23051,-27.607,-30.296
23063,-27.292,-30.354
23074,-24.718,-29.229
23086,-23.972,-30.587
23098,-24.037,-31.072
23109,-25.125,-31.668
23121,-26.564,-28.76
23133,-28.48,-28.137
23145,-26.086,-29.446
23156,-28.508,-29.898
23168,-29.437,-30.738
23180,-28.244,-27.28
23191,-27.691,-25.396
23203,-26.086,-32.883
23215,-29.64,-29.387
23227,-30.748,-27.618
23238,-30.888,-27.689
23250,-28.997,-30.725
23262,-30.494,-31.39
23273,-28.251,-29.097
23285,-27.204,-29.93
23297,-27.562,-29.164
23309,-27.102,-27.703
23320,-27.099,-29.92
23332,-28.753,-25.911
23344,-29.876,-27.685
23355,-27.355,-32.24
23367,-26.737,-29.942
23379,-28.534,-28.63
23391,-27.95,-27.994
23402,-26.969,-28.587
23414,-25.574,-29.208
23426,-26.03,-29.463
23438,-25.779,-30.987
23449,-25.64,-27.325
23461,-24.759,-31.616
23473,-26.17,-28.122
23484,-30.602,-27.935
23496,-28.159,-28.581
23508,-26.347,-29.795
23520,-25.594,-29.404
23531,-25.842,-30.22
23543,-25.905,-33.017
23555,-26.581,-29.542
23566,-27.144,-28.052
23578,-26.335,-29.457
23590,-28.397,-29.197
23602,-29.982,-33.006
23613,-29.267,-30.221
23625,-31.036,-26.942
23637,-26.307,-26.427
23648,-26.981,-28.791
23660,-28.156,-33.577
23672,-29.023,-30.469
23684,-28.93,-29.968
23695,-27.778,-28.996
23707,-29.409,-26.834
23719,-29.445,-27.892
23730,-27.885,-29.138
23742,-26.926,-28.748
23754,-26.699,-31.086
23766,-25.769,-29.561
23777,-30.589,-27.534
23789,-31.355,-28.467
23801,-26.813,-27.411
23813,-27.711,-28.617
23824,-31.099,-30.218
23836,-31.652,-30.356
23848,-31.433,-29.546
23859,-28.627,-29.09
23871,-29.705,-29.065
23883,-28.25,-28.766
23895,-28.025,-29.159
23906,-27.785,-31.581
23918,-25.223,-30.709
23930,-25.371,-29.776
23941,-24.226,-29.823
23953,-17.953,-28.392
23965,-15.402,-26.265
23977,-20.797,-26.366
23988,-26.619,-27.832
