FFT,Power Spectrum
Frequency[Hz],Level-L[dB],Level-R[dB]
11.719,-23.387,-25.726
23.438,-2.691,-5.1148
35.156,-0.95743,-1.5609
46.875,1.882,2.8587
58.594,4.3968,4.6622
70.313,4.9435,3.4546
82.031,7.0853,4.7208
93.75,13.613,10.914
105.47,13.06,10.72
117.19,11.148,7.5019
128.91,10.696,7.8649
140.63,12.165,11.564
152.34,10.434,9.2629
164.06,4.0393,7.5406
175.78,3.3587,4.7928
187.5,12.961,11.815
199.22,12.052,11.93
210.94,6.73,6.5811
222.66,6.3607,5.5182
234.38,9.4255,6.6643
246.09,9.268,5.818
257.81,6.8188,5.4853
269.53,4.8026,5.4671
281.25,9.4218,8.0012
292.97,9.4239,6.8123
304.69,4.3568,6.583
316.41,7.4656,4.4048
328.13,5.7504,5.613
339.84,7.8063,7.7969
351.56,5.5883,4.4409
363.28,3.8194,4.7979
375,4.8571,5.7665
386.72,5.6133,6.1622
398.44,6.1055,6.3949
410.16,7.0178,5.8717
421.88,7.5902,4.851
433.59,3.8274,6.288
445.31,5.9515,5.3739
457.03,5.0978,3.774
468.75,4.3061,6.9171
480.47,4.6024,4.6408
492.19,5.1793,4.2022
503.91,0.52251,6.2533
515.63,5.5896,4.2568
527.34,4.213,5.0838
539.06,5.8413,5.4877
550.78,7.1236,5.7414
562.5,6.2891,5.5517
574.22,5.9584,5.5942
585.94,7.6589,5.8747
597.66,6.2699,5.9043
609.38,4.9718,4.7565
621.09,7.6117,6.8528
632.81,8.9076,6.9204
644.53,8.1822,7.9123
656.25,2.6925,6.6186
667.97,5.6874,6.8151
679.69,7.3733,7.0606
691.41,7.553,5.8312
703.13,4.2042,4.797
714.84,2.4576,5.6812
726.56,4.2936,5.5646
738.28,4.8395,5.2442
750,5.0297,4.9583
761.72,4.3565,5.6417
773.44,10.54,8.4653
785.16,11.044,9.82
796.88,11.782,9.7647
808.59,10.683,7.4824
820.31,6.0536,5.6084
832.03,8.8079,4.8792
843.75,11.126,9.563
855.47,11.207,10.614
867.19,7.3484,8.0519
878.91,7.098,7.4448
890.63,9.0121,8.2252
902.34,9.2751,5.9334
914.06,8.3876,3.7682
925.78,5.4733,2.5113
937.5,7.2299,5.4323
949.22,5.0788,4.6569
960.94,7.9842,2.5655
972.66,9.1935,4.4255
984.38,7.7614,4.0929
996.09,6.8863,3.271
1007.8,4.7291,-0.2523
1019.5,5.1031,1.6622
1031.3,2.4276,1.774
1043,4.2134,4.6427
1054.7,5.8449,5.5013
1066.4,7.6365,7.837
1078.1,5.9857,7.5495
1089.8,5.1959,1.5358
1101.6,6.1309,-0.063439
1113.3,7.4592,5.4109
1125,8.868,6.2274
1136.7,8.755,5.1223
1148.4,5.8104,5.8467
1160.2,1.5927,1.3428
1171.9,5.0728,3.8794
1183.6,6.5733,3.0336
1195.3,3.5011,3.0974
1207,4.1729,3.2335
1218.8,7.2487,3.8038
1230.5,6.1369,4.7807
1242.2,3.4532,7.8242
1253.9,3.7933,6.7076
1265.6,3.9178,2.8693
1277.3,1.2561,1.7428
1289.1,7.3459,2.4424
1300.8,6.9171,2.224
1312.5,4.9418,1.7712
1324.2,4.5156,0.24352
1335.9,5.0651,2.8823
1347.7,1.6622,1.0462
1359.4,3.8352,3.0384
1371.1,6.8802,4.2734
1382.8,6.3727,6.1713
1394.5,7.855,5.8716
1406.3,6.9737,4.0645
1418,5.0474,4.2513
1429.7,3.8883,4.4714
1441.4,3.4222,1.9249
1453.1,2.193,1.3948
1464.8,0.91853,1.763
1476.6,0.0065782,3.4674
1488.3,2.1918,5.56
1500,2.9457,4.8684
1511.7,2.5262,-0.59849
1523.4,5.3997,-0.19407
1535.2,6.3309,2.4272
1546.9,4.0868,4.3249
1558.6,4.2363,5.3103
1570.3,8.2917,3.4464
1582,6.9676,1.9496
1593.8,0.33766,0.4277
1605.5,2.5779,1.5827
1617.2,5.1034,1.6306
1628.9,3.7251,2.7011
1640.6,2.4129,3.4532
1652.3,2.1752,4.1728
1664.1,2.7671,2.4901
1675.8,3.3047,3.1961
1687.5,2.3887,4.1009
1699.2,2.4025,4.749
1710.9,1.1981,3.6747
1722.7,2.4728,4.7812
1734.4,3.5507,3.1254
1746.1,1.7446,1.1915
1757.8,6.0657,2.49
1769.5,7.6747,3.5079
1781.3,5.4595,2.8533
1793,5.0713,4.7801
1804.7,6.1519,6.5537
1816.4,4.2375,7.2597
1828.1,4.8145,1.6829
1839.8,4.6794,2.6575
1851.6,4.3739,2.7228
1863.3,4.6994,3.866
1875,5.5697,3.3322
1886.7,6.7215,3.4539
1898.4,6.2024,1.8876
1910.2,5.0317,4.3379
1921.9,2.4138,3.5954
1933.6,4.8178,3.9846
1945.3,3.9003,3.0538
1957,2.5297,3.3769
1968.8,2.5631,3.1837
1980.5,6.1582,0.45963
1992.2,4.1851,1.4716
2003.9,1.3777,0.98036
2015.6,1.3602,0.44046
2027.3,2.9611,2.6524
2039.1,4.5379,3.4702
2050.8,2.922,1.4473
2062.5,0.95753,0.46647
2074.2,0.51706,1.336
2085.9,3.3121,1.1685
2097.7,4.1784,2.7157
2109.4,1.6249,1.9592
2121.1,4.1311,2.715
2132.8,4.6027,5.1348
2144.5,2.6252,4.5821
2156.3,1.9292,4.2315
2168,3.3832,6.9893
2179.7,3.5741,6.3029
2191.4,2.3461,-0.55058
2203.1,1.906,-0.68857
2214.8,1.9843,0.2781
2226.6,1.7137,3.4742
2238.3,3.0043,5.8701
2250,-0.29576,4.7175
2261.7,0.37912,1.1614
2273.4,2.1669,1.8447
2285.2,1.4511,1.1476
2296.9,1.9477,2.5807
2308.6,1.0382,1.9592
2320.3,-0.67948,2.7936
2332,-0.15119,3.8843
2343.8,2.6488,0.58486
2355.5,1.6847,2.5131
2367.2,-2.9296,4.5196
2378.9,-1.427,1.577
2390.6,-0.433,-1.5961
2402.3,-1.1392,0.86774
2414.1,-1.394,3.2343
2425.8,2.1964,-1.1461
2437.5,0.92682,0.33574
2449.2,3.655,0.68848
2460.9,2.6024,1.8866
2472.7,2.4567,2.9013
2484.4,1.0157,3.7696
2496.1,-2.8335,3.7968
2507.8,-0.41074,2.675
2519.5,2.3651,-0.63039
2531.3,2.3879,3.4471
2543,2.5976,3.2286
2554.7,1.6337,1.849
2566.4,0.94472,1.7286
2578.1,1.6827,0.65378
2589.8,1.0323,-0.15552
2601.6,1.2009,-1.063
2613.3,2.3261,-1.6879
2625,2.1667,-1.5475
2636.7,0.36784,-0.44717
2648.4,0.034842,2.0089
2660.2,3.3052,0.057596
2671.9,3.405,1.7657
2683.6,2.9707,2.7093
2695.3,0.85329,2.8288
2707,-1.1178,0.38667
2718.8,0.43936,0.95934
2730.5,2.646,-0.67594
2742.2,2.3479,1.0536
2753.9,-0.27069,2.8372
2765.6,5.2613,3.8598
2777.3,4.8976,4.337
2789.1,-1.4754,1.497
2800.8,0.10238,0.97179
2812.5,1.1058,0.29802
2824.2,1.8629,0.47107
2835.9,1.0238,1.9147
2847.7,-3.219,1.1338
2859.4,-0.7085,-2.4358
2871.1,3.0626,-0.75683
2882.8,4.853,1.4086
2894.5,4.1755,0.74097
2906.3,2.4327,2.2392
2918,2.6685,1.7348
2929.7,1.7365,-0.31701
2941.4,0.87367,-0.79156
2953.1,1.1848,0.78592
2964.8,1.1651,1.4176
2976.6,-0.58711,1.6718
2988.3,-0.75623,1.6415
3000,-0.86462,-0.67289
3011.7,1.1566,-2.8982
3023.4,1.0208,-2.4384
3035.2,1.9029,-2.5795
3046.9,-0.32656,0.22734
3058.6,-2.1811,1.3458
3070.3,0.20745,0.59838
3082,-0.96987,-0.31783
3093.8,-1.7339,2.3142
3105.5,1.3692,2.5789
3117.2,2.1756,1.4
3128.9,0.9546,-1.4583
3140.6,0.33121,0.048952
3152.3,-1.1018,-1.3028
3164.1,-0.61058,0.49269
3175.8,0.40882,-1.2613
3187.5,2.0836,-0.38203
3199.2,1.618,-1.9723
3210.9,-1.2912,-2.8774
3222.7,0.34508,-1.2526
3234.4,2.5867,-2.1507
3246.1,0.17217,-4.1499
3257.8,-2.3842,-0.15355
3269.5,-2.3925,0.12033
3281.3,-0.093651,-2.3318
3293,-1.0815,-4.0653
3304.7,0.24126,0.63377
3316.4,-4.9292,1.207
3328.1,-1.3991,-2.8416
3339.8,0.30805,-3.9528
3351.6,-0.22214,-0.62882
3363.3,-0.11454,0.4604
3375,-2.4712,-2.878
3386.7,-1.8622,-0.82503
3398.4,-4.4728,-1.1262
3410.2,-0.72513,-2.2868
3421.9,-0.06474,-2.761
3433.6,-0.80652,1.176
3445.3,-0.12454,2.5386
3457,1.2997,2.9081
3468.8,-1.1284,1.5776
3480.5,-1.67,0.69595
3492.2,-3.1593,-0.80278
3503.9,-2.7455,-1.9101
3515.6,0.92154,1.1412
3527.3,-0.90248,-0.46564
3539.1,-0.59727,-3.8943
3550.8,-1.5805,-4.7394
3562.5,-0.24426,-3.3601
3574.2,0.29718,-0.78387
3585.9,-0.89308,1.3225
3597.7,-3.1594,-1.2625
3609.4,-2.3757,-2.1124
3621.1,-0.21012,-1.6737
3632.8,-2.0883,-0.28037
3644.5,0.77565,-0.62631
3656.3,5.8557,-1.6732
3668,23.05,1.7571
3679.7,38.837,15.231
3691.4,40.1,16.5
3703.1,28.05,4.5098
3714.8,13.083,-1.2718
3726.6,-0.33041,-0.86933
3738.3,-2.646,-1.7013
3750,-4.6474,-0.88486
3761.7,-4.3406,0.39459
3773.4,-2.5076,-1.3101
3785.2,-0.19939,-4.1727
3796.9,-0.11673,-2.3524
3808.6,-2.5118,-0.54768
3820.3,-3.2859,-2.2184
3832,-1.5696,-3.6837
3843.8,-0.036967,-3.0421
3855.5,-2.0143,-2.4699
3867.2,-2.9402,0.27133
3878.9,-4.1535,-0.050251
3890.6,-2.2926,-0.94456
3902.3,-1.6013,-2.8586
3914.1,-3.4308,-0.3958
3925.8,-1.2415,-2.2121
3937.5,0.15317,-6.325
3949.2,-0.77356,-2.3691
3960.9,-2.0634,-2.9572
3972.7,-4.058,-1.22
3984.4,-3.0737,0.80836
3996.1,-0.46315,-2.9037
4007.8,0.17579,-0.44438
4019.5,-4.1151,-2.2175
4031.3,-0.21669,-4.6305
4043,-2.6534,-1.2508
4054.7,-8.2358,-2.4958
4066.4,-3.0868,-1.3156
4078.1,-3.967,0.13911
4089.8,-1.331,0.26399
4101.6,-2.802,0.30301
4113.3,-4.3309,0.10324
4125,-3.3821,-1.3149
4136.7,-2.9303,-2.7001
4148.4,-1.0619,-1.221
4160.2,-1.4801,-1.3526
4171.9,-3.1175,-4.1289
4183.6,-0.46638,-2.7726
4195.3,-0.44626,-3.4663
4207,-4.2075,-4.272
4218.8,-3.8081,-3.9043
4230.5,-3.1247,-1.2748
4242.2,-1.4858,-1.1588
4253.9,-0.54779,-5.9843
4265.6,-0.25376,-1.8419
4277.3,-0.19034,-4.7178
4289.1,-0.90118,-5.9829
4300.8,-2.6342,-3.9637
4312.5,-3.7627,-0.57311
4324.2,0.030241,-3.8452
4335.9,0.45539,-5.1952
4347.7,-0.50883,-2.9744
4359.4,-2.0963,-2.5005
4371.1,-2.775,-3.7931
4382.8,-4.2074,-1.5878
4394.5,-2.7495,-0.35664
4406.3,-1.5266,-0.28767
4418,-3.2115,-0.63399
4429.7,-3.8932,-5.087
4441.4,-5.1915,-7.1567
4453.1,-4.4124,-6.4745
4464.8,-4.0058,-3.5473
4476.6,-4.503,0.39022
4488.3,-7.94,-0.86027
4500,-7.5815,-1.9634
4511.7,-2.517,-0.38706
4523.4,-3.0122,-3.2863
4535.2,-3.6992,-3.8011
4546.9,-0.45377,-1.8693
4558.6,-2.3609,-2.4684
4570.3,-0.99098,-2.6725
4582,-1.3659,-1.8338
4593.8,-3.3551,-3.5087
4605.5,-4.0188,-3.628
4617.2,-5.7276,-4.9125
4628.9,-4.4128,-5.515
4640.6,-1.5907,-4.9254
4652.3,-1.3592,-4.3376
4664.1,-1.6666,-3.6564
4675.8,-4.6517,-5.7688
4687.5,-4.3543,-3.8624
4699.2,-3.0928,-4.1056
4710.9,-2.5675,-3.0553
4722.7,-1.9265,-2.425
4734.4,-3.4431,-4.0811
4746.1,-4.8893,-3.7931
4757.8,-3.7305,-3.0603
4769.5,-3.878,-1.842
4781.3,-1.4651,-1.9609
4793,0.14724,-0.61337
4804.7,-0.69956,-2.7313
4816.4,-3.1577,-4.9371
4828.1,-2.5066,-2.7528
4839.8,-5.2814,-1.7947
4851.6,-5.1048,-3.3165
4863.3,-6.0325,-5.4297
4875,-5.8641,-4.7066
4886.7,-0.82735,-3.7102
4898.4,-2.3089,-3.2603
4910.2,-2.4533,-2.5902
4921.9,-3.385,-2.3542
4933.6,-2.1226,-0.72609
4945.3,-3.9832,-4.8246
4957,-1.7232,-5.0579
4968.8,-1.8827,-3.9411
4980.5,-4.1849,-2.6763
4992.2,-6.2909,-3.6108
5003.9,-2.1336,-3.9292
5015.6,-1.8913,-3.7404
5027.3,-0.886,-5.3137
5039.1,-4.4243,-2.3265
5050.8,-7.1356,-2.5414
5062.5,-4.5957,-2.4413
5074.2,-3.6226,-4.9547
5085.9,-2.0466,-4.4713
5097.7,-3.6687,-1.4458
5109.4,-5.394,-3.941
5121.1,-2.3382,-5.8616
5132.8,-2.3094,-3.6776
5144.5,-1.9756,-2.084
5156.3,-4.4081,-3.602
5168,-7.4721,-5.3775
5179.7,-7.3296,-4.8439
5191.4,-7.2622,-6.0535
5203.1,-7.9066,-5.9943
5214.8,-7.3583,-4.5837
5226.6,-5.7544,-4.4509
5238.3,-2.9769,-5.3193
5250,-1.8878,-3.5546
5261.7,-2.2012,-3.8299
5273.4,-4.2929,-4.4444
5285.2,-6.2256,-3.8518
5296.9,-5.2114,-4.9242
5308.6,-4.7515,-5.1741
5320.3,-3.1334,-3.4221
5332,-2.5314,-5.0683
5343.8,-1.8269,-4.0562
5355.5,-3.3122,-3.5623
5367.2,-6.2646,-3.8665
5378.9,-4.8712,-5.6156
5390.6,-6.025,-6.8057
5402.3,-8.2346,-7.2386
5414.1,-8.1521,-2.4931
5425.8,-4.4323,-0.36568
5437.5,-4.0817,-1.5204
5449.2,-2.3072,-1.3382
5460.9,-4.0334,-0.82026
5472.7,-2.7436,-2.5468
5484.4,-4.5668,-7.6378
5496.1,-6.0486,-8.9232
5507.8,-3.1311,-4.5441
5519.5,-3.9721,-2.0119
5531.3,-5.0442,-3.1793
5543,-6.4688,-3.8748
5554.7,-7.3726,-4.3175
5566.4,-5.7123,-4.9451
5578.1,-8.0133,-5.767
5589.8,-6.5813,-4.8591
5601.6,-4.8686,-3.1876
5613.3,-3.7308,-4.4252
5625,-5.1475,-3.9832
5636.7,-4.3171,-4.4437
5648.4,-2.3864,-5.7182
5660.2,-1.5317,-7.9548
5671.9,-1.7208,-6.1919
5683.6,-4.8983,-5.426
5695.3,-6.9715,-10.327
5707,-7.7562,-4.7905
5718.8,-6.0549,-5.0606
5730.5,-4.1315,-5.1439
5742.2,-8.3559,-5.6757
5753.9,-7.5689,-4.9795
5765.6,-4.463,-2.8014
5777.3,-2.8273,-6.0909
5789.1,-2.5769,-6.6764
5800.8,-4.7754,-4.4552
5812.5,-5.8814,-4.8466
5824.2,-5.6005,-3.653
5835.9,-6.3509,-3.7484
5847.7,-6.3252,-7.6608
5859.4,-5.7712,-5.8033
5871.1,-7.3376,-5.6282
5882.8,-6.7611,-7.1201
5894.5,-5.6897,-5.7611
5906.3,-7.2876,-5.6926
5918,-7.4665,-6.0716
5929.7,-6.1407,-6.8124
5941.4,-5.1803,-7.273
5953.1,-3.4822,-4.6137
5964.8,-1.5056,-6.0885
5976.6,-2.7666,-5.5416
5988.3,-3.8492,-5.3845
6000,-3.4598,-6.7371
6011.7,-6.6575,-7.4664
6023.4,-6.847,-11.417
6035.2,-5.8757,-9.6043
6046.9,-6.7554,-6.771
6058.6,-8.5439,-9.0304
6070.3,-9.3052,-8.8143
6082,-7.7206,-7.1513
6093.8,-3.2423,-5.8916
6105.5,-3.9831,-7.2493
6117.2,-4.8508,-9.4132
6128.9,-5.2278,-7.9633
6140.6,-7.1484,-6.4631
6152.3,-6.6355,-6.7214
6164.1,-6.134,-6.2594
6175.8,-9.2409,-5.8702
6187.5,-6.3884,-5.3231
6199.2,-4.9129,-4.0694
6210.9,-3.4492,-3.9545
6222.7,-3.6526,-7.5117
6234.4,-4.0599,-7.4908
6246.1,-4.5482,-7.3507
6257.8,-6.742,-7.3552
6269.5,-7.598,-4.0149
6281.3,-8.385,-4.2046
6293,-5.5925,-3.9839
6304.7,-9.1328,-5.6906
6316.4,-7.4502,-9.457
6328.1,-7.914,-6.4706
6339.8,-7.0458,-2.3468
6351.6,-9.0778,-4.8617
6363.3,-8.9501,-5.8297
6375,-7.2059,-5.2162
6386.7,-6.0149,-5.1535
6398.4,-6.6263,-4.7961
6410.2,-8.2085,-10.31
6421.9,-7.5528,-10.142
6433.6,-7.3606,-9.7646
6445.3,-9.4243,-6.6614
6457,-6.995,-4.2196
6468.8,-4.4977,-5.1476
6480.5,-5.0309,-4.3739
6492.2,-6.5196,-5.4086
6503.9,-9.0721,-5.0917
6515.6,-5.4141,-4.8875
6527.3,-4.7381,-5.1999
6539.1,-6.8187,-6.1897
6550.8,-5.0507,-5.5005
6562.5,-3.7837,-7.6493
6574.2,-9.234,-8.1564
6585.9,-5.5056,-6.3173
6597.7,-6.4253,-4.6236
6609.4,-6.2534,-5.6413
6621.1,-8.8083,-6.3166
6632.8,-8.1341,-7.9022
6644.5,-12.084,-6.6622
6656.3,-7.3142,-3.1663
6668,-6.435,-6.7386
6679.7,-4.4921,-7.3456
6691.4,-4.0262,-4.7146
6703.1,-6.3837,-7.6304
6714.8,-4.5097,-7.3146
6726.6,-4.7742,-7.0079
6738.3,-4.6256,-6.5379
6750,-5.0976,-5.735
6761.7,-8.5061,-6.5951
6773.4,-6.5126,-8.8907
6785.2,-6.1895,-11.532
6796.9,-5.008,-10.979
6808.6,-5.2615,-9.1504
6820.3,-7.493,-6.496
6832,-9.0679,-5.0778
6843.8,-8.791,-5.5549
6855.5,-10.448,-7.9026
6867.2,-8.2512,-7.7256
6878.9,-8.1662,-4.7113
6890.6,-7.6058,-3.8849
6902.3,-4.998,-6.4839
6914.1,-5.8588,-6.8864
6925.8,-4.7612,-7.8019
6937.5,-4.7075,-6.2765
6949.2,-9.1692,-8.6811
6960.9,-8.9328,-8.7494
6972.7,-5.5433,-7.8138
6984.4,-6.352,-7.5978
6996.1,-7.4357,-6.6899
7007.8,-5.3567,-8.0557
7019.5,-5.5023,-7.0209
7031.3,-6.6321,-8.1332
7043,-4.8618,-7.1894
7054.7,-5.8468,-9.6178
7066.4,-6.9849,-6.8584
7078.1,-8.2028,-6.3505
7089.8,-10.565,-5.9879
7101.6,-11.287,-4.8416
7113.3,-11.795,-6.0538
7125,-7.354,-6.3302
7136.7,-5.955,-5.7678
7148.4,-7.8803,-8.1389
7160.2,-8.6537,-10.911
7171.9,-6.1524,-8.0756
7183.6,-6.2827,-6.8923
7195.3,-8.6147,-7.0891
7207,-7.2986,-6.6224
7218.8,-6.1767,-4.2698
7230.5,-5.9376,-7.14
7242.2,-5.8084,-8.5434
7253.9,-7.4792,-8.9029
7265.6,-8.6313,-11.24
7277.3,-10.014,-8.5723
7289.1,-8.7609,-5.2886
7300.8,-7.4488,-5.8297
7312.5,-9.2326,-7.8982
7324.2,-7.3733,-7.7078
7335.9,-8.9432,-6.9451
7347.7,-5.4132,-10.477
7359.4,-8.932,-8.2903
7371.1,-6.9966,-10.084
7382.8,-4.9974,-9.8776
7394.5,-6.3564,-9.1094
7406.3,-8.4315,-9.1805
7418,-5.1426,-9.4438
7429.7,-3.037,-8.9406
7441.4,-5.9824,-8.2878
7453.1,-7.6163,-8.6223
7464.8,-9.862,-9.1115
7476.6,-8.1596,-9.7758
7488.3,-7.0714,-9.0246
7500,-7.4538,-9.0387
7511.7,-6.8548,-8.0638
7523.4,-9.0006,-5.1526
7535.2,-8.5982,-5.0975
7546.9,-10.015,-8.1063
7558.6,-13.611,-6.4529
7570.3,-10.393,-8.0599
7582,-5.8303,-9.5223
7593.8,-5.9947,-8.3895
7605.5,-8.955,-6.8517
7617.2,-9.1982,-10.839
7628.9,-7.1998,-11.982
7640.6,-9.2083,-10.407
7652.3,-9.6007,-7.7966
7664.1,-9.4127,-5.6139
7675.8,-7.441,-7.5448
7687.5,-8.6999,-7.9413
7699.2,-10.174,-7.3365
7710.9,-6.7058,-8.4449
7722.7,-5.2899,-10.911
7734.4,-6.5159,-10.048
7746.1,-7.8461,-8.2771
7757.8,-7.7934,-7.775
7769.5,-7.95,-8.4618
7781.3,-11.631,-5.9878
7793,-9.2431,-7.72
7804.7,-9.0422,-12.064
7816.4,-7.1377,-11.222
7828.1,-6.5448,-11.198
7839.8,-9.3969,-12.222
7851.6,-7.3161,-10.465
7863.3,-6.4354,-10.976
7875,-7.487,-11.644
7886.7,-8.5113,-12.939
7898.4,-9.08,-6.9137
7910.2,-8.5144,-7.0555
7921.9,-9.8998,-9.1295
7933.6,-7.1732,-6.1191
7945.3,-6.658,-7.1882
7957,-9.2727,-8.1314
7968.8,-8.1997,-11
7980.5,-7.8801,-11.209
7992.2,-8.0021,-13.389
8003.9,-8.1942,-10.229
8015.6,-7.7355,-9.8734
8027.3,-5.33,-10.739
8039.1,-8.0857,-9.802
8050.8,-6.9169,-9.3126
8062.5,-7.8077,-10.515
8074.2,-12.008,-10.346
8085.9,-10.56,-10.21
8097.7,-7.8902,-9.2681
8109.4,-7.5988,-9.5651
8121.1,-7.8185,-9.729
8132.8,-10.895,-12.283
8144.5,-11.192,-11.541
8156.3,-10.137,-10.183
8168,-9.0421,-8.5964
8179.7,-8.9284,-8.9936
8191.4,-8.8773,-8.4715
8203.1,-9.6789,-6.094
8214.8,-9.4981,-6.352
8226.6,-9.6854,-7.9302
8238.3,-6.8367,-9.1409
8250,-8.9527,-10.643
8261.7,-9.6159,-9.5886
8273.4,-10.173,-9.5606
8285.2,-5.3742,-7.8935
8296.9,-9.5729,-8.2332
8308.6,-7.6112,-8.6299
8320.3,-7.2679,-7.4891
8332,-10.847,-9.5932
8343.8,-11.002,-8.0086
8355.5,-10.397,-8.8971
8367.2,-12.415,-9.1836
8378.9,-8.5292,-11.315
8390.6,-7.2391,-10.134
8402.3,-10.524,-11.753
8414.1,-12.04,-12.195
8425.8,-6.4443,-11.621
8437.5,-8.8659,-10.49
8449.2,-10.809,-9.6953
8460.9,-9.193,-14.235
8472.7,-12.378,-11.283
8484.4,-12.01,-10.901
8496.1,-13.747,-9.8365
8507.8,-13.965,-9.3052
8519.5,-11.805,-7.3255
8531.3,-12.298,-7.0117
8543,-14.23,-10.049
8554.7,-9.4833,-12.102
8566.4,-8.7712,-10.807
8578.1,-8.4303,-7.5767
8589.8,-6.9602,-10.634
8601.6,-6.477,-8.9906
8613.3,-6.8584,-9.6917
8625,-8.847,-11.069
8636.7,-8.5187,-10.271
8648.4,-9.5382,-11.116
8660.2,-9.9424,-12.3
8671.9,-8.5226,-6.2066
8683.6,-7.7046,-5.6756
8695.3,-9.8305,-9.1555
8707,-10.72,-9.9435
8718.8,-8.4183,-7.05
8730.5,-7.0987,-7.6336
8742.2,-10.298,-10.253
8753.9,-10.986,-12.357
8765.6,-9.2949,-16.03
8777.3,-8.8135,-12.767
8789.1,-9.101,-11.915
8800.8,-11.054,-13.802
8812.5,-9.0989,-13.513
8824.2,-8.7859,-13.002
8835.9,-9.172,-11.109
8847.7,-11.453,-11.748
8859.4,-9.2773,-10.318
8871.1,-8.1129,-10.077
8882.8,-9.0808,-11.14
8894.5,-8.7284,-10.594
8906.3,-5.0551,-10.337
8918,-5.4997,-11.146
8929.7,-11.314,-10.628
8941.4,-8.8126,-9.5102
8953.1,-4.5757,-9.7119
8964.8,-6.114,-9.7106
8976.6,-8.4225,-13.399
8988.3,-9.9611,-10.581
9000,-11.226,-9.348
9011.7,-10.44,-13.173
9023.4,-9.7269,-16.48
9035.2,-11.022,-10.798
9046.9,-11.464,-10.223
9058.6,-12.631,-10.689
9070.3,-9.7864,-12.805
9082,-10.013,-12.849
9093.8,-9.5238,-13.08
9105.5,-11.935,-11.709
9117.2,-10.547,-8.6453
9128.9,-8.7353,-8.997
9140.6,-8.9073,-10.653
9152.3,-8.2565,-11.847
9164.1,-10.976,-12.571
9175.8,-11.628,-11.972
9187.5,-11.523,-9.8617
9199.2,-12.533,-10.873
9210.9,-11.951,-11.525
9222.7,-11.762,-8.7149
9234.4,-8.3993,-12.334
9246.1,-8.6351,-10.833
9257.8,-10.029,-8.1613
9269.5,-12.424,-12.36
9281.3,-9.1889,-11.79
9293,-12.848,-11.947
9304.7,-9.9608,-12.896
9316.4,-11.265,-13.595
9328.1,-12.95,-14.357
9339.8,-11.293,-14.144
9351.6,-12.452,-12.492
9363.3,-13.188,-9.4415
9375,-9.7137,-9.2921
9386.7,-7.6498,-9.9364
9398.4,-9.3936,-12.579
9410.2,-11.471,-13.713
9421.9,-10.968,-11.634
9433.6,-8.9869,-10.437
9445.3,-9.0627,-11.832
9457,-10.633,-10.419
9468.8,-14.735,-7.4628
9480.5,-13.035,-10.13
9492.2,-11.346,-10.838
9503.9,-9.999,-9.9944
9515.6,-10.921,-14.694
9527.3,-10.154,-10.602
9539.1,-11.447,-10.563
9550.8,-11.079,-10.32
9562.5,-10.815,-9.6684
9574.2,-12.026,-11.381
9585.9,-13.469,-11.185
9597.7,-13.953,-13.283
9609.4,-11.765,-12.504
9621.1,-11.667,-14.856
9632.8,-12.518,-13.038
9644.5,-11.813,-12.361
9656.3,-11.835,-13.03
9668,-11.812,-13.197
9679.7,-9.8732,-11.217
9691.4,-10.443,-11.573
9703.1,-13.405,-13.82
9714.8,-13.381,-10.767
9726.6,-10.504,-12.509
9738.3,-11.338,-10.329
9750,-8.5137,-10.317
9761.7,-9.7052,-10.207
9773.4,-10.429,-12.927
9785.2,-9.2371,-13.958
9796.9,-12.896,-14.439
9808.6,-10.338,-12.152
9820.3,-10.431,-11.79
9832,-11.162,-12.347
9843.8,-12.242,-13.918
9855.5,-15.35,-14.052
9867.2,-14.578,-13.934
9878.9,-13.455,-11.078
9890.6,-10.773,-11.726
9902.3,-10.81,-12.898
9914.1,-12.968,-10.735
9925.8,-11.249,-16.061
9937.5,-10.193,-12.333
9949.2,-8.8485,-10.976
9960.9,-7.2453,-13.573
9972.7,-8.4964,-10.991
9984.4,-14.216,-11.532
9996.1,-13.989,-13.924
10008,-11.379,-13.339
10020,-10.445,-13.045
10031,-12.685,-12.636
10043,-12.991,-10.177
10055,-10.75,-9.1019
10066,-10.883,-8.3513
10078,-11.932,-10.22
10090,-14.314,-10.149
10102,-10.407,-11.079
10113,-10.149,-9.9464
10125,-11.576,-11.191
10137,-13.348,-12.551
10148,-12.12,-13.559
10160,-10.327,-10.309
10172,-13.539,-11.591
10184,-13.584,-15.199
10195,-10.065,-15.889
10207,-11.425,-14.636
10219,-13.239,-15.952
10230,-7.805,-16.008
10242,-12.758,-17.708
10254,-7.1074,-16.718
10266,-11.244,-13.065
10277,-15.629,-12.677
10289,-11.955,-13.216
10301,-8.3776,-11.648
10313,-7.8125,-11.239
10324,-9.077,-11.479
10336,-13.862,-10.273
10348,-10.033,-12.946
10359,-10.966,-9.3849
10371,-13.209,-11.35
10383,-13.247,-12.367
10395,-14.46,-12.028
10406,-12.786,-11.236
10418,-8.9962,-15.345
10430,-11.39,-15.991
10441,-14.75,-16.392
10453,-12.817,-15.019
10465,-12.068,-12.418
10477,-16.52,-13.235
10488,-15.975,-11.417
10500,-14.879,-9.9701
10512,-14.209,-12.712
10523,-14.519,-12.532
10535,-12.354,-13.791
10547,-10.89,-12.591
10559,-13.146,-13.402
10570,-15.639,-14.517
10582,-14.271,-15.748
10594,-11.868,-14.85
10605,-11.934,-15.474
10617,-13.158,-13.889
10629,-13.256,-13.134
10641,-11.553,-15.963
10652,-12.26,-16.684
10664,-10.64,-15.615
10676,-8.1772,-13.056
10688,-10.553,-10.96
10699,-11.902,-10.949
10711,-12.998,-14.236
10723,-14.181,-11.613
10734,-13.48,-12.017
10746,-13.009,-9.6419
10758,-11.624,-12.022
10770,-11.46,-11.838
10781,-12.103,-13.386
10793,-12.217,-13.059
10805,-9.5429,-14.014
10816,-10.094,-12.217
10828,-12.162,-10.995
10840,-13.823,-10.098
10852,-13.42,-10.064
10863,-14.098,-11.937
10875,-10.446,-16.259
10887,-10.666,-14.194
10898,-13.066,-13.839
10910,-11.583,-14.038
10922,-11.779,-10.901
10934,-13.454,-11.671
10945,-12.749,-15.427
10957,-13.841,-17.47
10969,-14.241,-15.146
10980,-12.831,-13.474
10992,-11.041,-12.377
11004,-10.231,-11.405
11016,-11.228,-12.265
11027,-12.802,-12.652
11039,-14.698,-13.669
11051,-11.684,-14.256
11063,-8.1241,-16.305
11074,-11.236,-18.5
11086,-13.798,-15.761
11098,-13.315,-12.56
11109,-11.144,-13.399
11121,-12.088,-13.617
11133,-13.69,-10.552
11145,-16.198,-11.239
11156,-10.855,-16.15
11168,-10.689,-18.459
11180,-13.885,-15.343
11191,-11.685,-13.366
11203,-11.048,-14.094
11215,-11.201,-13.311
11227,-9.1963,-13.204
11238,-10.623,-12.467
11250,-9.4757,-11.029
11262,-8.4586,-10.732
11273,-9.6667,-11.567
11285,-12.936,-12.22
11297,-14.758,-13.311
11309,-12.467,-15.724
11320,-11.696,-16.089
11332,-9.8143,-13.327
11344,-9.281,-15.806
11355,-10.834,-10.481
11367,-12.477,-12.572
11379,-10.563,-13.679
11391,-12.316,-13.407
11402,-13.261,-14.001
11414,-17.094,-15.139
11426,-16.384,-17.97
11438,-15.963,-14.24
11449,-12.26,-13.576
11461,-14.889,-14.226
11473,-13.677,-13.627
11484,-13.082,-14.036
11496,-13.048,-16.801
11508,-13.149,-15.65
11520,-14.611,-12.457
11531,-14.68,-12.443
11543,-14.307,-13.561
11555,-12.146,-12.67
11566,-11.092,-13.934
11578,-14.716,-15.185
11590,-14.915,-14.603
11602,-12.767,-12.103
11613,-12.421,-17.177
11625,-13.305,-14.714
11637,-13.699,-15.137
11648,-15.258,-14.101
11660,-12.035,-11.409
11672,-12.039,-12.71
11684,-14.973,-18.912
11695,-14.459,-16.441
11707,-12.774,-12.689
11719,-14.362,-12.384
11730,-9.2802,-14.007
11742,-10.19,-14.368
11754,-15.631,-16.728
11766,-16.084,-14.906
11777,-15.531,-14.195
11789,-13.288,-14.441
11801,-12.484,-11.822
11813,-14.538,-11.969
11824,-14.557,-16.202
11836,-11.279,-15.56
11848,-12.665,-15.157
11859,-13.352,-13.645
11871,-12.991,-14.549
11883,-14.644,-15.848
11895,-13.018,-15.782
11906,-13.218,-17.158
11918,-13.414,-20.991
11930,-12.986,-14.434
11941,-14.262,-13.139
11953,-13.053,-16.447
11965,-11.205,-18.325
11977,-12.378,-16.931
11988,-14.779,-16.316
12000,-12.191,-16.43
12012,-10.104,-15.28
12023,-10.414,-16.543
12035,-9.2461,-13.475
12047,-12.286,-14.02
12059,-13.487,-16.314
12070,-12.774,-17.458
12082,-11.892,-14.919
12094,-11.484,-15.315
12105,-15.5,-17.216
12117,-15.098,-15.883
12129,-12.86,-14.789
12141,-11.225,-15.513
12152,-11.864,-12.3
12164,-10.988,-11.756
12176,-9.9078,-14.472
12188,-12.323,-17.992
12199,-16.796,-18.823
12211,-12.778,-14.646
12223,-11.885,-15.374
12234,-12.513,-18.359
12246,-15.098,-16.533
12258,-12.347,-16.29
12270,-14.979,-15.801
12281,-15.508,-16.462
12293,-13.984,-15.745
12305,-11.149,-15.084
12316,-11.783,-11.898
12328,-11.602,-12.011
12340,-9.6664,-15.846
12352,-11.64,-14.727
12363,-10.903,-12.466
12375,-10.274,-14.272
12387,-14.181,-17.805
12398,-14.68,-17.6
12410,-12.19,-16.011
12422,-13.083,-13.926
12434,-14.532,-14.45
12445,-14.356,-15.212
12457,-14.567,-15.304
12469,-9.7892,-13.87
12480,-11.056,-14.54
12492,-12.843,-14.336
12504,-15.085,-13.818
12516,-12.857,-14.884
12527,-14.948,-14.867
12539,-12.68,-15.703
12551,-10.555,-18.002
12563,-10.635,-17.128
12574,-14.335,-17.182
12586,-16.833,-17.274
12598,-15.057,-16.735
12609,-14.311,-15.498
12621,-14.877,-15.41
12633,-14.91,-16.786
12645,-15.242,-16.864
12656,-15.001,-15.077
12668,-13.843,-15.255
12680,-14.205,-13.134
12691,-14.013,-15.856
12703,-11.216,-17.644
12715,-12.742,-14.578
12727,-13.406,-13.606
12738,-11.772,-13.166
12750,-9.5303,-14.57
12762,-12.135,-14.888
12773,-12.028,-16.809
12785,-14.088,-16.222
12797,-12.18,-19.249
12809,-10.968,-17.132
12820,-15.568,-17.146
12832,-13.709,-14.918
12844,-12.169,-15.703
12855,-13.994,-12.126
12867,-15.953,-13.429
12879,-15.37,-16.523
12891,-13.974,-12.699
12902,-12.609,-13.497
12914,-12.928,-14.944
12926,-12.594,-15.747
12938,-13.144,-16.766
12949,-14.226,-16.543
12961,-13.314,-13.617
12973,-15.516,-14.891
12984,-11.225,-19.69
12996,-9.8352,-16.653
13008,-18.015,-17.746
13020,-13.289,-17.096
13031,-13.621,-13.685
13043,-14.574,-14.323
13055,-13.54,-16.94
13066,-13.293,-20.37
13078,-11.496,-18.442
13090,-12.625,-16.06
13102,-12.968,-15.311
13113,-9.189,-14.32
13125,-13.165,-15.451
13137,-15.986,-15.68
13148,-13.29,-17.11
13160,-13.607,-13.402
13172,-14.555,-13.461
13184,-14.819,-15.432
13195,-13.061,-18.347
13207,-11.624,-19.999
13219,-12.479,-17.514
13230,-13.237,-14.483
13242,-14.043,-13.056
13254,-14.727,-13.555
13266,-14.099,-13.549
13277,-15.507,-13.342
13289,-15.552,-15.346
13301,-14.636,-14.629
13313,-16.928,-16.447
13324,-16.75,-14.455
13336,-16.261,-12.995
13348,-14.927,-14.727
13359,-13.219,-16.26
13371,-12.744,-17.16
13383,-17.442,-13.732
13395,-15.326,-12.995
13406,-15.809,-13.442
13418,-11.579,-17.767
13430,-9.7036,-16.794
13441,-10.635,-15.014
13453,-10.873,-14.797
13465,-13.189,-14.503
13477,-14.812,-15.561
13488,-12.478,-17.041
13500,-13.451,-16.628
13512,-13.98,-13.56
13523,-14.467,-13.656
13535,-14.549,-17.815
13547,-13.835,-18.807
13559,-12.074,-16.087
13570,-12.354,-15.653
13582,-12.424,-16.865
13594,-14.381,-17.437
13605,-12.644,-16.3
13617,-11.944,-15.9
13629,-13.838,-17.848
13641,-14.146,-15.172
13652,-14.304,-15.375
13664,-15.847,-16.643
13676,-14.587,-14.839
13688,-12.602,-16.495
13699,-13.409,-17.987
13711,-15.011,-17.25
13723,-14.697,-17.006
13734,-16.048,-15.64
13746,-17.037,-16.856
13758,-15.755,-17.85
13770,-15.765,-17.492
13781,-15.487,-19.692
13793,-19.051,-19.259
13805,-15.167,-14.041
13816,-13.089,-13.486
13828,-14.904,-16.866
13840,-15.4,-13.227
13852,-14.356,-16.218
13863,-14.05,-19.242
13875,-16.786,-21.879
13887,-15.12,-17.393
13898,-11.887,-19.953
13910,-16.06,-17.825
13922,-15.605,-18.467
13934,-17.006,-18.634
13945,-18.35,-18.995
13957,-16.971,-19.744
13969,-16.844,-16.408
13980,-18.212,-13.127
13992,-15.256,-13.292
14004,-14.522,-16.102
14016,-18.496,-16.358
14027,-17.466,-17.35
14039,-14.479,-16.201
14051,-14.43,-15.035
14063,-15.352,-14.711
14074,-14.836,-16.244
14086,-15.685,-20.063
14098,-16.784,-16.739
14109,-16.094,-14.908
14121,-15.771,-16.443
14133,-14.651,-17.362
14145,-13.653,-20.369
14156,-14.4,-17.185
14168,-14.891,-15.135
14180,-15.487,-17.285
14191,-15.905,-16.972
14203,-15.208,-18.861
14215,-16.219,-14.783
14227,-17.622,-17.624
14238,-16.77,-18.107
14250,-15.087,-18.861
14262,-15.065,-19.559
14273,-13.842,-19.854
14285,-17.122,-19.88
14297,-16.47,-20.468
14309,-16.071,-20.578
14320,-15.323,-18.219
14332,-15.052,-17.33
14344,-16.14,-16.61
14355,-12.62,-17.783
14367,-14.144,-18.455
14379,-16.152,-18.658
14391,-20.338,-17.54
14402,-18.214,-15.435
14414,-15.294,-18.594
14426,-17.105,-15.387
14438,-18.911,-14.169
14449,-16.237,-18.265
14461,-17.622,-20.482
14473,-16.122,-17.269
14484,-14.71,-15.188
14496,-16.709,-15.074
14508,-17.867,-15.633
14520,-16.57,-15.697
14531,-15.837,-15.389
14543,-16.59,-14.921
14555,-17.144,-15.479
14566,-20.662,-15.886
14578,-19.045,-15.074
14590,-15.601,-16.337
14602,-16.139,-17.271
14613,-19.812,-17.969
14625,-16.284,-18.532
14637,-15.37,-19.272
14648,-15.764,-17.036
14660,-18.114,-17.271
14672,-17.914,-17.419
14684,-16.267,-18.771
14695,-13.824,-16.689
14707,-12.346,-15.05
14719,-12.163,-15.199
14730,-16.605,-18.1
14742,-13.412,-17.274
14754,-12.81,-15.507
14766,-14.916,-17.565
14777,-17.321,-19.591
14789,-16.277,-18.706
14801,-15.566,-17.057
14813,-15.927,-17.173
14824,-16.833,-16.743
14836,-15.558,-17.315
14848,-15.56,-17.687
14859,-14.851,-16.592
14871,-17.668,-16.157
14883,-19.947,-16.835
14895,-17.273,-20.488
14906,-17.233,-21.131
14918,-20.941,-17.959
14930,-18.48,-18.796
14941,-20.363,-20.136
14953,-19.77,-20.445
14965,-16.94,-19.2
14977,-18.424,-20.26
14988,-17.754,-23.113
15000,-18.618,-19.081
15012,-18.772,-17.538
15023,-18.827,-16.856
15035,-16.321,-19.526
15047,-16.479,-17.56
15059,-17.737,-18.686
15070,-18.828,-18.52
15082,-15.867,-19.926
15094,-15.983,-19.739
15105,-18.622,-17.876
15117,-19.374,-18.474
15129,-18.747,-23.645
15141,-16.481,-23.419
15152,-15.739,-18.106
15164,-17.134,-18.043
15176,-17.131,-20.358
15188,-18.695,-19.311
15199,-18.343,-18.769
15211,-20.825,-18.433
15223,-18.188,-18.054
15234,-17.088,-20.645
15246,-19.646,-20.009
15258,-17.284,-17.53
15270,-17.803,-14.801
15281,-17.879,-17.003
15293,-17.99,-18.109
15305,-17.618,-16.173
15316,-19.609,-22.028
15328,-19.504,-19.079
15340,-18.013,-19.719
15352,-20.435,-19.986
15363,-19.058,-16.515
15375,-19.303,-18.771
15387,-18.305,-20.564
15398,-21.055,-19.102
15410,-20.528,-22.927
15422,-20.463,-22.937
15434,-21.608,-22.25
15445,-18.574,-20.159
15457,-17.385,-21.008
15469,-19.686,-22.4
15480,-20.817,-20.072
15492,-19.932,-22.023
15504,-19.313,-20.777
15516,-17.756,-17.994
15527,-18.138,-18.419
15539,-18.451,-18.287
15551,-19.84,-19.106
15563,-19.055,-17.789
15574,-19.55,-16.619
15586,-21.78,-18.496
15598,-19.492,-20.997
15609,-19.276,-21.302
15621,-19.06,-21.749
15633,-18.474,-21.749
15645,-17.329,-19.867
15656,-18.324,-22.119
15668,-18.102,-22.275
15680,-16.943,-20.528
15691,-19.662,-19.96
15703,-20.829,-21.687
15715,-19.274,-21.988
15727,-18.422,-21.67
15738,-18.839,-21.269
15750,-18.241,-21.135
15762,-18.961,-21.871
15773,-19.929,-19.774
15785,-19.627,-19.446
15797,-19.898,-20.101
15809,-18.038,-19.717
15820,-20.459,-16.988
15832,-20.125,-21.011
15844,-21.071,-19.898
15855,-21.767,-18.294
15867,-19.848,-20.481
15879,-19.44,-20.977
15891,-21.306,-19.374
15902,-22.671,-19.715
15914,-20.047,-18.511
15926,-22.521,-17.37
15938,-21.924,-17.162
15949,-20.696,-18.685
15961,-19.976,-20.153
15973,-18.853,-22.064
15984,-18.734,-21.798
15996,-17.158,-20.573
16008,-19.348,-19.069
16020,-20.396,-18.688
16031,-21.996,-19.177
16043,-18.338,-19.772
16055,-20.394,-20.994
16066,-19.681,-19.894
16078,-15.364,-22.025
16090,-18.146,-22.549
16102,-22.285,-23.25
16113,-21.313,-25.35
16125,-20.404,-22.741
16137,-21.677,-19.987
16148,-20.521,-20.15
16160,-19.547,-21.622
16172,-19.057,-22.466
16184,-18.036,-21.743
16195,-19.237,-22.856
16207,-17.553,-22.371
16219,-19.105,-20.992
16230,-17.352,-20.073
16242,-20.315,-19.628
16254,-22.738,-22.548
16266,-18.613,-20.176
16277,-18.852,-20.024
16289,-18.523,-21.342
16301,-17.796,-19.702
16313,-20.011,-19.345
16324,-19.405,-20.97
16336,-18.26,-21.628
16348,-19.107,-19.953
16359,-19.988,-20.538
16371,-22.051,-24.82
16383,-24.364,-22.333
16395,-22.097,-21.992
16406,-20.343,-23.912
16418,-24.663,-23.841
16430,-22.336,-18.146
16441,-19.598,-18.148
16453,-18.988,-17.64
16465,-19.659,-19.491
16477,-20.369,-21.065
16488,-22.01,-21.345
16500,-23.139,-21.29
16512,-22.005,-23.799
16523,-22.6,-22.753
16535,-23.662,-20.861
16547,-22.727,-22.398
16559,-21.626,-22.203
16570,-21.119,-22.837
16582,-23.05,-21.233
16594,-21.601,-20.973
16605,-19.258,-19.657
16617,-15.909,-20.45
16629,-16.686,-21.249
16641,-18.376,-21.936
16652,-20.777,-25.025
16664,-20.416,-23.701
16676,-19.156,-22.898
16688,-19.753,-18.532
16699,-21.228,-16.743
16711,-22.948,-17.785
16723,-22.263,-20.036
16734,-24.688,-22.223
16746,-22.189,-20.308
16758,-22.378,-18.5
16770,-19,-18.629
16781,-20.049,-20.117
16793,-17.809,-20.831
16805,-19.745,-22.191
16816,-19.496,-22.2
16828,-21.124,-24.429
16840,-20.982,-21.58
16852,-24.293,-19.66
16863,-22.448,-21.937
16875,-21.786,-23.643
16887,-19.804,-24.754
16898,-20.944,-22.927
16910,-18.65,-22.295
16922,-18.696,-20.762
16934,-21.09,-22.781
16945,-24.526,-21.492
16957,-24.131,-20.483
16969,-25.032,-22.722
16980,-23.922,-22.148
16992,-22.97,-23.017
17004,-20.256,-23.318
17016,-17.548,-23.465
17027,-19.707,-23.298
17039,-20.477,-19.628
17051,-19.545,-18.119
17063,-21.203,-22.027
17074,-17.563,-23.634
17086,-18.284,-22.386
17098,-20.962,-22.803
17109,-23.915,-23.623
17121,-22.608,-22.177
17133,-24.324,-22.606
17145,-21.488,-19.798
17156,-21.604,-17.896
17168,-20.575,-20.937
17180,-20.638,-19.639
17191,-21.24,-23.443
17203,-20.824,-22.484
17215,-21.924,-22.181
17227,-19.866,-25.055
17238,-23.498,-22.872
17250,-26.033,-20.229
17262,-24.529,-18.606
17273,-21.936,-20.342
17285,-23.393,-23.071
17297,-23.034,-23.359
17309,-22.259,-24.163
17320,-21.485,-22.777
17332,-22.281,-22.468
17344,-24.772,-25.747
17355,-25.362,-26.804
17367,-23.994,-25.642
17379,-20.566,-24.854
17391,-19.349,-25.047
17402,-23.563,-23.907
17414,-22.369,-22.435
17426,-20.519,-20.563
17438,-21.797,-20.161
17449,-23.269,-22.018
17461,-24.271,-22.171
17473,-22.025,-20.088
17484,-21.901,-20.605
17496,-21.274,-24.774
17508,-22.42,-23.91
17520,-24.114,-24.04
17531,-23.361,-23.821
17543,-22.084,-22.388
17555,-21.515,-21.559
17566,-23.619,-23.229
17578,-23.293,-22.346
17590,-22.483,-19.778
17602,-25.158,-21.106
17613,-24.208,-22.055
17625,-22.691,-21.863
17637,-22.269,-22.923
17648,-20.018,-22.803
17660,-22.634,-26.651
17672,-21.612,-26.816
17684,-21.333,-26.017
17695,-21.094,-24.39
17707,-21.222,-24.328
17719,-22.907,-21.598
17730,-22.217,-23.355
17742,-22.75,-21.812
17754,-25.316,-22.447
17766,-21.847,-25.333
17777,-23.619,-26.363
17789,-24.748,-22.715
17801,-25.489,-18.974
17813,-22.066,-21.866
17824,-18.417,-21.344
17836,-22.101,-23.976
17848,-23.172,-26.655
17859,-22.801,-25.876
17871,-26.499,-25.033
17883,-23.111,-25.963
17895,-23.757,-24.317
17906,-24.75,-23.048
17918,-23.881,-24.922
17930,-21.299,-25.555
17941,-19.687,-22.546
17953,-20.625,-20.447
17965,-22.461,-20.469
17977,-25.172,-20.624
17988,-20.999,-20.237
18000,-21.885,-21.96
18012,-21.448,-22.01
18023,-24.647,-20.485
18035,-21.804,-19.4
18047,-20.728,-20.356
18059,-23.766,-22.88
18070,-23.959,-22.94
18082,-22.077,-20.655
18094,-21.203,-23.824
18105,-21.013,-23.731
18117,-20.449,-21.561
18129,-22.383,-21.926
18141,-23.108,-23.266
18152,-25.393,-21.663
18164,-25.033,-19.469
18176,-24.286,-21.805
18188,-21.406,-21.116
18199,-21.184,-21.214
18211,-23.792,-22.051
18223,-22.836,-26.03
18234,-21.834,-25.706
18246,-23.351,-24.381
18258,-24.652,-22.003
18270,-24.717,-22.017
18281,-22.081,-21.475
18293,-21.942,-24.674
18305,-22.827,-26.073
18316,-23.597,-24.032
18328,-25.874,-25.16
18340,-25.648,-23.302
18352,-22.179,-21.948
18363,-21.685,-25.136
18375,-24.685,-23.7
18387,-20.502,-23.515
18398,-25.318,-25.597
18410,-24.892,-25.675
18422,-18.992,-24.843
18434,-17.928,-24.905
18445,-22.708,-23.204
18457,-24.779,-22.005
18469,-22.419,-21.602
18480,-22.011,-20.432
18492,-25.095,-21.569
18504,-28.874,-24.001
18516,-23.09,-25.201
18527,-21.079,-23.396
18539,-22.347,-21.456
18551,-23.292,-24.794
18563,-22.422,-22.118
18574,-23.774,-26.082
18586,-26.958,-24.076
18598,-25.128,-24.591
18609,-25.163,-26.014
18621,-26.602,-25.398
18633,-24.5,-23.738
18645,-23.001,-23.216
18656,-23.674,-21.538
18668,-24.352,-24.645
18680,-24.092,-25.722
18691,-21.273,-25.707
18703,-23.101,-23.021
18715,-23.479,-21.424
18727,-22.727,-24.531
18738,-23.928,-27.352
18750,-23.708,-24.908
18762,-22.405,-24.687
18773,-23.329,-26.413
18785,-21.975,-23.512
18797,-20.909,-21.858
18809,-22.236,-25.273
18820,-25.101,-27.833
18832,-25.601,-27.073
18844,-24.421,-24.409
18855,-24.906,-23.748
18867,-27.134,-25.448
18879,-27.473,-24.178
18891,-23.334,-24.853
18902,-22.887,-23.32
18914,-25.259,-22.206
18926,-24.903,-22.079
18938,-22.411,-19.61
18949,-22.334,-21.432
18961,-23.438,-23.833
18973,-23.024,-23.263
18984,-21.061,-21.924
18996,-21.973,-22.042
19008,-25.129,-22.3
19020,-26.22,-26.17
19031,-26.398,-23.689
19043,-25.322,-23.496
19055,-22.393,-25.295
19066,-23.626,-25.892
19078,-22.881,-23.561
19090,-23.108,-22.469
19102,-22.014,-23.708
19113,-20.861,-28.82
19125,-25.605,-25.713
19137,-21.917,-26.337
19148,-23.375,-24.949
19160,-22.552,-24.15
19172,-21.447,-24.878
19184,-22.905,-25.738
19195,-24.534,-24.233
19207,-24.99,-23.805
19219,-27.89,-25.65
19230,-25.276,-29.127
19242,-24.834,-24.508
19254,-25.666,-24.286
19266,-24.415,-27.011
19277,-20.341,-28.276
19289,-21.85,-24.018
19301,-25.063,-24.854
19313,-24.009,-25.722
19324,-23.822,-22.845
19336,-27.912,-22.328
19348,-24.665,-26.101
19359,-21.499,-27.647
19371,-23.51,-25.011
19383,-23.676,-24.761
19395,-26.122,-25.163
19406,-26.259,-24.329
19418,-25.402,-25.842
19430,-26.066,-27.688
19441,-24.625,-28.546
19453,-22.567,-25.884
19465,-23.648,-26.686
19477,-24.415,-28.054
19488,-22.689,-26.286
19500,-24.781,-25.833
19512,-22.793,-24.419
19523,-25.61,-23.295
19535,-24.976,-23.852
19547,-21.166,-24.588
19559,-21.318,-24.165
19570,-23.499,-22.428
19582,-24.405,-21.85
19594,-26.013,-22.671
19605,-25.481,-25.004
19617,-23.295,-26.488
19629,-23.828,-26.755
19641,-23.191,-26.234
19652,-24.123,-24.759
19664,-24.778,-26.434
19676,-24.529,-24.991
19688,-27.764,-28.594
19699,-24.14,-26.746
19711,-20.433,-25.639
19723,-24.551,-24.487
19734,-23.967,-24.244
19746,-25.034,-26.03
19758,-25.316,-25.525
19770,-23.404,-25.073
19781,-23.157,-28.526
19793,-26.686,-22.761
19805,-26.858,-22.316
19816,-24.552,-25.841
19828,-21.865,-24.243
19840,-23.472,-24.388
19852,-26.53,-26.787
19863,-24.136,-25.21
19875,-21.397,-25.593
19887,-23.92,-26.785
19898,-26.565,-24.676
19910,-26.802,-24.842
19922,-28.392,-23.801
19934,-24.366,-22.53
19945,-23.354,-25.477
19957,-25.723,-25.114
19969,-24.997,-23.777
19980,-25.832,-26.164
19992,-26.775,-23.257
20004,-24.558,-23.682
20016,-25.464,-24.505
20027,-27.291,-24.932
20039,-26.482,-25.62
20051,-23.787,-25.548
20063,-23.115,-24.739
20074,-25.465,-23.351
20086,-24.012,-24.803
20098,-22.921,-25.922
20109,-21.451,-25.373
20121,-22.09,-25.862
20133,-22.319,-24.793
20145,-24.89,-29.518
20156,-26.56,-28.486
20168,-23.116,-25.716
20180,-24.454,-23.846
20191,-26.167,-23.623
20203,-27.966,-24.86
20215,-27.176,-22.887
20227,-26.588,-23.459
20238,-24.092,-23.36
20250,-22.88,-24.35
20262,-22.422,-27.472
20273,-22.106,-24.096
20285,-23.486,-21.274
20297,-25.702,-26.163
20309,-26.534,-25.246
20320,-24.629,-24.868
20332,-24.377,-26.492
20344,-27.504,-25.854
20355,-27.005,-24.335
20367,-26.347,-24.677
20379,-27.165,-27.773
20391,-28.138,-28.672
20402,-27.835,-26.921
20414,-23.612,-27.582
20426,-24.926,-25.205
20438,-29.985,-26.658
20449,-28.899,-23.96
20461,-25.996,-24.828
20473,-26.483,-27.489
20484,-23.262,-28.693
20496,-22.045,-29.214
20508,-24.304,-25.525
20520,-27.996,-23.392
20531,-28.742,-26.159
20543,-25.497,-25.884
20555,-24.612,-22.189
20566,-25.072,-23.469
20578,-27.848,-25.972
20590,-25.795,-23.47
20602,-26.31,-25.067
20613,-26.267,-25.736
20625,-23.126,-25.694
20637,-23.96,-25.886
20648,-27.706,-25.166
20660,-25.224,-26.357
20672,-24.585,-27.828
20684,-25.828,-24.459
20695,-27.658,-23.435
20707,-28.288,-22.522
20719,-27.755,-27.556
20730,-25.085,-27.812
20742,-26.75,-27.639
20754,-28.28,-26.496
20766,-26.252,-27.633
20777,-27.472,-25.159
20789,-24.43,-25.888
20801,-23.72,-28.659
20813,-24.328,-26.254
20824,-25.045,-23.94
20836,-23.363,-26.846
20848,-24.694,-28.514
20859,-24.532,-25.609
20871,-26.618,-25.586
20883,-23.487,-25.855
20895,-24.836,-26.556
20906,-26.557,-27.082
20918,-26.52,-28.523
20930,-24.262,-28.772
20941,-23.249,-28.517
20953,-25.378,-26.013
20965,-27.695,-26.997
20977,-26.847,-26.778
20988,-24.967,-25.267
21000,-26.351,-22.033
21012,-24.907,-23.848
21023,-24.511,-27.071
21035,-23.804,-26.194
21047,-22.513,-25.625
21059,-24.783,-23.535
21070,-29.99,-24.127
21082,-26.465,-24.389
21094,-24.312,-26.919
21105,-27.911,-30.374
21117,-26.882,-28.809
21129,-23.856,-27.414
21141,-23.71,-25.749
21152,-25.087,-25.435
21164,-30.892,-25.39
21176,-29.243,-26.944
21188,-26.452,-27.991
21199,-26.21,-28.649
21211,-24.695,-26.137
21223,-27.361,-27.241
21234,-28.293,-29.797
21246,-24.522,-28.339
21258,-27.701,-29.232
21270,-29.046,-24.735
21281,-26.522,-25.322
21293,-24.836,-27.866
21305,-25.997,-26.435
21316,-24.266,-26.877
21328,-26.401,-27.55
21340,-28.891,-28.75
21352,-28.599,-25.481
21363,-27.333,-24.543
21375,-25.094,-27.399
21387,-24.562,-24.38
21398,-24.57,-28.616
21410,-23.458,-28.456
21422,-23.157,-28.343
21434,-25.874,-29.868
21445,-30.011,-27.82
21457,-29.041,-25.032
21469,-25.498,-26.031
21480,-27.104,-29.092
21492,-24.885,-23.371
21504,-23.938,-23.633
21516,-25.929,-25.523
21527,-27.844,-26.873
21539,-26.841,-31.249
21551,-28.12,-30.601
21563,-25.169,-26.634
21574,-26.824,-28.231
21586,-26.986,-29.62
21598,-23.746,-28.79
21609,-23.725,-27.168
21621,-24.933,-27.459
21633,-24.417,-25.628
21645,-25.251,-28.065
21656,-25.666,-28.26
21668,-25.797,-30.15
21680,-26.505,-27.019
21691,-24.507,-28.535
21703,-26.525,-27.86
21715,-26.133,-26.637
21727,-25.529,-26.422
21738,-28.909,-26.742
21750,-26.281,-26.914
21762,-24.308,-28.888
21773,-26.35,-26.534
21785,-26.44,-28.444
21797,-24.909,-27.24
21809,-25.003,-27.26
21820,-27.056,-26.665
21832,-26.706,-27.129
21844,-26.134,-26.794
21855,-26.86,-26.664
21867,-26.779,-27.35
21879,-29.145,-29.602
21891,-29.211,-26.518
21902,-30.389,-27.068
21914,-28.933,-25.567
21926,-25.622,-26.451
21938,-25.729,-27.121
21949,-27.556,-26.055
21961,-24.157,-26.478
21973,-22.725,-27.844
21984,-26.416,-29.854
21996,-27.369,-26.835
22008,-24.255,-26.828
22020,-28.498,-27.245
22031,-27.173,-26.087
22043,-26.992,-27.576
22055,-25.874,-26.242
22066,-25.126,-25.962
22078,-25.449,-27.149
22090,-27.368,-28.563
22102,-27.82,-27.689
22113,-26.018,-25.566
22125,-27.934,-27.501
22137,-28.905,-26.005
22148,-30.156,-28.471
22160,-27.451,-28.895
22172,-25.7,-28.42
22184,-23.613,-31.226
22195,-23.098,-29.34
22207,-24.109,-28.675
22219,-27.777,-28.184
22230,-30.427,-26.318
22242,-30.605,-27.611
22254,-29.562,-28.235
22266,-26.604,-29.045
22277,-25.25,-28.93
22289,-26.828,-28.359
22301,-27.629,-29.589
22313,-28.237,-27.403
22324,-26.951,-24.535
22336,-29.326,-25.951
22348,-32.221,-28.784
22359,-30.114,-29.877
22371,-27.444,-29.904
22383,-24.93,-26.536
22395,-25.692,-28.74
22406,-26.313,-29.575
22418,-27.382,-30.084
22430,-27.496,-28.033
22441,-27.269,-28.274
22453,-27.38,-29.014
22465,-24.579,-25.949
22477,-24.861,-24.65
22488,-27.684,-27.68
22500,-28.42,-27.092
22512,-25.415,-27.536
22523,-27.171,-28.602
22535,-28.746,-28.071
22547,-29.238,-28.178
22559,-30.965,-26.552
22570,-28.975,-29.277
22582,-28.139,-29.049
22594,-27.671,-30.861
22605,-28.826,-28.59
22617,-29.812,-25.818
22629,-25.29,-27.707
22641,-26.068,-27.323
22652,-31.554,-28.457
22664,-28.799,-28.514
22676,-28.609,-29.789
22688,-26.515,-29.285
22699,-26.859,-25.479
22711,-27.553,-24.332
22723,-27.744,-26.685
22734,-27.519,-25.338
22746,-27.665,-25.959
22758,-28.136,-29.62
22770,-28.949,-26.805
22781,-27.262,-27.027
22793,-28.509,-28.487
22805,-29.926,-28.867
22816,-27.838,-29.42
22828,-28.61,-27.197
22840,-28.712,-27.254
22852,-29.521,-29.053
22863,-28.949,-27.531
22875,-28.468,-27.133
22887,-30.925,-28.753
22898,-26.517,-28.434
22910,-25.54,-27.751
22922,-27.766,-28.394
22934,-26.456,-29.108
22945,-29.221,-31.954
22957,-30.106,-30.225
22969,-28.465,-27.777
22980,-30.572,-27.259
22992,-31.595,-26.617
23004,-30.708,-27.089
23016,-31.862,-27.048
23027,-27.822,-28.987
23039,-26.395,-29.764
23051,-26.94,-29.505
23063,-31.036,-28.548
23074,-27.282,-29.63
23086,-26.064,-26.015
23098,-26.719,-25.722
23109,-27.661,-27.958
23121,-26.852,-28.643
23133,-27.195,-28.092
23145,-28.955,-27.594
23156,-25.428,-27.013
23168,-26.382,-28.21
23180,-26.095,-29.746
23191,-24.698,-26.522
23203,-24.293,-26.596
23215,-25.209,-24.892
23227,-27.444,-25.755
23238,-27.541,-28.228
23250,-27.616,-29.562
23262,-27.738,-30.302
23273,-25.435,-30.213
23285,-24.892,-30.893
23297,-25.773,-30.118
23309,-29.094,-28.714
23320,-28.357,-28.943
23332,-26.072,-29.462
23344,-25.689,-29.998
23355,-27.227,-31.351
23367,-28.47,-29.953
23379,-31.108,-32.46
23391,-29.983,-32.596
23402,-29.28,-27.058
23414,-30.353,-28.073
23426,-29.737,-30.416
23438,-28.309,-32.183
23449,-26.993,-30.921
23461,-26.972,-29.754
23473,-27.889,-31.514
23484,-28.535,-32.116
23496,-32.036,-31.928
23508,-26.405,-30.103
23520,-28.224,-28.361
23531,-30.154,-26.365
23543,-31.882,-28.744
23555,-30.939,-27.953
23566,-27.617,-26.526
23578,-25.69,-26.658
23590,-25.639,-27.419
23602,-28.59,-29.492
23613,-30.171,-31.341
23625,-28.384,-27.627
23637,-28.472,-27.288
23648,-30.698,-27.382
23660,-29.152,-29.207
23672,-27.322,-28.96
23684,-27.392,-29.583
23695,-31.448,-27.96
23707,-28.722,-28.65
23719,-25.918,-26.686
23730,-26.412,-28.988
23742,-28.478,-29.418
23754,-27.893,-29.609
23766,-27.865,-29.566
23777,-28.427,-28.8
23789,-29.502,-31.451
23801,-27.799,-30.895
23813,-27.836,-28.052
23824,-28.535,-28.034
23836,-27.796,-29.461
23848,-31.023,-30.249
23859,-32.192,-28.754
23871,-30.966,-28.015
23883,-29.649,-30.79
23895,-28.399,-30.028
23906,-28.1,-29.468
23918,-30.008,-31.027
23930,-32.965,-31.588
23941,-26.784,-30.809
23953,-17.796,-29.897
23965,-16.028,-31.318
23977,-23.784,-31.217
23988,-25.911,-30.387
