FFT,Power Spectrum
Frequency[Hz],Level-L[dB],Level-R[dB]
11.719,-24.653,-25.242
23.438,-3.9916,-4.8829
35.156,-3.0346,-4.7415
46.875,1.2329,1.325
58.594,1.6362,2.4518
70.313,5.9845,4.3708
82.031,7.8893,6.2559
93.75,13.118,10.429
105.47,12.418,9.7853
117.19,11.054,9.0197
128.91,8.383,8.7362
140.63,6.2099,5.9403
152.34,4.8503,2.625
164.06,5.9047,3.2747
175.78,8.051,5.5269
187.5,8.4337,9.2567
199.22,10.12,9.066
210.94,5.2561,4.0808
222.66,6.1479,8.8111
234.38,10.664,9.4808
246.09,10.024,6.661
257.81,6.9223,3.1825
269.53,8.7728,5.9621
281.25,9.6493,7.9624
292.97,7.7691,7.0498
304.69,6.5717,6.4918
316.41,8.8433,7.2934
328.13,6.8748,4.1304
339.84,5.4621,8.6407
351.56,5.6566,9.6016
363.28,7.1125,6.5419
375,7.6953,6.1457
386.72,8.4654,5.0706
398.44,8.1836,6.4004
410.16,7.0053,5.4465
421.88,5.5749,4.3323
433.59,5.6936,4.3191
445.31,5.8543,4.1156
457.03,6.8573,4.4441
468.75,8.5943,6.9786
480.47,8.7149,6.3933
492.19,6.7331,1.2027
503.91,4.6525,2.6413
515.63,5.3747,1.9552
527.34,3.6166,6.5801
539.06,4.7728,7.7445
550.78,5.468,3.9799
562.5,6.3581,5.7873
574.22,7.5901,6.5618
585.94,5.9627,5.4858
597.66,8.2557,6.8111
609.38,7.6627,7.3263
621.09,5.7403,4.5807
632.81,5.3565,4.021
644.53,5.0922,7.0769
656.25,7.9642,6.4027
667.97,8.9334,7.7611
679.69,7.2319,9.7269
691.41,6.7758,8.2185
703.13,6.1915,5.9903
714.84,5.8539,5.6657
726.56,5.88,2.7207
738.28,9.5821,7.1889
750,9.8506,6.4232
761.72,6.3266,6.0441
773.44,8.9353,7.4373
785.16,9.4854,6.3619
796.88,8.605,6.3112
808.59,9.6669,8.3822
820.31,9.0815,8.8674
832.03,11.046,8.5831
843.75,10.833,8.3097
855.47,9.8091,9.0992
867.19,8.4241,6.1013
878.91,9.2209,5.6463
890.63,9.9419,5.7761
902.34,10.953,7.0401
914.06,10.972,8.5933
925.78,9.3564,6.0822
937.5,8.1061,4.9359
949.22,7.0251,2.8625
960.94,4.8506,4.5343
972.66,6.5879,5.9053
984.38,6.2408,5.2285
996.09,3.6574,2.2433
1007.8,3.6326,0.84156
1019.5,4.0818,3.5617
1031.3,3.9596,4.1336
1043,5.0792,4.833
1054.7,6.0077,7.6073
1066.4,6.4729,6.167
1078.1,7.3628,5.6509
1089.8,8.5328,6.5414
1101.6,7.7585,6.287
1113.3,4.4026,5.3953
1125,5.4401,6.6396
1136.7,7.4588,6.1465
1148.4,6.1414,5.0623
1160.2,8.322,6.0975
1171.9,10.166,7.418
1183.6,8.5039,5.3611
1195.3,7.5516,4.8281
1207,8.7763,7.7488
1218.8,8.1426,7.7135
1230.5,8.2055,4.4075
1242.2,7.7821,3.6907
1253.9,6.6044,4.0688
1265.6,5.5171,3.41
1277.3,5.8919,5.2653
1289.1,5.3642,5.7082
1300.8,4.2852,6.0819
1312.5,5.627,8.0969
1324.2,5.9091,5.4889
1335.9,3.0563,1.3936
1347.7,2.127,1.2696
1359.4,2.0648,2.2307
1371.1,7.1696,1.3538
1382.8,8.154,4.7792
1394.5,6.9465,6.5786
1406.3,6.8202,4.7042
1418,6.9655,4.8186
1429.7,6.0484,4.0279
1441.4,7.0336,3.0717
1453.1,4.017,2.9873
1464.8,3.1045,3.5815
1476.6,5.1039,4.1128
1488.3,6.0658,2.4368
1500,6.1204,2.6654
1511.7,7.2135,2.9257
1523.4,7.3796,2.3332
1535.2,3.4283,3.9844
1546.9,1.2683,3.5957
1558.6,-0.41788,4.2431
1570.3,3.2884,3.2223
1582,4.8411,0.87227
1593.8,4.4965,2.5051
1605.5,4.5142,6.2415
1617.2,2.1182,5.02
1628.9,3.1487,1.2263
1640.6,1.6349,2.1679
1652.3,-0.47974,3.8091
1664.1,2.6814,4.2949
1675.8,1.4091,5.4502
1687.5,2.4173,2.2415
1699.2,6.4594,3.2319
1710.9,6.4968,4.9012
1722.7,4.4261,3.3054
1734.4,3.8212,1.1711
1746.1,4.2245,3.9178
1757.8,5.3024,6.8002
1769.5,4.2473,5.8309
1781.3,5.1045,2.5182
1793,5.8795,0.56312
1804.7,5.5807,1.2922
1816.4,5.4719,2.7317
1828.1,4.1647,3.4286
1839.8,2.655,2.4727
1851.6,2.6437,1.2367
1863.3,2.9421,1.4435
1875,3.1938,1.4629
1886.7,5.4394,2.7994
1898.4,8.136,0.78943
1910.2,7.1182,1.811
1921.9,3.7813,2.9105
1933.6,2.8212,7.2059
1945.3,1.6759,5.7
1957,2.1668,1.5301
1968.8,2.5883,2.115
1980.5,4.3364,0.75017
1992.2,3.4383,-0.9154
2003.9,0.69023,0.071862
2015.6,0.48347,0.49155
2027.3,-0.13884,2.0295
2039.1,0.52556,0.69987
2050.8,3.0798,0.60701
2062.5,3.5451,0.95139
2074.2,3.1972,1.9793
2085.9,1.8139,3.6559
2097.7,5.4064,3.9424
2109.4,6.9253,3.5557
2121.1,2.3753,4.3653
2132.8,5.2407,2.862
2144.5,4.5492,5.7175
2156.3,4.5148,7.3172
2168,8.2911,7.3243
2179.7,7.0556,7.3439
2191.4,0.80252,5.7533
2203.1,3.4107,3.415
2214.8,3.386,2.6496
2226.6,0.96765,3.0043
2238.3,1.028,4.5625
2250,0.098334,2.401
2261.7,0.41393,1.9513
2273.4,-0.75721,-2.1416
2285.2,0.84787,1.7541
2296.9,-2.3587,2.5041
2308.6,2.1752,1.6102
2320.3,6.2989,2.1243
2332,4.0201,-0.055712
2343.8,1.0205,-0.81367
2355.5,2.5204,-1.3112
2367.2,2.8474,0.70997
2378.9,0.49862,1.6758
2390.6,2.27,3.0758
2402.3,-0.057831,2.6197
2414.1,-1.8096,4.1434
2425.8,1.3483,4.7483
2437.5,1.8653,3.8157
2449.2,0.85465,4.1739
2460.9,4.7283,3.7143
2472.7,3.8001,2.8532
2484.4,0.871,3.3685
2496.1,2.7587,2.1986
2507.8,1.4885,0.63051
2519.5,2.0317,-0.58767
2531.3,1.5376,1.999
2543,-1.3882,1.7105
2554.7,3.1001,1.5812
2566.4,1.2784,2.9305
2578.1,0.39872,1.3717
2589.8,-0.88601,-0.095492
2601.6,2.4611,-0.48698
2613.3,4.6318,2.3003
2625,3.6125,3.097
2636.7,2.9572,-1.4455
2648.4,3.4046,-0.56517
2660.2,0.044519,-3.7051
2671.9,-1.7282,-0.14202
2683.6,0.029669,-1.6366
2695.3,1.4854,-1.6428
2707,1.6596,-0.73326
2718.8,-0.97392,1.8095
2730.5,-1.8638,1.8532
2742.2,-1.1514,2.5582
2753.9,2.7066,2.5054
2765.6,2.2001,0.24591
2777.3,2.178,0.022357
2789.1,2.2001,-0.14839
2800.8,5.838,3.6551
2812.5,6.4394,4.3711
2824.2,5.3944,1.185
2835.9,5.2088,2.4736
2847.7,3.0914,0.74626
2859.4,-0.52585,3.833
2871.1,-0.43838,3.2817
2882.8,2.6667,1.3112
2894.5,1.2168,3.0517
2906.3,1.0436,1.2303
2918,0.98491,-3.491
2929.7,-0.22086,-2.6822
2941.4,3.7187,-0.40089
2953.1,3.3021,2.0705
2964.8,0.82156,3.9247
2976.6,0.48637,3.2612
2988.3,0.59485,0.90112
3000,-1.3664,-4.1172
3011.7,-2.8664,-1.9615
3023.4,-0.14521,0.62019
3035.2,1.8903,1.2646
3046.9,3.821,-0.85526
3058.6,3.4607,-0.88934
3070.3,0.9729,-1.3888
3082,1.6946,2.6025
3093.8,1.0875,1.4805
3105.5,2.2173,-0.48409
3117.2,1.7199,-3.3935
3128.9,-1.2472,1.2194
3140.6,-2.2767,2.039
3152.3,-3.6745,2.1238
3164.1,-1.4007,1.2179
3175.8,-0.51553,-0.98997
3187.5,0.56453,0.80339
3199.2,-0.31005,2.9044
3210.9,-1.4949,3.9179
3222.7,-1.7739,2.8803
3234.4,1.0231,-0.83111
3246.1,-1.0917,0.55747
3257.8,-1.5573,-1.8201
3269.5,-2.2957,-2.0431
3281.3,0.25714,-0.55236
3293,0.02422,1.6542
3304.7,-1.0266,2.7679
3316.4,0.63075,0.51926
3328.1,1.1962,-2.3502
3339.8,-2.8263,1.8903
3351.6,-4.0625,3.0991
3363.3,-1.2223,1.1842
3375,3.3807,-1.8418
3386.7,3.6645,-1.803
3398.4,0.15156,0.39252
3410.2,-0.94161,-0.29808
3421.9,0.89266,-2.8949
3433.6,2.226,0.35616
3445.3,1.8314,-0.89538
3457,-0.55706,-3.4305
3468.8,-2.8699,-2.6127
3480.5,-1.103,-0.62746
3492.2,-2.8406,-1.1911
3503.9,-3.606,-3.4515
3515.6,-3.2657,-1.5499
3527.3,-0.94514,-0.92091
3539.1,0.14304,1.1067
3550.8,1.2706,0.84395
3562.5,2.2251,-1.3029
3574.2,1.0142,0.42982
3585.9,2.3927,-1.8921
3597.7,-1.0679,-4.3857
3609.4,-2.0911,-4.29
3621.1,5.3224,-0.19933
3632.8,5.4136,-1.3825
3644.5,10.189,-1.6963
3656.3,16.336,-2.1334
3668,33.903,10.398
3679.7,50.492,26.551
3691.4,52.089,28.167
3703.1,40.717,16.898
3714.8,23.257,1.531
3726.6,13.02,-1.683
3738.3,8.2333,-1.869
3750,4.8936,-3.2719
3761.7,2.826,-1.2894
3773.4,-0.98999,-2.252
3785.2,-2.5649,-1.6311
3796.9,0.03454,2.5491
3808.6,-1.0083,1.564
3820.3,-2.4999,-0.69455
3832,-0.82217,-1.2576
3843.8,-0.84585,-0.7696
3855.5,-2.7989,-0.8814
3867.2,-0.96707,-1.0752
3878.9,-0.42012,-2.2189
3890.6,1.4181,-3.4898
3902.3,1.0516,-1.8551
3914.1,-1.1534,-0.15653
3925.8,-0.81359,-0.74502
3937.5,-1.0617,-1.1138
3949.2,0.53624,0.58979
3960.9,1.8387,-0.92424
3972.7,0.92538,-2.3603
3984.4,-0.54246,-0.020017
3996.1,-3.7103,-0.22354
4007.8,-4.4509,-2.2486
4019.5,-1.676,0.14738
4031.3,-0.94141,0.64972
4043,-2.8409,-1.1065
4054.7,-2.6401,-3.4016
4066.4,-3.4428,-1.847
4078.1,-3.0146,-1.5941
4089.8,-2.3352,-1.3258
4101.6,-1.8252,-3.2076
4113.3,-3.2186,-4.4686
4125,-4.3653,-6.0658
4136.7,-1.1801,-2.6929
4148.4,-2.3981,-2.6399
4160.2,-0.59192,-1.7243
4171.9,-2.2812,-1.7904
4183.6,-5.8868,-3.1106
4195.3,-5.5787,-3.1195
4207,-4.6507,-3.6396
4218.8,-2.5066,-5.488
4230.5,0.92803,-2.9509
4242.2,1.6254,-0.50328
4253.9,-1.9714,0.53443
4265.6,-3.8656,-3.125
4277.3,-4.1109,-2.0012
4289.1,-3.3063,-4.2034
4300.8,-2.9513,-5.5741
4312.5,-3.0429,-3.0818
4324.2,-3.9228,-2.5885
4335.9,-3.8452,-2.5088
4347.7,-5.7867,-1.4283
4359.4,-5.5069,-1.9935
4371.1,-6.7175,-1.3448
4382.8,-6.2904,-1.7505
4394.5,-3.8056,-3.7521
4406.3,-2.3787,-1.9144
4418,-0.97118,-0.049083
4429.7,0.20291,-5.5737
4441.4,-0.34204,-1.5876
4453.1,-3.471,-2.7486
4464.8,-1.6375,-3.8957
4476.6,1.6482,-5.1106
4488.3,-0.13461,-6.3275
4500,-4.3858,-4.7952
4511.7,-3.0785,-3.8746
4523.4,-1.601,-5.5626
4535.2,-5.0906,-6.6759
4546.9,-0.81159,-6.8262
4558.6,-4.9888,-4.4143
4570.3,-2.6938,-4.3313
4582,-1.3506,-2.2776
4593.8,-2.0499,-3.5119
4605.5,-6.4921,-2.2115
4617.2,-5.6655,1.0823
4628.9,-6.2109,1.4538
4640.6,-0.69969,-1.4957
4652.3,-2.2003,-4.8584
4664.1,-4.9828,-1.6755
4675.8,-4.8057,-0.73689
4687.5,-2.3035,-3.99
4699.2,-1.8383,-5.0862
4710.9,-1.8795,-3.9877
4722.7,-2.7795,-1.8407
4734.4,-3.2942,-2.2622
4746.1,-0.93914,-7.6335
4757.8,-0.12827,-6.7115
4769.5,-3.1923,-6.8296
4781.3,-5.2762,-2.3457
4793,-6.1899,-2.1339
4804.7,-6.7686,-5.5934
4816.4,-8.1004,-3.806
4828.1,-8.5045,-2.7473
4839.8,-1.4147,-1.7339
4851.6,-0.64649,-2.3353
4863.3,-3.669,-4.5414
4875,-5.1824,-4.7614
4886.7,-3.6571,-5.5688
4898.4,-2.2385,-3.1794
4910.2,-4.261,-1.236
4921.9,-4.7623,-4.0886
4933.6,-5.6835,-5.2411
4945.3,-2.6137,-4.1739
4957,-1.4532,-4.3219
4968.8,-4.2461,-4.2223
4980.5,-6.5219,-1.3334
4992.2,-5.3047,0.12814
5003.9,-5.968,-1.5207
5015.6,-6.4902,-5.0985
5027.3,-6.4059,-5.7974
5039.1,-3.9025,-2.3455
5050.8,-2.1399,-1.5341
5062.5,-3.4982,-3.0384
5074.2,-4.9326,-5.5264
5085.9,-3.3682,-4.9618
5097.7,-0.93308,-3.7334
5109.4,-0.52362,-2.8918
5121.1,-3.9257,-0.024734
5132.8,-3.0253,-3.2376
5144.5,-4.7409,-5.4863
5156.3,-6.5313,-1.5576
5168,-4.0226,-0.97701
5179.7,-1.324,-5.1806
5191.4,-3.4424,-5.1563
5203.1,-5.9783,-6.6248
5214.8,-6.514,-5.4441
5226.6,-6.296,-4.3106
5238.3,-4.9213,-4.5328
5250,-2.613,-4.9686
5261.7,-0.95794,-5.8752
5273.4,-1.7129,-4.2367
5285.2,-3.2965,-4.1592
5296.9,-3.6986,-4.5359
5308.6,-3.2002,-3.3165
5320.3,-5.0158,-2.1929
5332,-3.7545,-4.3842
5343.8,-2.393,-4.3853
5355.5,-2.1728,-3.595
5367.2,-3.5634,-4.0678
5378.9,-6.2012,-3.3292
5390.6,-3.6388,-5.2816
5402.3,-4.0613,-3.968
5414.1,-6.5755,-7.6882
5425.8,-2.003,-6.5744
5437.5,-1.9602,-7.7976
5449.2,-4.6168,-8.01
5460.9,-4.5342,-7.612
5472.7,-6.6038,-5.5273
5484.4,-8.0542,-5.5652
5496.1,-3.8081,-5.9315
5507.8,-3.0818,-4.4681
5519.5,-6.3142,-4.625
5531.3,-6.0646,-7.017
5543,-1.4705,-5.61
5554.7,-4.5924,-7.2272
5566.4,-6.1475,-5.1139
5578.1,-4.1454,-3.1972
5589.8,-3.5297,-3.8432
5601.6,-2.1997,-5.6086
5613.3,-3.7292,-6.5723
5625,-4.76,-3.597
5636.7,-6.2376,-1.8308
5648.4,-4.5754,-3.1262
5660.2,-6.739,-4.0983
5671.9,-6.2761,-5.5907
5683.6,-6.34,-7.2924
5695.3,-5.7401,-9.245
5707,-3.2416,-6.8745
5718.8,-5.2781,-5.0881
5730.5,-4.2551,-5.4932
5742.2,-3.1752,-6.3341
5753.9,-6.4861,-2.9776
5765.6,-6.8504,-4.7676
5777.3,-4.1517,-6.0299
5789.1,-5.8407,-3.1429
5800.8,-3.2546,-4.9354
5812.5,-4.6161,-7.65
5824.2,-7.2381,-7.947
5835.9,-4.9931,-6.8848
5847.7,-5.4937,-7.6355
5859.4,-6.7731,-8.1245
5871.1,-5.0977,-6.5325
5882.8,-3.3741,-2.3827
5894.5,-4.5649,-3.7237
5906.3,-4.9702,-8.0867
5918,-6.1568,-5.7369
5929.7,-5.6028,-3.9003
5941.4,-4.6974,-3.0574
5953.1,-6.6112,-4.2669
5964.8,-3.642,-3.5679
5976.6,-1.4059,-1.7214
5988.3,-5.917,-5.9011
6000,-6.614,-5.7927
6011.7,-7.8824,-7.6627
6023.4,-4.8359,-8.8383
6035.2,-2.9902,-9.6692
6046.9,-4.3888,-7.6882
6058.6,-6.1834,-6.9401
6070.3,-5.2429,-6.1689
6082,-6.5128,-7.2744
6093.8,-6.0924,-10.983
6105.5,-4.4132,-8.21
6117.2,-7.1746,-7.4761
6128.9,-9.7959,-6.2402
6140.6,-9.6437,-6.1044
6152.3,-3.0104,-6.7065
6164.1,-2.9836,-6.8128
6175.8,-6.5816,-7.6857
6187.5,-4.0143,-6.615
6199.2,-2.8326,-6.1954
6210.9,-7.3866,-3.416
6222.7,-5.3544,-5.5897
6234.4,-3.6797,-7.6241
6246.1,-4.5572,-5.224
6257.8,-5.7446,-4.3037
6269.5,-5.7928,-8.6985
6281.3,-4.3498,-8.886
6293,-2.8681,-8.9175
6304.7,-5.0915,-5.9417
6316.4,-6.9496,-7.6957
6328.1,-7.4309,-5.6364
6339.8,-5.0076,-6.5691
6351.6,-5.3078,-7.0467
6363.3,-7.7893,-6.1142
6375,-3.9962,-7.7863
6386.7,-4.2212,-9.2462
6398.4,-6.6396,-6.542
6410.2,-3.3493,-1.0714
6421.9,-4.2351,-2.1501
6433.6,-8.2734,-5.839
6445.3,-9.2704,-5.2673
6457,-5.9804,-5.4049
6468.8,-4.8352,-3.6084
6480.5,-3.8794,-8.724
6492.2,-4.6233,-8.8441
6503.9,-6.6833,-9.9129
6515.6,-6.4903,-7.2081
6527.3,-7.9875,-5.6774
6539.1,-6.9123,-8.8739
6550.8,-6.7997,-9.2839
6562.5,-4.9327,-5.1864
6574.2,-5.8016,-5.9954
6585.9,-5.9113,-7.84
6597.7,-4.3183,-8.1313
6609.4,-3.632,-6.0477
6621.1,-5.9383,-7.3837
6632.8,-12.39,-5.7081
6644.5,-8.8004,-6.2565
6656.3,-6.0217,-7.0633
6668,-5.2347,-7.5062
6679.7,-4.4639,-6.8873
6691.4,-5.9223,-8.1701
6703.1,-5.9942,-10.387
6714.8,-4.4951,-10.719
6726.6,-3.092,-11.252
6738.3,-6.5314,-8.5438
6750,-12.624,-7.3127
6761.7,-8.098,-8.8641
6773.4,-6.8052,-7.2986
6785.2,-7.576,-7.1216
6796.9,-7.3855,-7.5206
6808.6,-3.7432,-6.1126
6820.3,-4.5497,-7.531
6832,-7.5415,-7.7934
6843.8,-7.8049,-8.3091
6855.5,-4.9209,-7.2598
6867.2,-6.5244,-7.4304
6878.9,-9.8329,-7.0011
6890.6,-9.4607,-4.4503
6902.3,-7.7398,-6.3254
6914.1,-8.7957,-6.774
6925.8,-9.6452,-7.9444
6937.5,-10.218,-10.132
6949.2,-7.5255,-12.111
6960.9,-9.8381,-7.1466
6972.7,-5.7922,-5.7184
6984.4,-5.7052,-5.8947
6996.1,-8.0828,-10.127
7007.8,-10.13,-7.807
7019.5,-10.997,-10.759
7031.3,-8.9327,-6.8887
7043,-7.0506,-5.7014
7054.7,-9.2485,-7.0916
7066.4,-7.8806,-8.6507
7078.1,-5.2053,-10.416
7089.8,-9.9271,-9.2896
7101.6,-7.9456,-9.6038
7113.3,-10.22,-5.8816
7125,-9.8998,-4.5904
7136.7,-7.7639,-5.3646
7148.4,-6.8205,-4.6984
7160.2,-8.1616,-7.6416
7171.9,-7.3006,-7.1663
7183.6,-6.7151,-6.4116
7195.3,-7.1462,-8.4378
7207,-7.3716,-8.2692
7218.8,-7.2389,-9.0951
7230.5,-8.0596,-6.3599
7242.2,-7.9781,-4.9912
7253.9,-8.2638,-4.8235
7265.6,-5.44,-7.81
7277.3,-8.2468,-9.8617
7289.1,-10.346,-14.538
7300.8,-7.9075,-13.002
7312.5,-6.8386,-8.2245
7324.2,-8.2489,-8.6404
7335.9,-8.2848,-6.0869
7347.7,-7.4591,-5.3254
7359.4,-8.2253,-10.565
7371.1,-9.5216,-7.2414
7382.8,-9.7069,-8.5832
7394.5,-10.125,-9.6546
7406.3,-10.774,-8.1683
7418,-8.3813,-8.9789
7429.7,-3.9607,-8.818
7441.4,-5.3919,-8.2313
7453.1,-8.2608,-8.2957
7464.8,-6.3722,-8.0462
7476.6,-7.6014,-12.787
7488.3,-8.1714,-9.9621
7500,-8.7406,-8.1263
7511.7,-8.8896,-7.6766
7523.4,-6.6938,-7.9297
7535.2,-9.5832,-5.8594
7546.9,-8.6497,-6.8985
7558.6,-8.9081,-7.6272
7570.3,-10.361,-7.4315
7582,-7.6467,-6.6022
7593.8,-10.09,-8.8017
7605.5,-12.007,-9.8079
7617.2,-9.1217,-6.9039
7628.9,-9.1153,-7.0972
7640.6,-7.8244,-8.5211
7652.3,-7.1492,-8.7808
7664.1,-5.6528,-8.9955
7675.8,-7.482,-10.344
7687.5,-9.4878,-10.255
7699.2,-7.4478,-10.227
7710.9,-8.7701,-12.061
7722.7,-10.296,-10.215
7734.4,-9.1227,-8.1953
7746.1,-10.176,-11.703
7757.8,-13.004,-11.333
7769.5,-11.852,-10.928
7781.3,-12.3,-8.1954
7793,-11.09,-4.7959
7804.7,-8.2181,-4.8072
7816.4,-6.7182,-9.6598
7828.1,-7.0512,-7.1727
7839.8,-8.5199,-5.0294
7851.6,-8.76,-9.1395
7863.3,-8.6158,-9.7231
7875,-7.3706,-8.9734
7886.7,-9.2989,-7.8795
7898.4,-11.724,-10.189
7910.2,-10.489,-7.3521
7921.9,-9.4539,-6.0732
7933.6,-8.9635,-5.931
7945.3,-6.8516,-8.2472
7957,-7.7495,-9.1186
7968.8,-7.5901,-6.9737
7980.5,-8.4866,-8.2811
7992.2,-6.0777,-10.93
8003.9,-8.0679,-8.3865
8015.6,-9.9172,-8.2421
8027.3,-11.328,-10.979
8039.1,-10.009,-11.109
8050.8,-10.871,-8.4967
8062.5,-8.9218,-6.4511
8074.2,-8.0478,-7.3037
8085.9,-7.1779,-7.3362
8097.7,-9.9548,-9.0205
8109.4,-10.641,-13.111
8121.1,-10.244,-11.269
8132.8,-8.8249,-11.702
8144.5,-9.6392,-10.254
8156.3,-9.516,-12.58
8168,-8.7036,-11.557
8179.7,-8.9469,-11.73
8191.4,-11.24,-12.684
8203.1,-10.5,-8.1675
8214.8,-8.5984,-7.699
8226.6,-9.4855,-8.4163
8238.3,-9.0678,-10.271
8250,-8.4608,-10.699
8261.7,-8.1626,-10.129
8273.4,-6.4736,-10.146
8285.2,-7.0772,-9.5975
8296.9,-9.9303,-10.827
8308.6,-10.582,-13.684
8320.3,-7.3341,-10.325
8332,-8.4199,-10.218
8343.8,-11.512,-7.5702
8355.5,-13.815,-9.4482
8367.2,-9.8207,-9.6128
8378.9,-8.919,-10.545
8390.6,-10.928,-12.316
8402.3,-10.944,-10.035
8414.1,-9.2378,-9.5604
8425.8,-9.0828,-9.2021
8437.5,-7.6343,-8.2077
8449.2,-7.5419,-9.6563
8460.9,-7.6208,-10.358
8472.7,-9.247,-9.5704
8484.4,-11.7,-11.003
8496.1,-12.398,-11.521
8507.8,-12.282,-11.125
8519.5,-12.01,-11.435
8531.3,-9.3958,-10.614
8543,-7.147,-9.5747
8554.7,-9.43,-10.25
8566.4,-10.498,-10.185
8578.1,-7.7827,-9.1986
8589.8,-6.8916,-9.5927
8601.6,-11.23,-10.259
8613.3,-12.038,-9.4659
8625,-10.309,-9.0104
8636.7,-11.315,-10.885
8648.4,-8.0975,-12.731
8660.2,-7.3595,-10.804
8671.9,-10.603,-8.0344
8683.6,-10.977,-10.413
8695.3,-9.0009,-12.694
8707,-11.702,-10.044
8718.8,-9.1486,-11.437
8730.5,-6.9708,-11.941
8742.2,-7.9105,-6.8554
8753.9,-9.8523,-5.2579
8765.6,-10.967,-7.962
8777.3,-9.3802,-9.7125
8789.1,-10.487,-8.5527
8800.8,-11.634,-8.1546
8812.5,-9.7459,-12.934
8824.2,-11.853,-11.838
8835.9,-13.598,-10.117
8847.7,-11.757,-9.1127
8859.4,-13.093,-10.428
8871.1,-9.6546,-10.093
8882.8,-9.4045,-11.214
8894.5,-10.546,-11.381
8906.3,-8.4159,-13.07
8918,-9.8986,-12.482
8929.7,-11.588,-12.213
8941.4,-10.978,-12.281
8953.1,-6.9346,-15.042
8964.8,-7.8907,-9.932
8976.6,-13.595,-11.694
8988.3,-12.319,-12.967
9000,-9.8429,-12.231
9011.7,-9.2805,-10.787
9023.4,-12.06,-10.393
9035.2,-9.9882,-10.027
9046.9,-9.9749,-11.13
9058.6,-9.3224,-11.768
9070.3,-9.9887,-9.9195
9082,-10.155,-7.5094
9093.8,-7.9433,-8.8675
9105.5,-7.8572,-12.121
9117.2,-10.497,-13.354
9128.9,-11.924,-13.449
9140.6,-11.32,-14.868
9152.3,-11.314,-14.115
9164.1,-8.1272,-9.6356
9175.8,-6.9424,-7.2887
9187.5,-6.8879,-10.259
9199.2,-7.3647,-12.56
9210.9,-9.3886,-11.043
9222.7,-8.6196,-10.12
9234.4,-9.3179,-11.639
9246.1,-10.65,-9.8852
9257.8,-13.455,-8.7108
9269.5,-13.933,-11.166
9281.3,-11.729,-15.149
9293,-11.208,-13.809
9304.7,-11.558,-9.5444
9316.4,-10.424,-8.8162
9328.1,-10.176,-10.016
9339.8,-13.212,-14.192
9351.6,-10.836,-12.983
9363.3,-8.3945,-12.464
9375,-10.636,-6.8333
9386.7,-13.309,-8.3645
9398.4,-12.26,-8.4217
9410.2,-10.347,-9.9678
9421.9,-9.7561,-9.7972
9433.6,-10.31,-10.614
9445.3,-10.926,-12.214
9457,-11.867,-10.823
9468.8,-11.669,-13.4
9480.5,-11.176,-12.625
9492.2,-12.727,-9.2959
9503.9,-11.854,-9.791
9515.6,-9.2944,-10.951
9527.3,-10.231,-9.4449
9539.1,-11.475,-12.718
9550.8,-10.883,-11.624
9562.5,-11.253,-11.265
9574.2,-12.411,-11.95
9585.9,-12.454,-12.622
9597.7,-10.732,-13.001
9609.4,-10.044,-12.11
9621.1,-12.567,-11.779
9632.8,-13.679,-13.342
9644.5,-10.507,-13.338
9656.3,-15.397,-11.385
9668,-11.578,-10.538
9679.7,-10.035,-8.9548
9691.4,-12.97,-11.499
9703.1,-11.516,-13.259
9714.8,-10.587,-15.949
9726.6,-12.48,-14.383
9738.3,-14.541,-13.636
9750,-12.049,-12.225
9761.7,-11.817,-10.163
9773.4,-10.011,-11.153
9785.2,-10.736,-10.067
9796.9,-12.881,-11.886
9808.6,-10.458,-14.682
9820.3,-10.284,-11.909
9832,-9.7818,-11.158
9843.8,-10.548,-12.044
9855.5,-11.555,-11.825
9867.2,-8.838,-11.51
9878.9,-10.49,-12.259
9890.6,-14.304,-13.802
9902.3,-13.191,-13.381
9914.1,-12.897,-13.827
9925.8,-12.693,-13.209
9937.5,-12.497,-12.225
9949.2,-11.433,-10.874
9960.9,-12.361,-12.675
9972.7,-10.777,-15.335
9984.4,-10.611,-13.554
9996.1,-10.638,-13.92
10008,-10.469,-13.599
10020,-13.691,-13.259
10031,-10.722,-13.504
10043,-9.7442,-11.813
10055,-11.273,-9.8647
10066,-13.711,-14.72
10078,-12.962,-14.76
10090,-12.701,-10.896
10102,-11.671,-14.053
10113,-12.78,-11.08
10125,-14.185,-8.8062
10137,-9.7667,-8.8971
10148,-5.8701,-12.574
10160,-8.1166,-14.791
10172,-10.129,-14.869
10184,-13.117,-13.468
10195,-13.451,-14.197
10207,-12.204,-13.336
10219,-13.308,-10.51
10230,-14.726,-13.319
10242,-14.414,-12.558
10254,-14.203,-12.87
10266,-15.243,-7.7997
10277,-12.908,-9.031
10289,-11.534,-13.711
10301,-10.238,-12.142
10313,-11.483,-9.6647
10324,-12.161,-11.395
10336,-11.397,-16.156
10348,-11.923,-12.675
10359,-13.184,-12.285
10371,-11.959,-16.87
10383,-10.979,-14.048
10395,-11.732,-13.997
10406,-12.004,-14.122
10418,-11.86,-13.803
10430,-10.175,-13.846
10441,-14.13,-14.024
10453,-11.568,-12.641
10465,-14.634,-13.137
10477,-10.981,-16.348
10488,-12.335,-14.594
10500,-10.872,-14.127
10512,-10.525,-12.647
10523,-14.251,-11.192
10535,-15.124,-13.899
10547,-12.851,-14.507
10559,-10.337,-14.567
10570,-8.3829,-12.615
10582,-11.548,-11.556
10594,-11.933,-12.579
10605,-13.385,-18.755
10617,-14.336,-16.846
10629,-13.489,-13.592
10641,-11.565,-12.999
10652,-11.47,-12.044
10664,-11.009,-11.672
10676,-11.902,-14.697
10688,-9.641,-16.649
10699,-11.183,-13.224
10711,-13.289,-10.905
10723,-13.327,-8.306
10734,-14.037,-9.17
10746,-14.733,-13.362
10758,-13.146,-13.04
10770,-12.572,-13.019
10781,-11.006,-15.015
10793,-9.6747,-12.674
10805,-11.411,-10.406
10816,-13.239,-13.154
10828,-13.292,-11.936
10840,-12.478,-15.022
10852,-11.987,-13.56
10863,-13.483,-10.596
10875,-12.29,-11.207
10887,-13.383,-12.209
10898,-11.067,-16.642
10910,-8.8357,-14.238
10922,-8.614,-14.478
10934,-12.208,-12.479
10945,-11.894,-10.758
10957,-8.8667,-10.06
10969,-9.7845,-10.436
10980,-13.177,-10.436
10992,-13.91,-12.782
11004,-13.218,-16.232
11016,-11.382,-14.866
11027,-12.125,-12.061
11039,-10.352,-14.257
11051,-6.3946,-16.902
11063,-1.039,-14.355
11074,-5.5898,-14.011
11086,-11.758,-16.061
11098,-9.7995,-16.867
11109,-9.4848,-18.637
11121,-11.783,-18.173
11133,-15.18,-14.024
11145,-10.683,-12.998
11156,-9.8378,-12.951
11168,-10.647,-13.462
11180,-7.8516,-11.971
11191,-11.424,-10.311
11203,-9.5907,-12.314
11215,-9.7997,-14.844
11227,-12.035,-13.96
11238,-12.2,-16.856
11250,-10.264,-17.557
11262,-11.29,-17.025
11273,-12.669,-12.294
11285,-13.894,-10.254
11297,-9.9044,-11.529
11309,-10.804,-10.664
11320,-11.018,-13.743
11332,-9.9829,-15.803
11344,-12.837,-14.482
11355,-12.093,-11.979
11367,-15.611,-13.375
11379,-11.375,-16.143
11391,-11.999,-15.63
11402,-12.485,-15.569
11414,-11.67,-14.143
11426,-11.838,-15.158
11438,-16.606,-15.084
11449,-14.687,-15.957
11461,-14.497,-19.073
11473,-13.518,-16.746
11484,-10.663,-14.912
11496,-9.4951,-14.441
11508,-10.836,-14.534
11520,-11.506,-13.529
11531,-13.709,-13.674
11543,-14.585,-12.534
11555,-12.648,-10.722
11566,-9.8818,-10.819
11578,-10.898,-15.182
11590,-13.767,-13.905
11602,-11.618,-16.04
11613,-11.778,-18.872
11625,-10.93,-18.605
11637,-11.546,-14.938
11648,-11.089,-13.408
11660,-12.978,-16.387
11672,-11.229,-16.314
11684,-12.514,-15.491
11695,-14.924,-14.182
11707,-12.083,-15.802
11719,-12.324,-15.198
11730,-11.147,-14.136
11742,-11.082,-13.942
11754,-12.37,-13.395
11766,-13.525,-16.103
11777,-13.646,-16.48
11789,-15.964,-16.293
11801,-11.923,-13.942
11813,-11.115,-13.248
11824,-11.539,-11.368
11836,-10.596,-14.942
11848,-11.531,-15.815
11859,-12.031,-13.898
11871,-12.283,-15.071
11883,-14.669,-13.901
11895,-13.557,-14.379
11906,-13.11,-13.448
11918,-11.093,-13.901
11930,-9.1982,-15.883
11941,-13.851,-14.489
11953,-15.748,-13.196
11965,-14.222,-13.846
11977,-14.345,-15.394
11988,-11.743,-15.108
12000,-13.58,-15.347
12012,-12.069,-14.568
12023,-13.293,-14.22
12035,-9.8928,-14.048
12047,-11.925,-17.121
12059,-13.09,-15.305
12070,-13.222,-16.119
12082,-12.484,-17.072
12094,-14.605,-16.598
12105,-13.628,-16.356
12117,-13.525,-14.305
12129,-13.528,-14.105
12141,-13.683,-14.72
12152,-14.325,-17.692
12164,-14.179,-18.397
12176,-13.646,-16.281
12188,-12.477,-14.625
12199,-11.83,-13.571
12211,-11.339,-13.976
12223,-14.328,-15.854
12234,-19.468,-16.212
12246,-15.414,-15.341
12258,-13.785,-16.568
12270,-15.001,-13.935
12281,-15.509,-12.693
12293,-13.532,-13.242
12305,-11.527,-14.144
12316,-10.147,-16.401
12328,-11.457,-14.971
12340,-11.009,-16.098
12352,-14.993,-15.674
12363,-14.961,-17.339
12375,-12.082,-18.026
12387,-10.017,-17.913
12398,-9.9419,-17.387
12410,-11.461,-16.031
12422,-11.921,-13.028
12434,-13.334,-14.415
12445,-15.33,-15.111
12457,-15.279,-15.964
12469,-13.043,-16.771
12480,-12.338,-12.735
12492,-11.987,-13.642
12504,-13.427,-17.488
12516,-15.302,-18.158
12527,-10.951,-14.439
12539,-13.27,-14.147
12551,-12.109,-15.621
12563,-14.691,-16.394
12574,-12.701,-18.088
12586,-12.57,-14.779
12598,-15.641,-14.297
12609,-17.646,-14.044
12621,-15.513,-14.447
12633,-12.974,-15.267
12645,-15.631,-15.816
12656,-13.235,-16.747
12668,-10.201,-17.984
12680,-10.223,-18.612
12691,-13.493,-15.806
12703,-12.679,-13.987
12715,-11.541,-13.924
12727,-13.704,-15.735
12738,-14.634,-17.074
12750,-13.696,-13.71
12762,-13.5,-13.119
12773,-14.529,-16.022
12785,-15.021,-15.068
12797,-13.312,-15.856
12809,-11.452,-17.543
12820,-11.175,-17.558
12832,-11.938,-17.704
12844,-12.557,-17.115
12855,-13.281,-15.775
12867,-17.034,-13.85
12879,-13.826,-14.527
12891,-14.339,-13.984
12902,-13.498,-13.393
12914,-14.853,-14.437
12926,-12.655,-14.108
12938,-11.434,-13.431
12949,-12.55,-14.472
12961,-13.302,-15.347
12973,-13.177,-14.057
12984,-11.859,-15.209
12996,-11.838,-16.081
13008,-13.208,-15.199
13020,-12.572,-18.287
13031,-12.707,-17.429
13043,-13.103,-18.374
13055,-13.218,-18.253
13066,-12.424,-16.586
13078,-12.32,-13.817
13090,-12.696,-14.714
13102,-11.959,-15.932
13113,-11.747,-18.152
13125,-13.152,-15.13
13137,-13.523,-12.738
13148,-13.328,-16.273
13160,-13.984,-18.156
13172,-13.601,-16.403
13184,-13.938,-14.898
13195,-13.08,-13.89
13207,-13.228,-14.899
13219,-14.619,-13.894
13230,-10.738,-15.715
13242,-11.396,-15.457
13254,-8.6954,-14.111
13266,-10.388,-16.869
13277,-11.221,-17.484
13289,-13.082,-15.371
13301,-13.28,-14.759
13313,-10.655,-14.248
13324,-13.012,-15.676
13336,-16.077,-16.292
13348,-14.513,-16.49
13359,-15.626,-17.259
13371,-15.566,-15.794
13383,-16.197,-14.719
13395,-17.867,-18.47
13406,-13.518,-20.797
13418,-12.54,-17.234
13430,-13.579,-14.744
13441,-11.1,-13.107
13453,-12.262,-13.654
13465,-14.844,-13.665
13477,-15.395,-16.97
13488,-13.726,-18.9
13500,-12.292,-14.735
13512,-13.477,-16.614
13523,-13.121,-16.343
13535,-13.067,-17.386
13547,-13.985,-17.916
13559,-15.408,-17.967
13570,-14.471,-16.946
13582,-13.123,-16.016
13594,-15.311,-16.534
13605,-14.283,-17.758
13617,-12.97,-14.595
13629,-13.528,-14.674
13641,-14.832,-21.399
13652,-15.304,-18.958
13664,-14.917,-18.091
13676,-16.971,-15.696
13688,-15.992,-16.725
13699,-15.527,-19.888
13711,-15.917,-18.645
13723,-18.472,-16.945
13734,-14.964,-16.124
13746,-12.809,-17.124
13758,-12.459,-17.563
13770,-13.919,-18.262
13781,-12.455,-17.252
13793,-10.98,-17.07
13805,-14.983,-18.825
13816,-16.402,-18.307
13828,-15.743,-17.462
13840,-19.761,-16.639
13852,-15.909,-16.839
13863,-13.948,-15.21
13875,-13.912,-13.945
13887,-19.089,-15.95
13898,-17.481,-17.756
13910,-15.812,-17.257
13922,-15.851,-19.905
13934,-16.77,-15.37
13945,-15.184,-14.49
13957,-14.6,-15.225
13969,-15.479,-17.908
13980,-16.906,-20.087
13992,-16.555,-14.226
14004,-16.046,-13.111
14016,-14.678,-11.956
14027,-15.254,-15.735
14039,-16.718,-19.359
14051,-13.593,-16.181
14063,-16.211,-16.123
14074,-16.896,-17.621
14086,-13.861,-13.837
14098,-14.081,-16.354
14109,-12.044,-19.343
14121,-12.434,-17.279
14133,-16.605,-17.645
14145,-14.643,-16.327
14156,-17.179,-14.978
14168,-17.205,-15.055
14180,-17.619,-16.038
14191,-19.499,-15.876
14203,-19.188,-16.198
14215,-18.306,-17.323
14227,-19.389,-18.211
14238,-18.052,-15.109
14250,-13.77,-14.506
14262,-12.913,-18.876
14273,-16.636,-17.886
14285,-15.961,-19.402
14297,-15.693,-17.381
14309,-17.004,-18.444
14320,-15.277,-17.798
14332,-14.608,-18.127
14344,-18.042,-17.735
14355,-18.187,-19.269
14367,-16.122,-18.988
14379,-14.198,-17.488
14391,-14.333,-16.99
14402,-15.513,-17.787
14414,-16.881,-17.616
14426,-18.209,-15.084
14438,-16.9,-15.586
14449,-12.903,-17.715
14461,-12.475,-19.513
14473,-16.494,-16.415
14484,-18.632,-15.264
14496,-18.617,-17.916
14508,-17.085,-20.185
14520,-12.63,-17.75
14531,-14.624,-16.035
14543,-19.402,-18.626
14555,-20.338,-18.108
14566,-18.343,-19.38
14578,-16.755,-18.753
14590,-18.044,-18.316
14602,-18.703,-18.95
14613,-17.57,-18.499
14625,-16.498,-20.049
14637,-18.057,-17.562
14648,-18.222,-16.447
14660,-18.218,-13.695
14672,-17.094,-16.682
14684,-15.453,-18.363
14695,-18.377,-19.356
14707,-15.955,-19.426
14719,-17.044,-16.991
14730,-14.864,-15.997
14742,-8.1278,-17.431
14754,-8.5336,-15.981
14766,-18.7,-17.705
14777,-16.488,-17.3
14789,-16.491,-19.316
14801,-17.415,-16.841
14813,-18.99,-18.578
14824,-14.72,-22.049
14836,-16.39,-19.938
14848,-16.658,-17.999
14859,-14.057,-18.912
14871,-15.52,-17.6
14883,-16.661,-16.992
14895,-18.857,-18.822
14906,-16.124,-18.057
14918,-16.065,-17.858
14930,-18.389,-16.739
14941,-17.646,-14.72
14953,-20.299,-17.934
14965,-20.28,-25.108
14977,-19.365,-20.66
14988,-16.5,-20.162
15000,-17.021,-15.306
15012,-18.705,-17.08
15023,-18.887,-18.682
15035,-16.918,-20.106
15047,-16.025,-19.456
15059,-19.365,-16.378
15070,-16.372,-16.367
15082,-17.835,-15.715
15094,-16.126,-18.532
15105,-15.124,-17.996
15117,-18.062,-18.294
15129,-19.26,-16.193
15141,-17.777,-15.739
15152,-15.765,-19.399
15164,-15.953,-18.574
15176,-18.469,-17.241
15188,-19.124,-18.64
15199,-19.142,-17.515
15211,-18.097,-20.561
15223,-16.587,-18.975
15234,-18.265,-18.126
15246,-16.809,-17.891
15258,-16.767,-18.571
15270,-16.633,-17.693
15281,-17.652,-17.797
15293,-19.147,-20.802
15305,-15.938,-18.836
15316,-18.326,-17.459
15328,-18.161,-22.104
15340,-17.288,-21.759
15352,-16.809,-18.842
15363,-18.288,-20.863
15375,-17.941,-20.099
15387,-20.384,-19.228
15398,-18.73,-19.238
15410,-19.335,-19.08
15422,-19.67,-20.238
15434,-19.802,-20.201
15445,-16.295,-17.609
15457,-18.077,-18.322
15469,-19.56,-15.5
15480,-17.466,-17.085
15492,-17.437,-17.856
15504,-18.726,-20.444
15516,-18.943,-20.352
15527,-18.905,-20.845
15539,-19.127,-20.029
15551,-15.799,-19.276
15563,-16.49,-19.348
15574,-17.017,-19.692
15586,-19.78,-20.37
15598,-20.142,-22.005
15609,-20.836,-24.582
15621,-19.397,-20.421
15633,-21.023,-19.788
15645,-19.353,-19.726
15656,-17.863,-18.76
15668,-19.685,-16.772
15680,-18.621,-19.572
15691,-17.049,-20.486
15703,-17.269,-17.844
15715,-18.198,-18.692
15727,-18.624,-19.586
15738,-19.532,-18.212
15750,-19.075,-19.315
15762,-21.786,-19.708
15773,-20.097,-20.813
15785,-21.229,-18.859
15797,-22.264,-18.106
15809,-20.29,-17.631
15820,-20.143,-20.004
15832,-19.936,-20.287
15844,-20.781,-21.129
15855,-19.399,-24.095
15867,-19.551,-23.295
15879,-16.864,-19.035
15891,-19.539,-18.429
15902,-22.208,-20.086
15914,-22.026,-17.996
15926,-20.432,-17.477
15938,-17.894,-18.217
15949,-16.187,-18.835
15961,-20.612,-21.364
15973,-18.045,-19.22
15984,-19.074,-20.859
15996,-17.268,-19.609
16008,-15.213,-19.514
16020,-18.112,-19.905
16031,-18.753,-23.014
16043,-20.309,-23.674
16055,-20.83,-21.946
16066,-19.616,-24.287
16078,-17.908,-22.432
16090,-20.287,-19.856
16102,-19.101,-20.316
16113,-21.715,-19.394
16125,-19.217,-18.711
16137,-20.484,-20.526
16148,-22.202,-20.195
16160,-22.833,-20.191
16172,-19.779,-19.63
16184,-19.533,-21.781
16195,-20.359,-21.875
16207,-17.796,-21.062
16219,-16.434,-19.323
16230,-16.936,-20.17
16242,-17.605,-22.859
16254,-18.771,-21.325
16266,-20.08,-20.276
16277,-21.997,-19.596
16289,-18.316,-18.786
16301,-16.07,-20.369
16313,-18.351,-22.33
16324,-18.096,-22.847
16336,-18.746,-18.882
16348,-20.01,-18.747
16359,-20.861,-20.575
16371,-22.17,-23.101
16383,-21.629,-22.005
16395,-19.99,-21.31
16406,-20.086,-22.009
16418,-22.857,-21.186
16430,-22.825,-20.438
16441,-21.627,-16.842
16453,-26.301,-18.379
16465,-25.032,-21.114
16477,-20.892,-19.532
16488,-24.309,-19.49
16500,-20.753,-22.817
16512,-20.97,-21.111
16523,-20.685,-19.279
16535,-21.546,-19.436
16547,-21.661,-20.803
16559,-20.877,-19.285
16570,-21.594,-19.411
16582,-21.14,-18.185
16594,-20.924,-17.053
16605,-21.911,-18.287
16617,-18.955,-19.427
16629,-18.817,-20.43
16641,-21.221,-20.821
16652,-20.722,-24.34
16664,-20.905,-22.561
16676,-20.652,-21.439
16688,-21.121,-21.241
16699,-22.833,-20.236
16711,-22.772,-19.411
16723,-20.725,-20.723
16734,-20.665,-23.425
16746,-22.182,-21.272
16758,-20.432,-23.367
16770,-18.794,-21.387
16781,-17.489,-20.228
16793,-19.535,-20.65
16805,-19.025,-23.386
16816,-17.107,-25.533
16828,-18.7,-20.948
16840,-19.172,-21.643
16852,-20.89,-21.513
16863,-22.935,-20.501
16875,-22,-20.435
16887,-22.708,-17.688
16898,-20.861,-18.076
16910,-24.18,-21.33
16922,-24.083,-24.881
16934,-21.415,-21.09
16945,-20.732,-18.604
16957,-23.744,-21.615
16969,-21.968,-21.585
16980,-22.103,-20.432
16992,-22.541,-21.115
17004,-21.933,-25.686
17016,-22.198,-24.838
17027,-23.484,-22.825
17039,-20.502,-21.024
17051,-20.088,-19.746
17063,-21.461,-20.798
17074,-24.104,-23.696
17086,-25.25,-22.504
17098,-22.476,-21.408
17109,-23.875,-21.623
17121,-21.12,-22.185
17133,-19.861,-23.832
17145,-20.485,-21.663
17156,-21.869,-22.053
17168,-22.439,-24.324
17180,-22.401,-21.132
17191,-22.388,-20.342
17203,-23.808,-19.353
17215,-20.387,-20.889
17227,-19.45,-21.489
17238,-20.139,-21.259
17250,-20.527,-20.73
17262,-20.924,-19.907
17273,-19.973,-21.121
17285,-19.372,-23.326
17297,-22.344,-22.952
17309,-22.089,-25.599
17320,-22.182,-25.301
17332,-21.685,-23.706
17344,-21.003,-22.909
17355,-20.832,-22.811
17367,-20.586,-24.067
17379,-19.896,-22.616
17391,-19.863,-19.995
17402,-22.864,-21.675
17414,-23.412,-23.793
17426,-21.049,-22.259
17438,-23.37,-21.606
17449,-21.904,-20.41
17461,-19.804,-21.075
17473,-21.6,-23.221
17484,-22.78,-23.911
17496,-21.46,-26.215
17508,-22.433,-23.935
17520,-23.051,-22.971
17531,-22.042,-18.709
17543,-23.284,-18.986
17555,-22.868,-21.515
17566,-21.416,-22.606
17578,-22.57,-22.699
17590,-21.502,-21.484
17602,-20.877,-21.306
17613,-23.206,-22.934
17625,-25.113,-24.947
17637,-24.133,-24.072
17648,-23.822,-22.656
17660,-20.826,-23.084
17672,-20.899,-22.911
17684,-27.151,-22.577
17695,-24.312,-20.324
17707,-24.651,-21.323
17719,-22.834,-21.596
17730,-24.474,-22.805
17742,-24.897,-23.55
17754,-20.911,-22.537
17766,-19.609,-21.763
17777,-24.904,-25.176
17789,-22.735,-23.087
17801,-23.81,-23.322
17813,-22.344,-23.305
17824,-22.389,-21.884
17836,-23.883,-20.9
17848,-24.419,-23.506
17859,-23.954,-22.19
17871,-20.392,-25.089
17883,-22.679,-24.126
17895,-19.661,-24.107
17906,-17.593,-20.828
17918,-19.703,-21.182
17930,-21.713,-21.438
17941,-23.262,-23.018
17953,-24.788,-21.885
17965,-22.631,-21.022
17977,-21.368,-21.38
17988,-23.732,-22.011
18000,-25.758,-19.941
18012,-24.108,-21.787
18023,-24.509,-24.706
18035,-25.02,-24.01
18047,-24.246,-24.704
18059,-23.854,-24.002
18070,-22.332,-24.119
18082,-21.778,-22.885
18094,-23.359,-22.786
18105,-23.243,-25.122
18117,-23.279,-23.424
18129,-22.207,-23.441
18141,-23.131,-22.541
18152,-22.823,-22.213
18164,-23.545,-22.295
18176,-24.774,-24.385
18188,-26.116,-23.158
18199,-25.368,-23.653
18211,-20.285,-22.58
18223,-19.498,-23.889
18234,-21.531,-27.426
18246,-26.107,-22.679
18258,-25.748,-22.361
18270,-20.228,-21.274
18281,-20.152,-20.771
18293,-22.042,-21.505
18305,-25.415,-22.064
18316,-20.695,-22.995
18328,-21.299,-23.128
18340,-24.587,-21.53
18352,-24.064,-23.855
18363,-23.735,-25.212
18375,-24.039,-21.283
18387,-24.68,-22.791
18398,-24.898,-25.422
18410,-24.036,-24.238
18422,-24.968,-21.994
18434,-23.356,-21.158
18445,-22.705,-22.281
18457,-22.992,-23.825
18469,-26.939,-23.448
18480,-23.775,-22.957
18492,-22.513,-23.421
18504,-23.393,-23.565
18516,-24.473,-25.31
18527,-24.654,-24.095
18539,-24.154,-21.269
18551,-25.732,-20.399
18563,-27.677,-23.814
18574,-23.769,-23.938
18586,-25.214,-24.137
18598,-24.97,-24.315
18609,-24.327,-26.832
18621,-24.899,-27.123
18633,-25.577,-28.433
18645,-24.377,-26.491
18656,-23.51,-25.168
18668,-22.986,-25.935
18680,-21.15,-25.098
18691,-19.594,-23.731
18703,-23.79,-20.886
18715,-26.083,-23.173
18727,-21.337,-25.399
18738,-21.77,-28.54
18750,-23.992,-30.751
18762,-26.494,-28.697
18773,-24.733,-24.425
18785,-23.825,-23.305
18797,-23.531,-23.369
18809,-24.427,-22.586
18820,-23.385,-21.335
18832,-21.799,-21.599
18844,-25.498,-24.026
18855,-24.964,-24.88
18867,-23.195,-24.803
18879,-23.995,-24.61
18891,-23.459,-28.194
18902,-23.264,-25.922
18914,-21.575,-23.177
18926,-22.479,-22.776
18938,-24.786,-25.067
18949,-24.864,-28.282
18961,-25.006,-23.297
18973,-27.586,-21.574
18984,-24.706,-24.906
18996,-25.744,-20.996
19008,-26.356,-20.874
19020,-25.275,-22.942
19031,-24.854,-21.311
19043,-21.973,-21.485
19055,-21.454,-25.034
19066,-23.77,-26.681
19078,-24.671,-24.654
19090,-24.962,-22.331
19102,-25.689,-25.386
19113,-24.973,-24.147
19125,-20.972,-23.566
19137,-25.627,-23.636
19148,-23.576,-24.357
19160,-22.836,-24.91
19172,-23.389,-24.569
19184,-21.131,-24.013
19195,-21.986,-22.675
19207,-24.703,-23.448
19219,-23.081,-25.154
19230,-22.741,-29.756
19242,-19.92,-26.978
19254,-20.425,-24.353
19266,-25.406,-25.044
19277,-27.693,-25.804
19289,-24.962,-25.878
19301,-24.979,-23.699
19313,-22.498,-23.416
19324,-21.344,-24.789
19336,-23.904,-25.259
19348,-25.845,-23.905
19359,-23.102,-23.163
19371,-22.831,-24.046
19383,-24.782,-24.003
19395,-25.886,-24.435
19406,-26.583,-24.264
19418,-25.096,-24.275
19430,-26.567,-25.4
19441,-24.523,-24.759
19453,-22.679,-21.79
19465,-25.172,-22.624
19477,-24.816,-25.297
19488,-25.099,-23.989
19500,-24.554,-23.138
19512,-26.999,-26.172
19523,-26.406,-24.531
19535,-22.483,-22.129
19547,-22.202,-22.642
19559,-23.605,-25.011
19570,-22.68,-25.345
19582,-26.216,-24.601
19594,-26.225,-24.905
19605,-24.635,-26.581
19617,-24.751,-25.321
19629,-22.993,-24.783
19641,-24.875,-28.576
19652,-24.185,-23.375
19664,-24.689,-23.348
19676,-24.371,-25.906
19688,-24.536,-25.008
19699,-25.046,-22.298
19711,-24.072,-23.694
19723,-25.085,-25.576
19734,-24.175,-26.153
19746,-24.635,-28.483
19758,-25.672,-25.424
19770,-24.168,-23.748
19781,-26.624,-25.81
19793,-27.785,-23.111
19805,-26.722,-23.526
19816,-26.436,-23.455
19828,-24.693,-23.76
19840,-22.346,-27.527
19852,-25.312,-28.785
19863,-29.905,-25.965
19875,-27.532,-24.538
19887,-25.821,-22.712
19898,-24.535,-25.68
19910,-24.793,-26.351
19922,-24.897,-22.221
19934,-25.749,-23.12
19945,-20.58,-25.502
19957,-21.175,-26.952
19969,-22.821,-26.042
19980,-25.461,-23.763
19992,-27.608,-23.042
20004,-29.742,-23.711
20016,-26.067,-27.277
20027,-24.242,-23.556
20039,-24.813,-24.692
20051,-24.927,-28.603
20063,-24.837,-25.577
20074,-24.756,-22.648
20086,-25.519,-24.958
20098,-23.664,-23.284
20109,-21.995,-25.385
20121,-21.952,-25.611
20133,-22.736,-27.643
20145,-22.092,-28.078
20156,-23.644,-25.892
20168,-28.343,-25.206
20180,-28.042,-27.096
20191,-27.193,-24.267
20203,-26.783,-27.273
20215,-25.279,-29.443
20227,-24.98,-25.093
20238,-23.891,-25.364
20250,-26.455,-27.459
20262,-27.753,-25.799
20273,-24.862,-26.286
20285,-26.131,-29.248
20297,-27.146,-29.277
20309,-25.803,-25.982
20320,-27.074,-25.759
20332,-30.381,-25.044
20344,-28.37,-24.281
20355,-27.582,-22.729
20367,-25.436,-25.018
20379,-25.657,-23.187
20391,-28.805,-21.785
20402,-28.779,-24.501
20414,-25.714,-23.03
20426,-27.07,-23.999
20438,-30.491,-25.881
20449,-28.585,-27.161
20461,-26.293,-28.93
20473,-24.535,-24.991
20484,-25.698,-23.487
20496,-27.569,-22.427
20508,-25.253,-23.053
20520,-24.776,-25.979
20531,-21.582,-26.876
20543,-23.254,-27.099
20555,-25.278,-25.149
20566,-29.7,-25.339
20578,-26.863,-24.514
20590,-25.15,-26.429
20602,-26.376,-24.551
20613,-25.874,-24.818
20625,-22.662,-28.005
20637,-22.271,-25.501
20648,-23.774,-24.159
20660,-24.856,-27.856
20672,-25.147,-24.995
20684,-23.216,-24.82
20695,-23.37,-25.242
20707,-24.573,-28.163
20719,-25.73,-28.935
20730,-24.615,-26.698
20742,-22.632,-25.564
20754,-24.197,-25.037
20766,-25.205,-28.906
20777,-27.416,-34.334
20789,-26.492,-27.289
20801,-26.763,-27.389
20813,-25.389,-27.137
20824,-27.392,-25.985
20836,-27.409,-23.519
20848,-25.571,-23.597
20859,-26.936,-28.785
20871,-25.434,-27.507
20883,-23.276,-26.452
20895,-23.906,-31.242
20906,-25.683,-27.088
20918,-24.871,-27.327
20930,-27.672,-25.005
20941,-26.481,-27.009
20953,-24.895,-26.965
20965,-24.472,-27.662
20977,-25.308,-26.667
20988,-24.234,-25.024
21000,-24.446,-21.597
21012,-25.052,-23.211
21023,-27.017,-26.9
21035,-26.959,-24.064
21047,-31.738,-25.01
21059,-29.607,-29.159
21070,-27.371,-24.968
21082,-23.56,-22.266
21094,-26.699,-24.05
21105,-25.945,-27.435
21117,-24.86,-27.347
21129,-27.19,-26.377
21141,-24.327,-25.927
21152,-22.991,-28.796
21164,-25.635,-28.588
21176,-24.747,-27.635
21188,-25.754,-26.975
21199,-27.133,-26.987
21211,-25.165,-23.926
21223,-26.507,-24.429
21234,-27.792,-25.238
21246,-27.412,-25.137
21258,-23.789,-25.559
21270,-23.613,-24.761
21281,-24.581,-25.476
21293,-27.195,-26.821
21305,-25.259,-28.609
21316,-23.91,-28.029
21328,-26.929,-25.985
21340,-25.383,-26.376
21352,-27.847,-27.437
21363,-27.674,-25.617
21375,-25.143,-22.871
21387,-25.529,-23.071
21398,-25.46,-26.932
21410,-27.841,-28.896
21422,-29.033,-29.49
21434,-28.466,-25.703
21445,-25.259,-25.84
21457,-26.879,-26.068
21469,-28.221,-26.09
21480,-26.142,-27.398
21492,-26.594,-26.889
21504,-28.258,-25.884
21516,-29.789,-25.357
21527,-27.254,-26.328
21539,-26.882,-25.964
21551,-26.446,-27.581
21563,-25.755,-27.524
21574,-26.36,-28.964
21586,-27.963,-27.243
21598,-27.295,-29.674
21609,-29.456,-25.117
21621,-26.965,-25.62
21633,-25.991,-28.685
21645,-25.268,-26.919
21656,-24.163,-27.554
21668,-26.636,-26.86
21680,-29.251,-28.212
21691,-26.971,-28.784
21703,-29.36,-26.121
21715,-29.421,-26.767
21727,-27.817,-28.707
21738,-25.781,-25.814
21750,-26.286,-25.058
21762,-26.502,-24.734
21773,-28.67,-26.526
21785,-28.677,-28.596
21797,-29.292,-27.709
21809,-29.156,-28.585
21820,-30.199,-26.462
21832,-29.39,-25.671
21844,-27.17,-25.817
21855,-25.895,-29.786
21867,-27.23,-28.808
21879,-27.034,-28.979
21891,-25.415,-28.836
21902,-26.379,-28.676
21914,-26.718,-29.393
21926,-26.307,-25.689
21938,-26.668,-25.787
21949,-26.297,-26.882
21961,-25.519,-27.36
21973,-28.295,-26.692
21984,-29.905,-26.177
21996,-25.2,-27.706
22008,-25.915,-29.387
22020,-24.544,-28.818
22031,-24.746,-26.678
22043,-30.518,-28.268
22055,-30.024,-26.555
22066,-26.171,-25.722
22078,-25.532,-26.068
22090,-28.368,-27.467
22102,-30.017,-28.189
22113,-26.373,-27.326
22125,-25.954,-25.256
22137,-27.807,-25.863
22148,-23.915,-26.987
22160,-25.05,-28.408
22172,-25.158,-25.754
22184,-25.073,-26.69
22195,-27.979,-25.965
22207,-25.66,-24.147
22219,-25.15,-26.254
22230,-27.19,-26.631
22242,-26.908,-27.251
22254,-27.497,-30.202
22266,-28.512,-26.832
22277,-27.645,-25.972
22289,-25.562,-25.12
22301,-26.245,-25.657
22313,-25.506,-26.444
22324,-26.704,-30.805
22336,-28.179,-29.734
22348,-29.659,-28.425
22359,-27.262,-24.599
22371,-26.967,-24.834
22383,-28.09,-30.885
22395,-27.341,-27.763
22406,-29.279,-26.482
22418,-29.427,-31.6
22430,-28.818,-30.334
22441,-27.922,-29.408
22453,-28.843,-26.538
22465,-27.537,-24.27
22477,-27.33,-24.696
22488,-26.238,-29.48
22500,-27.809,-26.807
22512,-28.729,-29.652
22523,-28.385,-29.219
22535,-28.068,-26.998
22547,-26.749,-29.096
22559,-28.008,-28.247
22570,-29.19,-28.008
22582,-26.308,-27.503
22594,-24.192,-28.384
22605,-24.907,-26.584
22617,-23.668,-28.021
22629,-26.369,-29.785
22641,-28.973,-26.642
22652,-28.484,-27.246
22664,-29.051,-26.684
22676,-27.488,-26.342
22688,-26.33,-27.559
22699,-25.507,-29.046
22711,-27.444,-25.303
22723,-30.755,-23.602
22734,-31.513,-26.249
22746,-26.806,-27.757
22758,-26.689,-30.164
22770,-29.362,-28.252
22781,-29.909,-27.422
22793,-26.96,-27.733
22805,-26.978,-29.353
22816,-26.731,-26.636
22828,-24.726,-24.788
22840,-28.336,-24.883
22852,-30.428,-26.904
22863,-28.933,-29.886
22875,-27.383,-27.332
22887,-28.383,-27.078
22898,-26.226,-26.945
22910,-25.179,-27.358
22922,-28.282,-26.763
22934,-27.945,-24.839
22945,-27.209,-24.762
22957,-26.706,-29.419
22969,-25.464,-29.592
22980,-25.364,-28.617
22992,-25.945,-25.539
23004,-28.329,-25.935
23016,-31.019,-26.457
23027,-28.989,-26.948
23039,-24.913,-27.45
23051,-24.011,-25.523
23063,-27.65,-29.054
23074,-27.878,-27.419
23086,-26.671,-24.188
23098,-26.483,-26.241
23109,-29.066,-27.541
23121,-28.832,-26.176
23133,-28.387,-25.464
23145,-29.175,-27.651
23156,-26.077,-27.991
23168,-30.025,-29.47
23180,-27.182,-30.873
23191,-27.351,-31.701
23203,-28.844,-27.431
23215,-29.083,-26.958
23227,-28.248,-28.326
23238,-27.635,-27.407
23250,-27.787,-26.497
23262,-28.463,-27.112
23273,-27.083,-29.734
23285,-28.161,-31.1
23297,-29.155,-26.485
23309,-26.57,-30.011
23320,-25.951,-30.116
23332,-26.161,-26.148
23344,-26.266,-26.624
23355,-27.71,-27.897
23367,-27.354,-27.482
23379,-29.741,-26.451
23391,-28.093,-25.598
23402,-27.053,-27.179
23414,-28.273,-29.84
23426,-28.996,-32.329
23438,-26.578,-28.955
23449,-27.351,-27.889
23461,-26.229,-30.502
23473,-26.266,-28.5
23484,-27.71,-32.767
23496,-30.282,-28.793
23508,-29.811,-29
23520,-28.118,-28.47
23531,-31.631,-28.756
23543,-31.834,-27.218
23555,-28.836,-29.44
23566,-27.059,-30.577
23578,-25.815,-30.534
23590,-25.99,-27.374
23602,-27.074,-27.37
23613,-28.268,-28.685
23625,-27.007,-30.087
23637,-27.006,-28.876
23648,-26.692,-28.787
23660,-27.813,-28.809
23672,-25.535,-28.21
23684,-26.148,-28.125
23695,-28.467,-30.387
23707,-28.188,-28.618
23719,-29.855,-27.881
23730,-28.839,-25.442
23742,-28.395,-27.133
23754,-28.99,-29.328
23766,-27.687,-28.394
23777,-26.602,-29.002
23789,-27.219,-30.034
23801,-27.472,-29.873
23813,-26.342,-32.343
23824,-27.288,-29.018
23836,-27.742,-27.076
23848,-30.144,-28.878
23859,-30.722,-34.727
23871,-28.544,-31.706
23883,-27.791,-29.531
23895,-30.687,-30.199
23906,-32.093,-30.502
23918,-33.79,-29.522
23930,-27.557,-29.649
23941,-19.663,-30.841
23953,-14.378,-27.995
23965,-19.687,-32.378
23977,-30.814,-32.415
23988,-30.914,-30.447
