FFT,Power Spectrum
Frequency[Hz],Level-L[dB],Level-R[dB]
11.719,-19.221,-21.931
23.438,0.57726,-2.0565
35.156,-1.9071,-0.75828
46.875,5.7159,0.86068
58.594,5.4705,0.5148
70.313,3.3541,5.0714
82.031,7.5873,8.773
93.75,11.571,10.676
105.47,10.655,9.3371
117.19,10.958,9.664
128.91,9.0689,8.0162
140.63,10.068,4.8147
152.34,8.6645,2.6926
164.06,4.2514,3.0034
175.78,6.6052,7.6489
187.5,11.299,8.6771
199.22,9.8063,7.9584
210.94,5.9497,8.7127
222.66,9.8461,6.3355
234.38,12.155,9.9589
246.09,9.7641,7.3446
257.81,7.4175,5.3069
269.53,8.1353,7.1473
281.25,5.4267,7.715
292.97,10.389,8.8928
304.69,8.6445,6.5268
316.41,5.476,2.9657
328.13,6.839,6.9398
339.84,4.8721,7.2666
351.56,5.6728,6.3528
363.28,4.8433,4.5445
375,5.7117,5.9172
386.72,9.0706,5.5004
398.44,8.5631,6.043
410.16,7.7154,8.4867
421.88,9.1498,8.2163
433.59,7.3254,6.1494
445.31,6.593,5.4854
457.03,5.2231,5.3659
468.75,5.9718,5.4499
480.47,5.1327,7.6565
492.19,5.9151,9.4349
503.91,5.543,7.2563
515.63,1.4588,6.8776
527.34,5.0806,7.5363
539.06,3.8241,3.5101
550.78,5.5255,2.8283
562.5,5.4109,4.8538
574.22,5.3446,5.6706
585.94,3.9342,5.4071
597.66,6.2103,6.1783
609.38,3.5,8.2459
621.09,4.3894,7.2196
632.81,7.2504,4.4771
644.53,6.7226,3.8345
656.25,2.605,3.6774
667.97,7.3104,6.09
679.69,10.101,7.289
691.41,9.5644,8.2896
703.13,8.6033,7.0973
714.84,8.8328,5.9614
726.56,5.5783,4.6823
738.28,6.8578,4.3645
750,6.3773,4.9831
761.72,3.6357,6.6352
773.44,8.7282,7.6841
785.16,10.23,6.0959
796.88,11.939,8.8031
808.59,11.577,9.325
820.31,9.2822,9.4041
832.03,7.0495,7.6876
843.75,7.6716,9.2071
855.47,7.5958,10.08
867.19,5.9364,8.1274
878.91,7.5214,5.8436
890.63,10.063,7.0344
902.34,4.7965,6.4057
914.06,7.269,6.3493
925.78,8.867,8.3114
937.5,8.0845,6.2356
949.22,7.5837,5.2428
960.94,10.798,6.3941
972.66,7.9495,4.0173
984.38,4.2545,3.8038
996.09,2.2603,4.1319
1007.8,0.73628,3.3465
1019.5,2.9946,3.5608
1031.3,4.8556,6.4084
1043,7.7196,5.7755
1054.7,6.3789,5.0324
1066.4,7.0989,5.8936
1078.1,6.911,6.0772
1089.8,5.683,4.3928
1101.6,7.6118,4.9804
1113.3,6.7798,7.3039
1125,5.0868,6.5253
1136.7,6.1604,6.4367
1148.4,8.1728,4.4289
1160.2,7.0561,5.1723
1171.9,7.0704,7.1689
1183.6,7.3674,4.3945
1195.3,5.9199,1.5714
1207,6.9783,2.9593
1218.8,8.8336,4.6159
1230.5,7.9119,6.7734
1242.2,5.1082,6.7224
1253.9,1.3642,3.9017
1265.6,-2.4595,3.14
1277.3,-1.564,2.0614
1289.1,1.9288,3.8737
1300.8,3.4866,4.8411
1312.5,3.6624,5.7465
1324.2,6.1355,4.7399
1335.9,5.8845,3.1584
1347.7,3.1793,1.7315
1359.4,2.5411,4.3902
1371.1,-0.15185,4.6562
1382.8,2.7459,3.7631
1394.5,2.5205,5.3273
1406.3,3.4003,4.5673
1418,4.1614,1.1123
1429.7,5.86,-0.14184
1441.4,7.2541,-0.067679
1453.1,4.5472,2.2189
1464.8,4.8245,6.1862
1476.6,5.9624,5.5436
1488.3,6.4661,2.15
1500,3.8458,3.2007
1511.7,2.1226,4.8003
1523.4,3.5051,5.6412
1535.2,4.3338,1.921
1546.9,4.8782,2.8522
1558.6,6.5255,3.1839
1570.3,5.3396,2.1685
1582,3.6178,2.3349
1593.8,0.93975,1.4699
1605.5,1.4873,2.4377
1617.2,3.1166,2.7072
1628.9,1.9087,-0.11461
1640.6,3.4891,0.032574
1652.3,3.5081,1.9674
1664.1,2.4923,3.3621
1675.8,2.6793,2.8845
1687.5,6.1577,2.3472
1699.2,6.0707,1.5707
1710.9,3.8148,0.83675
1722.7,4.7518,1.3413
1734.4,5.1287,1.5683
1746.1,5.3178,2.4817
1757.8,5.2248,2.7453
1769.5,4.5422,4.3656
1781.3,5.3161,3.2191
1793,5.8731,3.0552
1804.7,4.3542,2.9411
1816.4,4.7659,2.214
1828.1,5.3669,-0.29336
1839.8,4.8056,0.12364
1851.6,4.422,1.1308
1863.3,4.6815,4.4256
1875,6.5062,6.4156
1886.7,6.3721,4.9277
1898.4,3.5708,5.0471
1910.2,5.2158,6.1795
1921.9,6.7948,4.5309
1933.6,5.4931,1.601
1945.3,4.1383,1.0354
1957,1.0257,0.61891
1968.8,1.8763,-0.77174
1980.5,3.877,-0.68607
1992.2,4.8383,-0.9442
2003.9,1.7843,0.15807
2015.6,0.043055,0.69839
2027.3,-0.05042,0.078596
2039.1,3.7379,4.0585
2050.8,4.0293,3.6487
2062.5,2.4634,1.4403
2074.2,-1.2675,-2.4704
2085.9,4.0719,0.79246
2097.7,4.1749,2.3046
2109.4,1.6087,3.744
2121.1,1.7757,4.4502
2132.8,4.5286,2.8884
2144.5,3.8862,2.1997
2156.3,3.9537,-0.18823
2168,1.8658,1.6761
2179.7,5.9672,2.9875
2191.4,7.3908,2.5663
2203.1,5.6482,3.1897
2214.8,2.3397,1.4026
2226.6,2.6352,2.5033
2238.3,1.9859,4.1954
2250,2.8276,2.1646
2261.7,2.7848,4.465
2273.4,2.9659,3.8275
2285.2,3.8956,1.6507
2296.9,-0.37283,4.6066
2308.6,-0.67529,4.0621
2320.3,0.17272,2.5745
2332,-0.26286,2.5875
2343.8,0.67594,-1.0794
2355.5,2.053,1.6062
2367.2,1.3711,3.2509
2378.9,-2.5146,3.8709
2390.6,-0.99116,3.4716
2402.3,0.17695,2.3228
2414.1,-0.45875,1.016
2425.8,1.603,1.1436
2437.5,2.7245,4.2197
2449.2,1.7118,3.5668
2460.9,-3.2443,-0.29923
2472.7,0.88588,2.4039
2484.4,1.113,3.0774
2496.1,1.7371,2.271
2507.8,0.90468,-2.7657
2519.5,0.16084,-1.8526
2531.3,1.2389,1.0373
2543,2.2693,3.6585
2554.7,2.1948,2.613
2566.4,-1.2512,1.9466
2578.1,-1.1929,1.7547
2589.8,0.88672,1.437
2601.6,-1.1788,2.4647
2613.3,-1.8415,2.3295
2625,0.69574,0.81689
2636.7,0.79617,1.1354
2648.4,0.49996,1.3403
2660.2,-0.35409,1.0308
2671.9,1.1884,2.613
2683.6,0.85817,2.5024
2695.3,0.88291,2.1069
2707,1.1974,-0.072324
2718.8,-0.2924,-1.9344
2730.5,-0.31181,-1.5536
2742.2,-1.5628,0.2834
2753.9,-1.6442,0.63861
2765.6,1.403,3.1954
2777.3,0.8944,2.8077
2789.1,-2.5528,0.77991
2800.8,-2.7536,0.2898
2812.5,1.2331,-1.1795
2824.2,-0.099427,0.51148
2835.9,1.4992,1.9885
2847.7,1.4099,0.48637
2859.4,-0.1906,-2.9045
2871.1,-2.7307,-1.5831
2882.8,-4.9303,-1.193
2894.5,0.071853,0.85915
2906.3,0.22316,0.90456
2918,0.91839,0.90736
2929.7,1.2734,0.86688
2941.4,-0.21997,0.67587
2953.1,-0.53103,1.4047
2964.8,-4.1207,-1.184
2976.6,0.22043,-1.8036
2988.3,1.0843,-1.0847
3000,2.7485,1.7038
3011.7,1.7867,1.8992
3023.4,2.8902,0.18249
3035.2,0.78057,0.51417
3046.9,-3.2804,1.5234
3058.6,-0.049737,3.1655
3070.3,2.4711,1.4562
3082,0.063008,-1.8173
3093.8,-1.7119,-1.4499
3105.5,-1.3423,0.025389
3117.2,-2.2753,1.2602
3128.9,-1.2715,-1.9464
3140.6,-2.013,-2.2041
3152.3,-2.0204,1.1996
3164.1,-1.759,1.76
3175.8,1.1478,-3.6272
3187.5,0.92324,-0.24427
3199.2,-1.6877,-1.7555
3210.9,-1.9895,-2.4908
3222.7,-0.38098,-1.9654
3234.4,-0.20482,-0.51985
3246.1,0.87671,0.55919
3257.8,-0.13128,1.0594
3269.5,-2.3551,1.4971
3281.3,-0.87275,-2.0811
3293,-1.5178,-0.31224
3304.7,0.58913,-0.5329
3316.4,-2.3104,-2.9173
3328.1,-3.4619,-1.7044
3339.8,-0.27247,-0.46954
3351.6,-1.2344,2.4004
3363.3,-0.083663,0.63579
3375,-0.099739,-1.1112
3386.7,-1.7159,0.020044
3398.4,-3.1504,-2.4837
3410.2,-0.96804,-4.517
3421.9,1.6313,-2.6672
3433.6,-0.74043,-0.24399
3445.3,-1.1175,2.6611
3457,-1.5707,2.7147
3468.8,-2.4681,0.93843
3480.5,-4.8099,-1.4395
3492.2,-5.4417,-0.75194
3503.9,-3.2471,-0.24137
3515.6,0.71196,-0.36009
3527.3,3.7557,-1.1436
3539.1,2.3432,0.43992
3550.8,0.92722,-0.3319
3562.5,-0.73699,-1.5695
3574.2,4.6526,-0.79496
3585.9,4.2861,-0.99968
3597.7,4.0313,1.177
3609.4,4.8303,-3.163
3621.1,8.6321,-4.1334
3632.8,11.364,-0.41277
3644.5,17.559,-3.0019
3656.3,25.771,2.9726
3668,41.707,17.739
3679.7,56.981,33.033
3691.4,57.749,33.834
3703.1,45.122,21.427
3714.8,28.023,3.4937
3726.6,18.678,-2.8228
3738.3,10.314,-1.3319
3750,8.4993,-0.080977
3761.7,10.928,0.25895
3773.4,6.2271,-0.29935
3785.2,2.1253,-1.3374
3796.9,3.2318,-4.3034
3808.6,0.76291,-3.0872
3820.3,2.4624,-0.009813
3832,0.66325,3.2006
3843.8,2.0305,1.3439
3855.5,-0.60422,-0.041147
3867.2,2.1202,-1.0234
3878.9,-1.9337,-3.7057
3890.6,-1.2009,-3.7315
3902.3,0.73026,-1.6797
3914.1,-0.38367,-3.2961
3925.8,-3.0359,-2.4533
3937.5,-0.50272,-0.016045
3949.2,0.12299,-0.87184
3960.9,-4.0302,-4.1014
3972.7,-1.6388,-4.4138
3984.4,-1.6564,-2.9921
3996.1,-3.0958,-3.3968
4007.8,-4.0212,-5.0524
4019.5,0.31898,-4.9382
4031.3,0.051958,-1.8318
4043,-0.56297,-1.9247
4054.7,-1.7211,-3.2718
4066.4,-3.0574,-1.1973
4078.1,-0.9267,-0.50598
4089.8,-0.57219,-3.9126
4101.6,-3.3489,-3.2113
4113.3,-4.2789,-1.4292
4125,-5.8871,-1.4647
4136.7,-1.4114,-1.9348
4148.4,2.1171,-2.6278
4160.2,2.9953,-0.9432
4171.9,-0.20985,-2.9027
4183.6,-2.8666,-2.1904
4195.3,-3.9352,-3.0139
4207,-3.3223,-3.2394
4218.8,-1.0853,-1.9964
4230.5,1.1566,-3.5148
4242.2,1.3137,-5.7416
4253.9,0.9395,-0.04942
4265.6,-1.6547,0.10478
4277.3,-0.54468,-5.446
4289.1,1.1556,-5.6904
4300.8,-1.2224,-1.6942
4312.5,-2.3182,-0.49346
4324.2,-2.6142,-2.8168
4335.9,-2.2984,0.18787
4347.7,-2.8736,0.073343
4359.4,-1.4552,-2.0943
4371.1,-2.2738,-2.2037
4382.8,-5.978,-0.18222
4394.5,-2.0238,1.8481
4406.3,-2.4741,-1.5766
4418,-2.8329,-4.6679
4429.7,-0.79486,-5.7094
4441.4,-2.5485,-5.2163
4453.1,-5.6832,-6.8067
4464.8,-3.916,-3.3429
4476.6,-2.8274,-4.5351
4488.3,-4.391,-4.8815
4500,-2.9695,-8.707
4511.7,-1.5509,-2.1486
4523.4,-2.3647,-1.2854
4535.2,0.91596,-2.5435
4546.9,-2.1387,-2.4493
4558.6,-2.7867,-1.8638
4570.3,-2.9369,-4.1385
4582,-3.4752,-1.777
4593.8,-3.9733,0.20388
4605.5,-3.6415,-1.4171
4617.2,-4.0723,-3.6198
4628.9,-2.8637,-4.7456
4640.6,-3.0491,-2.937
4652.3,-3.5778,-4.4066
4664.1,-3.9123,-5.7662
4675.8,-3.7946,-4.5885
4687.5,-2.357,-5.0419
4699.2,-5.15,-5.3197
4710.9,-3.444,-2.8508
4722.7,-3.9131,-2.6769
4734.4,-2.8528,-4.5722
4746.1,-2.9326,-4.0197
4757.8,-1.8012,-2.1455
4769.5,-4.2285,-5.2969
4781.3,-3.9203,-1.7776
4793,-6.2463,-0.60757
4804.7,-5.4693,-2.4496
4816.4,-4.5529,-4.0336
4828.1,-3.7731,-6.8787
4839.8,-2.6869,-6.853
4851.6,-3.3682,-3.7944
4863.3,-3.9521,-2.7903
4875,-4.9865,-3.697
4886.7,-4.0257,-6.733
4898.4,-4.9265,-1.4357
4910.2,-4.2123,-1.3793
4921.9,-5.15,-4.5682
4933.6,-3.8681,-2.998
4945.3,-2.3822,-1.8637
4957,-2.3314,-4.4142
4968.8,-0.57904,-5.2708
4980.5,-1.9682,-4.1272
4992.2,-1.6511,-3.8544
5003.9,-1.7928,-2.8941
5015.6,-4.3338,-3.6997
5027.3,-4.6603,-3.3781
5039.1,-3.7904,-4.1511
5050.8,-3.1187,-5.0292
5062.5,-4.5163,-3.2328
5074.2,-4.5191,-1.6598
5085.9,-3.4988,-1.5494
5097.7,-2.0106,-3.1177
5109.4,-2.1045,-7.1633
5121.1,-4.7726,-5.9627
5132.8,-5.2679,-3.4254
5144.5,-2.7683,-4.9666
5156.3,-4.7662,-5.216
5168,-6.8742,-2.9935
5179.7,-5.6394,-4.7514
5191.4,-2.913,-4.4626
5203.1,-1.841,-2.9013
5214.8,-4.1411,-4.7694
5226.6,-5.7033,-6.4131
5238.3,-10.169,-8.9987
5250,-5.5132,-6.8884
5261.7,-5.2735,-6.5243
5273.4,-5.8736,-9.1741
5285.2,-4.9539,-5.8286
5296.9,-6.3299,-8.8369
5308.6,-3.1062,-7.4744
5320.3,-1.9645,-5.554
5332,-1.0883,-6.1057
5343.8,-3.9085,-4.6446
5355.5,-3.2403,-3.6246
5367.2,-4.6463,-3.0054
5378.9,-4.033,-4.012
5390.6,-3.5311,-2.7236
5402.3,-5.8002,-6.0998
5414.1,-6.8917,-8.5927
5425.8,-3.4897,-3.8086
5437.5,-3.8172,-4.2213
5449.2,-6.5059,-4.6858
5460.9,-5.5329,-3.7382
5472.7,-6.8247,-3.3356
5484.4,-5.9112,-5.6093
5496.1,-5.9221,-3.6478
5507.8,-4.9347,-3.9173
5519.5,-4.4804,-3.6833
5531.3,-4.6292,-2.8508
5543,-2.577,-3.8333
5554.7,-3.6878,-3.9858
5566.4,-5.3112,-1.9991
5578.1,-5.3551,-4.0916
5589.8,-6.3618,-7.0417
5601.6,-4.4956,-9.3806
5613.3,-5.7866,-12.397
5625,-3.1092,-8.3451
5636.7,-3.144,-6.9043
5648.4,-5.9563,-3.8692
5660.2,-4.2908,-2.948
5671.9,-3.4622,-5.7688
5683.6,-2.0984,-6.3011
5695.3,-3.5082,-3.8197
5707,-4.8327,-4.8553
5718.8,-4.2535,-8.0079
5730.5,-3.3835,-3.3849
5742.2,-3.828,-4.0485
5753.9,-5.4231,-5.6601
5765.6,-5.2683,-6.1369
5777.3,-6.2444,-4.1759
5789.1,-6.4801,-2.4181
5800.8,-5.7615,-4.8149
5812.5,-5.2473,-6.8463
5824.2,-4.4823,-6.5793
5835.9,-3.2692,-8.8481
5847.7,-5.8663,-6.1154
5859.4,-10.139,-8.1777
5871.1,-5.8646,-7.3765
5882.8,-8.9156,-5.7581
5894.5,-7.5679,-2.7256
5906.3,-4.8768,-3.0618
5918,-6.2806,-6.0958
5929.7,-7.5768,-9.4658
5941.4,-6.6743,-6.6238
5953.1,-5.3433,-7.0101
5964.8,-5.6716,-6.7651
5976.6,-6.2919,-6.0598
5988.3,-6.8779,-4.7299
6000,-4.145,-5.5938
6011.7,-4.5422,-4.4161
6023.4,-6.4024,-5.0202
6035.2,-7.9532,-9.2551
6046.9,-5.4764,-7.4953
6058.6,-3.3479,-6.3907
6070.3,-7.1422,-8.3707
6082,-7.3914,-6.6932
6093.8,-7.098,-6.3523
6105.5,-6.9083,-10.231
6117.2,-6.036,-7.4421
6128.9,-5.0007,-6.1907
6140.6,-7.4202,-5.5733
6152.3,-4.0561,-3.8213
6164.1,-3.4809,-6.9684
6175.8,-8.0395,-6.611
6187.5,-5.749,-7.3791
6199.2,-4.9432,-8.1198
6210.9,-6.6385,-8.8053
6222.7,-5.8512,-7.2879
6234.4,-3.9684,-5.9246
6246.1,-4.167,-5.0362
6257.8,-9.008,-5.677
6269.5,-3.7669,-8.781
6281.3,-1.8777,-5.0329
6293,-4.8369,-5.1463
6304.7,-4.3431,-5.6249
6316.4,-8.2275,-5.19
6328.1,-8.1365,-5.3274
6339.8,-5.9562,-5.6446
6351.6,-5.05,-7.6499
6363.3,-6.7767,-8.8013
6375,-7.4193,-5.2775
6386.7,-6.4143,-5.7216
6398.4,-6.7909,-8.506
6410.2,-4.191,-10.273
6421.9,-6.083,-9.662
6433.6,-5.7679,-6.358
6445.3,-8.1392,-6.292
6457,-4.28,-7.8993
6468.8,-4.8946,-7.564
6480.5,-6.2257,-8.2536
6492.2,-6.8676,-8.4665
6503.9,-7.5482,-8.0812
6515.6,-7.0463,-10.501
6527.3,-4.1549,-8.0632
6539.1,-3.8069,-8.0536
6550.8,-6.4189,-7.3426
6562.5,-9.7497,-5.6978
6574.2,-8.3988,-3.3591
6585.9,-7.6072,-5.1187
6597.7,-9.6244,-7.8776
6609.4,-8.5977,-5.7222
6621.1,-6.2341,-4.544
6632.8,-5.6265,-8.086
6644.5,-5.8609,-3.2657
6656.3,-6.6664,-2.9129
6668,-5.9793,-5.528
6679.7,-4.4665,-6.7167
6691.4,-5.3476,-7.9725
6703.1,-5.1213,-7.8222
6714.8,-6.6033,-9.1549
6726.6,-6.2257,-8.8859
6738.3,-8.4449,-5.6777
6750,-8.7864,-6.0145
6761.7,-6.4254,-6.8442
6773.4,-8.1694,-9.7293
6785.2,-7.2352,-8.5368
6796.9,-8.4274,-8.0577
6808.6,-6.8828,-9.3848
6820.3,-6.084,-6.8953
6832,-6.3129,-5.7289
6843.8,-5.3551,-9.0775
6855.5,-5.6024,-6.7282
6867.2,-6.088,-7.6163
6878.9,-5.3515,-5.691
6890.6,-6.1409,-8.4913
6902.3,-6.0201,-6.7342
6914.1,-9.5445,-7.8284
6925.8,-10.912,-6.9715
6937.5,-11.275,-7.1006
6949.2,-8.6757,-10.165
6960.9,-10.788,-6.4621
6972.7,-10.659,-9.0183
6984.4,-5.2857,-10.007
6996.1,-6.2785,-6.7393
7007.8,-9.3898,-9.1
7019.5,-8.0856,-6.6329
7031.3,-6.8277,-7.1556
7043,-8.5177,-9.8722
7054.7,-6.6108,-7.7062
7066.4,-5.4605,-6.3407
7078.1,-6.2667,-7.242
7089.8,-6.6838,-8.436
7101.6,-9.2445,-8.8795
7113.3,-9.5594,-7.7538
7125,-8.5363,-7.4638
7136.7,-9.1662,-6.8009
7148.4,-8.8471,-8.1343
7160.2,-9.133,-6.0546
7171.9,-5.8512,-5.5639
7183.6,-4.5391,-4.3985
7195.3,-5.6573,-7.1365
7207,-5.4843,-6.7091
7218.8,-6.7056,-8.8714
7230.5,-8.381,-10.805
7242.2,-7.5781,-8.5368
7253.9,-6.3009,-7.3323
7265.6,-5.4528,-6.9864
7277.3,-6.4775,-7.0066
7289.1,-10.412,-6.0013
7300.8,-9.6824,-6.8877
7312.5,-13.737,-7.9402
7324.2,-11.069,-8.3789
7335.9,-10.396,-7.5322
7347.7,-10.216,-6.0669
7359.4,-8.505,-7.0571
7371.1,-4.4393,-10.129
7382.8,-5.6886,-8.6786
7394.5,-10.056,-6.1413
7406.3,-7.4575,-7.4827
7418,-7.8713,-7.0704
7429.7,-6.031,-7.6981
7441.4,-6.4273,-8.582
7453.1,-8.0617,-10.843
7464.8,-9.2797,-14.159
7476.6,-8.1771,-11.203
7488.3,-7.9514,-11.932
7500,-7.3261,-9.9464
7511.7,-7.2436,-9.3907
7523.4,-10.368,-9.5626
7535.2,-11.392,-9.3041
7546.9,-8.7333,-11.856
7558.6,-11.065,-9.8911
7570.3,-10.511,-8.53
7582,-6.1672,-7.3251
7593.8,-4.2507,-9.7121
7605.5,-10.132,-8.7762
7617.2,-11.045,-7.9349
7628.9,-9.3919,-7.4108
7640.6,-6.229,-10.112
7652.3,-4.1498,-9.6064
7664.1,-5.7989,-8.6616
7675.8,-8.4157,-6.6673
7687.5,-11.253,-8.4755
7699.2,-9.5988,-10.588
7710.9,-10.155,-11.519
7722.7,-9.1009,-10.458
7734.4,-8.9435,-8.7777
7746.1,-9.1666,-8.1096
7757.8,-10.365,-9.3894
7769.5,-9.2615,-11.321
7781.3,-8.1886,-10.204
7793,-9.0316,-11.189
7804.7,-8.1504,-12.298
7816.4,-7.9554,-8.0977
7828.1,-8.9069,-6.8496
7839.8,-7.6207,-10.329
7851.6,-7.2183,-11.475
7863.3,-7.4876,-9.4671
7875,-9.8423,-8.542
7886.7,-12.706,-10.162
7898.4,-10.425,-8.1855
7910.2,-8.6321,-8.6126
7921.9,-8.9876,-9.0982
7933.6,-9.8409,-6.3272
7945.3,-10.338,-9.3242
7957,-8.6357,-11.212
7968.8,-8.6727,-8.0423
7980.5,-7.5974,-7.8405
7992.2,-7.6071,-9.844
8003.9,-7.9572,-8.3376
8015.6,-8.4437,-10.503
8027.3,-7.7106,-11.127
8039.1,-10.489,-10.157
8050.8,-10.507,-9.5866
8062.5,-8.9231,-8.1826
8074.2,-7.9709,-6.8888
8085.9,-8.9544,-8.8143
8097.7,-11.481,-11.297
8109.4,-9.128,-12.294
8121.1,-11.131,-9.2503
8132.8,-11.159,-9.4571
8144.5,-9.3906,-9.774
8156.3,-8.3502,-10.238
8168,-7.3234,-11.17
8179.7,-7.5756,-6.8082
8191.4,-8.7716,-8.6904
8203.1,-7.8949,-9.8218
8214.8,-7.681,-10.233
8226.6,-9.9722,-10.947
8238.3,-11.191,-11.229
8250,-8.9323,-12.52
8261.7,-9.7085,-9.6658
8273.4,-10.124,-8.545
8285.2,-9.0477,-7.8495
8296.9,-9.3632,-10.263
8308.6,-10.393,-10.625
8320.3,-10.426,-9.8863
8332,-10.568,-9.0152
8343.8,-10.434,-9.6722
8355.5,-11.327,-7.4903
8367.2,-13.025,-7.883
8378.9,-9.6948,-9.1808
8390.6,-7.6582,-9.1814
8402.3,-10.325,-9.0725
8414.1,-6.3133,-9.334
8425.8,-8.8192,-8.397
8437.5,-10.004,-8.3174
8449.2,-9.6352,-12.119
8460.9,-10.076,-9.3152
8472.7,-10.849,-7.8423
8484.4,-10.13,-8.4777
8496.1,-8.7822,-12.18
8507.8,-9.266,-11.763
8519.5,-7.3433,-8.6868
8531.3,-8.068,-9.9697
8543,-12.102,-8.9769
8554.7,-10.062,-9.5916
8566.4,-12.35,-8.1741
8578.1,-11.205,-6.6582
8589.8,-10.142,-9.2406
8601.6,-12.005,-11.995
8613.3,-11.215,-13.114
8625,-11.879,-13.492
8636.7,-8.1517,-10.103
8648.4,-7.77,-10.302
8660.2,-9.2507,-12.846
8671.9,-6.3043,-11.943
8683.6,-8.1356,-10.03
8695.3,-8.7048,-11.339
8707,-10.428,-10.441
8718.8,-6.3867,-14.182
8730.5,-9.059,-11.021
8742.2,-10.898,-10.961
8753.9,-10.778,-11.947
8765.6,-11.322,-9.3933
8777.3,-14.191,-9.7796
8789.1,-12.502,-11.231
8800.8,-10.84,-11.231
8812.5,-9.0878,-9.1024
8824.2,-7.7401,-10.138
8835.9,-7.9009,-11.648
8847.7,-10.185,-12.703
8859.4,-8.1597,-10.858
8871.1,-7.7068,-10.669
8882.8,-9.5149,-11.172
8894.5,-10.387,-8.2861
8906.3,-11.442,-8.8526
8918,-11.932,-13.414
8929.7,-10.932,-14.854
8941.4,-9.9398,-12.921
8953.1,-10.342,-12.214
8964.8,-11.145,-9.0111
8976.6,-11.498,-6.6261
8988.3,-12.339,-7.4681
9000,-10.375,-13.398
9011.7,-10.715,-11.615
9023.4,-11.978,-12.994
9035.2,-9.0595,-11.776
9046.9,-8.3693,-7.9371
9058.6,-10.4,-8.8681
9070.3,-8.0512,-10.042
9082,-8.2352,-8.5098
9093.8,-11.046,-8.5302
9105.5,-12.499,-11.406
9117.2,-11.417,-10.077
9128.9,-12.784,-11.817
9140.6,-11.528,-12.473
9152.3,-9.0668,-11.343
9164.1,-10.36,-13.664
9175.8,-12.676,-11.124
9187.5,-10.87,-9.9863
9199.2,-11.49,-12.486
9210.9,-11.454,-12.196
9222.7,-14.478,-13.202
9234.4,-12.416,-11.329
9246.1,-10.406,-9.5149
9257.8,-13.254,-8.9274
9269.5,-10.238,-9.8855
9281.3,-10.138,-11.727
9293,-13.354,-13.015
9304.7,-11.398,-12.162
9316.4,-11.064,-12.54
9328.1,-11.193,-13.891
9339.8,-9.7262,-14.965
9351.6,-9.1636,-12.347
9363.3,-12.297,-12.884
9375,-13.104,-13.582
9386.7,-12.187,-9.7028
9398.4,-9.5302,-9.0131
9410.2,-9.5184,-9.452
9421.9,-9.7648,-10.581
9433.6,-11.468,-12.491
9445.3,-12.27,-11.012
9457,-11.797,-11.906
9468.8,-12.175,-9.9317
9480.5,-10.555,-11.191
9492.2,-9.7818,-9.9582
9503.9,-7.7354,-9.9387
9515.6,-7.5416,-13.697
9527.3,-12.255,-10.024
9539.1,-14.306,-12.621
9550.8,-11.878,-11.557
9562.5,-9.9065,-9.8517
9574.2,-11.245,-10.997
9585.9,-9.1757,-10.463
9597.7,-9.3332,-8.5346
9609.4,-12.107,-9.7268
9621.1,-11.694,-10.837
9632.8,-7.7339,-12.188
9644.5,-6.8099,-14.997
9656.3,-8.8939,-12.698
9668,-11.643,-16.165
9679.7,-9.0597,-14.996
9691.4,-10.999,-15.444
9703.1,-10.185,-14.995
9714.8,-9.0117,-12.398
9726.6,-10.446,-11.751
9738.3,-11.148,-12.19
9750,-13.522,-12.93
9761.7,-12.413,-10.196
9773.4,-9.2855,-8.764
9785.2,-11.55,-11.26
9796.9,-11.449,-10.878
9808.6,-11.982,-8.8416
9820.3,-7.9679,-8.8119
9832,-9.0601,-10.004
9843.8,-13.574,-12.259
9855.5,-15.859,-11.605
9867.2,-10.719,-12.642
9878.9,-8.049,-14.937
9890.6,-6.3945,-13.34
9902.3,-9.3774,-12.398
9914.1,-9.8756,-13.65
9925.8,-9.1186,-13.082
9937.5,-10.678,-14.265
9949.2,-14.068,-14.074
9960.9,-13.91,-14.813
9972.7,-8.1227,-12.802
9984.4,-8.1212,-10.517
9996.1,-9.3505,-12.323
10008,-9.5469,-12.097
10020,-10.322,-11.541
10031,-9.8134,-11.536
10043,-10.938,-14.459
10055,-10.863,-14.397
10066,-8.9524,-13.17
10078,-11.632,-14.181
10090,-12.467,-13.864
10102,-8.8672,-13.054
10113,-8.8773,-11.853
10125,-10.898,-14.443
10137,-11.066,-12.834
10148,-11.203,-10.896
10160,-11.794,-11.713
10172,-13.578,-9.8074
10184,-11.153,-11.228
10195,-9.1396,-11.126
10207,-10.328,-9.5908
10219,-12.948,-12.869
10230,-11.435,-16.6
10242,-10.734,-11.326
10254,-12.408,-9.5703
10266,-9.7274,-11.992
10277,-11.2,-14.779
10289,-11.034,-14.092
10301,-11.447,-15.313
10313,-12.487,-15.163
10324,-11.943,-13.106
10336,-9.4145,-12.867
10348,-9.7233,-11.714
10359,-11.245,-13.101
10371,-12.768,-12.443
10383,-10.427,-12.329
10395,-10.522,-13.976
10406,-16.96,-13.183
10418,-12.816,-12.357
10430,-11.143,-14.287
10441,-10.909,-14.874
10453,-8.7164,-15.553
10465,-8.5908,-13.588
10477,-9.4221,-10.794
10488,-12.019,-11.328
10500,-13.459,-12.86
10512,-11.409,-11.85
10523,-9.5342,-14.209
10535,-8.0678,-13.393
10547,-10.516,-16.331
10559,-13.804,-13.72
10570,-10.531,-13.199
10582,-9.5218,-14.102
10594,-11.598,-14.465
10605,-12.816,-14.235
10617,-14.117,-12.486
10629,-12.973,-11.812
10641,-9.405,-18.773
10652,-9.2147,-14.575
10664,-12.435,-12.918
10676,-13.388,-13.98
10688,-9.0985,-14.003
10699,-9.0057,-12.788
10711,-12.235,-12.49
10723,-13.02,-11.929
10734,-12.652,-12.589
10746,-13.957,-14.668
10758,-10.013,-15.773
10770,-11.545,-13.694
10781,-14.869,-12.041
10793,-14.13,-11.996
10805,-11.161,-12.026
10816,-10.078,-15.346
10828,-11.568,-16.26
10840,-13.528,-16.533
10852,-13.206,-15.657
10863,-11.968,-12.383
10875,-10.468,-11.698
10887,-12.17,-14.787
10898,-15.47,-13.262
10910,-12.604,-12.321
10922,-12.936,-11.615
10934,-11.632,-12.55
10945,-10.89,-11.325
10957,-12.118,-10.817
10969,-12.748,-11.539
10980,-11.848,-11.825
10992,-13.942,-12.67
11004,-13.225,-11.606
11016,-11.959,-14.106
11027,-13.431,-14.515
11039,-11.666,-16.326
11051,-3.642,-16.36
11063,-2.6985,-12.986
11074,-10.165,-13.506
11086,-11.18,-15.523
11098,-12.688,-13.374
11109,-13.79,-12.856
11121,-12.501,-14.247
11133,-12.197,-16.165
11145,-12.226,-15.081
11156,-10.336,-11.853
11168,-10.526,-16.174
11180,-16.478,-12.768
11191,-14.719,-12.096
11203,-10.669,-11.212
11215,-12.496,-13.555
11227,-11.622,-16.209
11238,-10.945,-15.927
11250,-12.983,-15.044
11262,-14.831,-13.326
11273,-13.523,-14.693
11285,-11.561,-15.307
11297,-11.571,-17.826
11309,-11.317,-15.617
11320,-11.849,-14.062
11332,-10.091,-12.806
11344,-10.434,-13.483
11355,-12.154,-14.116
11367,-12.314,-13.126
11379,-10.562,-15.236
11391,-10.748,-13.508
11402,-11.754,-13.494
11414,-12.829,-13.622
11426,-11.749,-14.529
11438,-14.939,-17.91
11449,-12.829,-15.554
11461,-10.64,-15.868
11473,-11.466,-17.357
11484,-11.451,-15.639
11496,-13.402,-15.33
11508,-12.338,-15.104
11520,-11.402,-14.055
11531,-14.513,-13.279
11543,-14.117,-15.452
11555,-9.3132,-14.147
11566,-8.805,-15.104
11578,-13.592,-17.131
11590,-14.083,-16.798
11602,-14.426,-12.52
11613,-10.753,-10.616
11625,-12.937,-11.577
11637,-13.79,-15.879
11648,-11.283,-15.853
11660,-12.431,-16.053
11672,-12.165,-17.167
11684,-11.854,-15.567
11695,-11.476,-12.765
11707,-10.251,-14.626
11719,-10.985,-16.378
11730,-11.777,-13.469
11742,-14.104,-14.713
11754,-13.583,-13.46
11766,-12.411,-13.169
11777,-11.903,-11.817
11789,-10.28,-12.672
11801,-11.043,-14.966
11813,-10.553,-13.847
11824,-13.553,-12.339
11836,-15.393,-10.666
11848,-13.901,-14.848
11859,-15.005,-16.159
11871,-13.467,-14.377
11883,-12.438,-13.777
11895,-13.934,-15.439
11906,-14.238,-14.557
11918,-12.055,-14.294
11930,-11.107,-13.255
11941,-12.775,-13.165
11953,-11.362,-15.144
11965,-10.604,-15.055
11977,-10.696,-17.015
11988,-11.518,-12.635
12000,-12.827,-12.542
12012,-14.986,-14.649
12023,-15.584,-16.491
12035,-12.173,-16.347
12047,-12.298,-12.89
12059,-12.812,-14.48
12070,-11.537,-18.853
12082,-12.574,-17.043
12094,-10.716,-15.376
12105,-12.744,-14.006
12117,-13.391,-14.905
12129,-15.644,-16.244
12141,-13.045,-14.53
12152,-11.128,-13.671
12164,-12.05,-12.726
12176,-10.992,-12.608
12188,-9.8055,-13.741
12199,-12.336,-15.388
12211,-14.115,-14.442
12223,-14.253,-14.67
12234,-12.079,-16.208
12246,-12.78,-14.546
12258,-10.997,-15.088
12270,-10.48,-14.479
12281,-12.133,-14.533
12293,-13.144,-16.007
12305,-13.564,-16.95
12316,-17.25,-18.223
12328,-16.109,-18.119
12340,-14.081,-16.569
12352,-11.691,-16.017
12363,-10.357,-13.827
12375,-10.725,-13.286
12387,-12.064,-16.244
12398,-16.005,-14.369
12410,-14.505,-13.286
12422,-13.402,-16.951
12434,-12.233,-17.755
12445,-11.132,-17.418
12457,-9.7741,-13.485
12469,-13.468,-13.801
12480,-19.021,-16.898
12492,-18.131,-16.275
12504,-14.494,-15.443
12516,-11.445,-14.899
12527,-10.99,-15.17
12539,-15.719,-15.495
12551,-13.386,-17.607
12563,-10.052,-18.246
12574,-10.669,-16.661
12586,-13.659,-16.181
12598,-12.965,-17.422
12609,-10.429,-17.982
12621,-11.959,-17.04
12633,-12.01,-17.352
12645,-12.692,-14.533
12656,-14.467,-15.918
12668,-12.685,-18.163
12680,-17.504,-16.22
12691,-14.619,-14.025
12703,-13.147,-13.184
12715,-11.215,-13.71
12727,-10.065,-14.971
12738,-11.015,-16.192
12750,-13.617,-15.631
12762,-12.183,-16.009
12773,-10.107,-16.553
12785,-11.393,-14.763
12797,-12.255,-13.875
12809,-13.456,-13.796
12820,-12.932,-17.277
12832,-15.146,-13.447
12844,-16.013,-13.763
12855,-16.4,-16.666
12867,-12.46,-19.738
12879,-11.252,-13.721
12891,-12.752,-13.971
12902,-12.81,-17.187
12914,-13.652,-16.398
12926,-14.131,-14.369
12938,-13.821,-12.41
12949,-13.27,-14.267
12961,-15.168,-15.738
12973,-14.853,-16.803
12984,-13.458,-18.971
12996,-14.369,-16.874
13008,-12.942,-16.754
13020,-13.234,-17.018
13031,-14.596,-18.169
13043,-15.126,-18.007
13055,-15.366,-15.845
13066,-14.226,-16.488
13078,-13.259,-15.373
13090,-12.626,-14.679
13102,-12.674,-13.451
13113,-14.319,-16.701
13125,-15.713,-15.383
13137,-20.183,-14.203
13148,-14.664,-15.524
13160,-11.647,-18.305
13172,-11.563,-16.913
13184,-12.236,-15.891
13195,-12.502,-16.457
13207,-13.634,-16.945
13219,-13.89,-17.432
13230,-15.469,-16.052
13242,-14.392,-17.045
13254,-16.855,-15.705
13266,-16.618,-14.995
13277,-12.991,-15.558
13289,-13.194,-13.567
13301,-13.365,-13.892
13313,-13.524,-14.984
13324,-13.822,-14.831
13336,-14.748,-14.973
13348,-16.556,-14.039
13359,-16.722,-15.801
13371,-14.959,-18.93
13383,-13.327,-15.606
13395,-13.874,-14.303
13406,-13.024,-15.431
13418,-15.716,-15.296
13430,-15.485,-14.802
13441,-14.254,-15.984
13453,-14.486,-15.507
13465,-14.909,-15.612
13477,-14.365,-16.178
13488,-15.286,-15.46
13500,-11.769,-16.356
13512,-13.572,-16.249
13523,-15.266,-15.55
13535,-13.091,-14.828
13547,-11.192,-15.514
13559,-11.488,-16.308
13570,-13.65,-17.195
13582,-14.47,-17.167
13594,-14.382,-16.312
13605,-16.559,-19.518
13617,-15.305,-21.591
13629,-15.439,-19.681
13641,-15.065,-17.798
13652,-13.357,-16.748
13664,-12.607,-16.455
13676,-12.472,-16.484
13688,-15.065,-15.169
13699,-15.895,-15.525
13711,-14.598,-17.803
13723,-14.903,-18.451
13734,-15.017,-16.385
13746,-14.526,-15.661
13758,-13.535,-16.944
13770,-14.562,-15.852
13781,-16.053,-17.058
13793,-14.26,-13.862
13805,-15.46,-14.649
13816,-14.688,-16.489
13828,-14.974,-14.859
13840,-15.632,-12.509
13852,-16.414,-12.624
13863,-15.73,-16.335
13875,-14.545,-16.501
13887,-12.082,-16.844
13898,-11.289,-16.941
13910,-11.097,-17.683
13922,-16.288,-18.156
13934,-16.426,-16.693
13945,-14.749,-15.578
13957,-14.795,-15.555
13969,-16.683,-16.973
13980,-13.598,-18.481
13992,-13.537,-18.976
14004,-15.668,-20.526
14016,-20.372,-23.098
14027,-19.026,-18.417
14039,-19.527,-15.667
14051,-19.352,-13.743
14063,-16.771,-17.889
14074,-16.117,-17.409
14086,-15.534,-16.279
14098,-15.242,-16.338
14109,-16.018,-17.445
14121,-15.063,-18.752
14133,-14.75,-16.899
14145,-16.598,-16.742
14156,-14.881,-14.796
14168,-17.893,-14.393
14180,-21.917,-17.148
14191,-19.919,-16.045
14203,-18.589,-15.036
14215,-18.503,-16.295
14227,-15.254,-18.938
14238,-16.256,-17.555
14250,-14.604,-19.872
14262,-12.071,-16.554
14273,-11.863,-16.924
14285,-15.019,-18.716
14297,-18.102,-19.925
14309,-17.177,-19.208
14320,-17.136,-16.808
14332,-17.981,-17.779
14344,-18.668,-16.125
14355,-16.522,-15.251
14367,-15.648,-15.125
14379,-15.504,-17.73
14391,-14.809,-19.68
14402,-15.268,-19.721
14414,-17.197,-18.015
14426,-14.756,-17.857
14438,-14.375,-19.277
14449,-13.697,-14.939
14461,-16.336,-14.11
14473,-17.41,-14.749
14484,-19.09,-17.463
14496,-17.61,-18.145
14508,-17.838,-14.746
14520,-17.078,-11.087
14531,-15.998,-13.626
14543,-19.018,-17.409
14555,-18.544,-16.554
14566,-14.689,-17.454
14578,-13.995,-16.016
14590,-15.942,-16.131
14602,-17.12,-18.204
14613,-18.117,-18.861
14625,-16.045,-15.122
14637,-18.085,-17.644
14648,-20.978,-18.132
14660,-19.274,-20.127
14672,-19.2,-19.93
14684,-16.829,-20.162
14695,-17.519,-19.444
14707,-17.044,-20.443
14719,-17.411,-17.43
14730,-15.276,-14.503
14742,-10.258,-17.615
14754,-12.087,-18.816
14766,-17.861,-15.93
14777,-17.161,-17.237
14789,-16.353,-18.488
14801,-15.101,-17.898
14813,-17.35,-20.031
14824,-17.801,-18.603
14836,-18.341,-18.206
14848,-20.146,-17.784
14859,-21.464,-19.35
14871,-19.393,-17.756
14883,-17.426,-16.799
14895,-18.697,-18.028
14906,-18.141,-18.196
14918,-15.2,-16.761
14930,-15.003,-17.531
14941,-17.163,-17.687
14953,-19.401,-15.416
14965,-17.769,-17.44
14977,-15.362,-18.705
14988,-16.673,-17.54
15000,-17.597,-19.698
15012,-17.492,-21.301
15023,-18.706,-19.81
15035,-16.192,-21.268
15047,-14.359,-18.893
15059,-15.351,-21.544
15070,-19.597,-17.549
15082,-15.807,-20.466
15094,-15.994,-16.511
15105,-17.964,-16.106
15117,-21.087,-15.374
15129,-22.574,-17.274
15141,-17.672,-16.493
15152,-15.946,-17.219
15164,-17.478,-16.957
15176,-18.929,-16.47
15188,-19.121,-16.718
15199,-18.971,-16.618
15211,-18.392,-17.524
15223,-20.226,-18.522
15234,-16.877,-20.348
15246,-16.268,-21.866
15258,-18.291,-21.106
15270,-16.89,-17.822
15281,-17.785,-19.355
15293,-18.646,-21.945
15305,-15.791,-18.45
15316,-15.924,-17.039
15328,-17.087,-17.307
15340,-20.465,-20.571
15352,-16.67,-19.103
15363,-15.065,-17.722
15375,-17.362,-22.422
15387,-17.172,-20.529
15398,-17.631,-18.991
15410,-20.679,-20.543
15422,-16.908,-21.937
15434,-18.089,-19.277
15445,-20.609,-17.546
15457,-19.535,-19.742
15469,-19.3,-19.605
15480,-17.801,-18.103
15492,-17.673,-17.65
15504,-18.789,-19.888
15516,-23.086,-23.311
15527,-17.746,-19.906
15539,-17.016,-18.529
15551,-20.644,-21.504
15563,-18.26,-19.461
15574,-18.223,-18.571
15586,-19.348,-19.08
15598,-18.277,-19.928
15609,-17.884,-18.621
15621,-19.58,-19.731
15633,-18.811,-18.036
15645,-18.294,-19.691
15656,-18.88,-20.603
15668,-18.997,-17.967
15680,-17.314,-15.965
15691,-18.806,-16.108
15703,-18.525,-21.852
15715,-17.051,-23.383
15727,-17.867,-20.922
15738,-20.158,-20.662
15750,-18.367,-21.57
15762,-18.097,-18.327
15773,-18.547,-18.849
15785,-20.069,-22.42
15797,-21.458,-21.826
15809,-21.046,-20.979
15820,-19.023,-18.927
15832,-18.623,-20.163
15844,-17.999,-20.458
15855,-18.564,-17.843
15867,-18.735,-18.992
15879,-19.04,-19.837
15891,-20.793,-18.931
15902,-19.484,-23.948
15914,-21.653,-20.686
15926,-20.418,-21.326
15938,-22.479,-22.112
15949,-21.731,-21.415
15961,-19.016,-20.468
15973,-19.72,-21.88
15984,-20.907,-20.82
15996,-17.318,-20.364
16008,-17.904,-18.742
16020,-20.799,-19.511
16031,-17.941,-24.544
16043,-22.756,-23.858
16055,-19.895,-20.867
16066,-16.674,-20.303
16078,-19.103,-21.659
16090,-18.96,-21.368
16102,-18.472,-19.868
16113,-18.192,-18.884
16125,-19.774,-19.549
16137,-18.741,-20.056
16148,-17.175,-21.868
16160,-19.896,-19.072
16172,-20.637,-19.62
16184,-20.116,-22.491
16195,-20.073,-20.532
16207,-23.301,-22.373
16219,-19.74,-20.676
16230,-19.452,-20.844
16242,-23.064,-20.085
16254,-21.48,-20.92
16266,-23.791,-20.049
16277,-21.055,-21.255
16289,-21.958,-21.158
16301,-22.575,-20.822
16313,-21.219,-21.936
16324,-20.536,-22.97
16336,-20.192,-22.639
16348,-17.772,-21.635
16359,-19.471,-20.329
16371,-22.871,-22.968
16383,-19.662,-20.561
16395,-18.235,-22.066
16406,-18.624,-22.264
16418,-21.219,-18.748
16430,-22.449,-21.678
16441,-22.739,-21.622
16453,-21.772,-20.528
16465,-19.468,-20.266
16477,-18.443,-21.575
16488,-17.197,-20.795
16500,-19.103,-18.536
16512,-20.28,-19.705
16523,-18.808,-22.896
16535,-20.386,-19.783
16547,-21.925,-23.462
16559,-21.37,-21.645
16570,-20.355,-20.77
16582,-20.55,-20.954
16594,-18.262,-21.336
16605,-17.016,-23.832
16617,-19.321,-23.323
16629,-20.967,-21.796
16641,-19.61,-20.841
16652,-19.639,-18.474
16664,-20.272,-17.251
16676,-20.956,-18.925
16688,-22.494,-20.301
16699,-24.995,-20.203
16711,-24.274,-20.92
16723,-22.235,-22.025
16734,-22.532,-20.943
16746,-22.498,-20.342
16758,-23.676,-20.058
16770,-23.252,-19.843
16781,-22.477,-21.643
16793,-23.357,-20.226
16805,-21.293,-19.086
16816,-21.595,-18.411
16828,-20.076,-21.138
16840,-20.588,-19.355
16852,-23.518,-17.682
16863,-21.681,-22.548
16875,-16.183,-23.21
16887,-17.267,-21.867
16898,-24.821,-20.363
16910,-24.185,-22.199
16922,-20.435,-21.144
16934,-20.336,-22.538
16945,-23.616,-23.947
16957,-21.732,-25.165
16969,-21.829,-24.29
16980,-20.681,-24.467
16992,-19.823,-22.564
17004,-18.586,-21.993
17016,-19.903,-20.686
17027,-21.105,-19.457
17039,-21.982,-18.301
17051,-25.793,-20.284
17063,-23.292,-22.141
17074,-19.63,-21.36
17086,-21.382,-20.014
17098,-24.325,-20.659
17109,-22.654,-20.472
17121,-20.436,-20.242
17133,-21.611,-21.175
17145,-21.969,-23.243
17156,-22.653,-23.955
17168,-24.096,-23.113
17180,-21.612,-21.886
17191,-24.513,-21.509
17203,-23.158,-23.896
17215,-22.965,-23.252
17227,-22.417,-20.578
17238,-22.211,-21.163
17250,-19.663,-20.581
17262,-20.455,-22.611
17273,-23.341,-23.117
17285,-21.947,-22.815
17297,-23.314,-23.317
17309,-24.664,-23.998
17320,-22.119,-25.315
17332,-24.632,-22.472
17344,-23.107,-22.009
17355,-21.982,-22.662
17367,-21.91,-19.337
17379,-23.066,-18.987
17391,-23.928,-21.787
17402,-19.543,-21.855
17414,-19.065,-22.739
17426,-21.183,-24.307
17438,-22.407,-24.317
17449,-23.683,-21.549
17461,-23.852,-21.147
17473,-22.739,-22.892
17484,-22.333,-22.887
17496,-18.885,-21.287
17508,-17.693,-22.133
17520,-21.292,-24.255
17531,-23.268,-23.138
17543,-21.695,-21.587
17555,-21.135,-22.307
17566,-20.866,-21.217
17578,-20.326,-20.035
17590,-19.541,-23.326
17602,-19.721,-23.782
17613,-21.643,-24.607
17625,-23.963,-24.182
17637,-24.108,-23.885
17648,-21.003,-24.199
17660,-18.724,-24.069
17672,-20.554,-28.095
17684,-23.204,-22.904
17695,-25.784,-21.831
17707,-26.04,-18.982
17719,-25.88,-22.246
17730,-24.733,-25.686
17742,-22.926,-25.229
17754,-21.045,-23.456
17766,-22.065,-19.349
17777,-23.427,-19.594
17789,-25.36,-20.106
17801,-24.347,-22.657
17813,-21.997,-25.857
17824,-22.063,-25.053
17836,-22.193,-21.785
17848,-23.446,-19.877
17859,-26.854,-21.382
17871,-25.993,-23.088
17883,-22.574,-25.289
17895,-22.125,-21.825
17906,-23.735,-22.022
17918,-25.484,-21.378
17930,-23.058,-20.968
17941,-25.527,-23.805
17953,-22.688,-23.268
17965,-21.199,-25.656
17977,-24.555,-23.203
17988,-24.967,-24.744
18000,-23.411,-25.07
18012,-22.763,-23.379
18023,-22.074,-26.349
18035,-25.835,-25.315
18047,-24.634,-22.295
18059,-24.816,-22.821
18070,-22.288,-24.701
18082,-22.869,-25.704
18094,-21.543,-26.263
18105,-22.454,-25.015
18117,-21.581,-23.595
18129,-22.871,-22.144
18141,-24.485,-19.834
18152,-22.662,-20.803
18164,-23.031,-24.7
18176,-25.443,-21.358
18188,-24.042,-20.577
18199,-24.492,-20.905
18211,-24.782,-21.247
18223,-22.869,-21.245
18234,-22.718,-23.144
18246,-23.116,-23.739
18258,-22.188,-23.824
18270,-20.682,-25.258
18281,-22.129,-25.061
18293,-26.573,-24.989
18305,-22.418,-26.926
18316,-22.792,-23.65
18328,-27.038,-21.52
18340,-25.595,-23.159
18352,-26.038,-23.195
18363,-24.153,-22.212
18375,-25.137,-23.178
18387,-26.999,-23.045
18398,-23.711,-23.88
18410,-24.214,-24.449
18422,-21.557,-24.65
18434,-20.11,-25.568
18445,-23.647,-22.495
18457,-20.644,-22.057
18469,-20.071,-24.326
18480,-23.525,-24.174
18492,-23.843,-25.005
18504,-22.651,-27.332
18516,-21.809,-26.261
18527,-21.807,-24.824
18539,-21.485,-23.87
18551,-23.897,-24.23
18563,-23.266,-25.142
18574,-22.156,-26.301
18586,-22.698,-25.098
18598,-21.948,-25.245
18609,-22.581,-25.445
18621,-25.398,-24.09
18633,-24.075,-23.674
18645,-24.524,-24.097
18656,-25.165,-28.962
18668,-26.797,-29.327
18680,-26.01,-26.375
18691,-20.645,-25.05
18703,-23.09,-26.715
18715,-23.565,-23.951
18727,-23.183,-23.006
18738,-25.27,-20.743
18750,-24.108,-21.979
18762,-22.152,-27.382
18773,-23.49,-25.906
18785,-25.539,-24.305
18797,-29.071,-23.082
18809,-25.098,-23.151
18820,-24.203,-25.799
18832,-21.898,-24.805
18844,-21.194,-24.533
18855,-23.371,-25.273
18867,-22.222,-23.779
18879,-24.043,-25.765
18891,-23.773,-27.409
18902,-23.621,-25.767
18914,-25.196,-24.622
18926,-25.313,-23.197
18938,-24.215,-24.757
18949,-23.909,-24.517
18961,-24.154,-23.64
18973,-22.664,-22.449
18984,-22.276,-23.677
18996,-23.193,-22.982
19008,-22.796,-22.737
19020,-20.495,-22.125
19031,-21.128,-23.231
19043,-22.858,-23.812
19055,-22.752,-22.236
19066,-23.39,-23.796
19078,-25.569,-26.267
19090,-21.599,-26.691
19102,-21.896,-28.507
19113,-22.162,-29.212
19125,-25.351,-26.584
19137,-26.088,-23.51
19148,-24.425,-24.819
19160,-24.627,-23.431
19172,-24.838,-24.968
19184,-25.422,-24.748
19195,-26.825,-26.014
19207,-25.563,-24.237
19219,-23.63,-26.132
19230,-26.062,-27.422
19242,-26.03,-24.504
19254,-24.495,-23.423
19266,-23.112,-23.817
19277,-23.109,-25.469
19289,-24.703,-24.347
19301,-22.186,-22.607
19313,-22.385,-21.067
19324,-25.184,-22.193
19336,-25.831,-25.449
19348,-26.801,-25.91
19359,-26.369,-25.6
19371,-23.361,-25.789
19383,-25.177,-21.798
19395,-22.472,-23.752
19406,-21.043,-25.078
19418,-25.006,-22.418
19430,-23.175,-26.799
19441,-24.472,-24.143
19453,-25.544,-22.461
19465,-23.484,-24.572
19477,-21.551,-22.544
19488,-23.748,-24.576
19500,-23.636,-25.076
19512,-22.201,-23.247
19523,-22.097,-21.56
19535,-23.734,-20.69
19547,-24.284,-23
19559,-24.335,-25.049
19570,-25.643,-27.809
19582,-22.244,-27.51
19594,-24.448,-25.133
19605,-27.414,-23.004
19617,-27.215,-24.949
19629,-26.402,-26.284
19641,-25.35,-22.128
19652,-27.827,-20.943
19664,-25.706,-23.589
19676,-25.737,-26.055
19688,-26.764,-26.179
19699,-24.541,-27.45
19711,-25.544,-24.433
19723,-25.173,-25.919
19734,-25.446,-26.619
19746,-25.518,-23.768
19758,-25.58,-22.986
19770,-24.771,-23.373
19781,-27.354,-23.117
19793,-25.872,-22.698
19805,-24.547,-23.611
19816,-23.993,-25.558
19828,-24.46,-26.171
19840,-25.214,-29.339
19852,-24.063,-26.196
19863,-20.767,-24.251
19875,-21.878,-24.924
19887,-25.153,-25.575
19898,-26.623,-24.534
19910,-22.617,-24.078
19922,-20.37,-24.973
19934,-25.785,-24.547
19945,-22.59,-23.675
19957,-21.435,-26.891
19969,-24.272,-23.22
19980,-26.879,-25.312
19992,-25.631,-26.777
20004,-23.645,-24.628
20016,-21.579,-25.676
20027,-21.878,-25.864
20039,-24.991,-27.805
20051,-25.213,-29.081
20063,-22.414,-26.7
20074,-23.614,-25.724
20086,-24.963,-25.349
20098,-24.162,-26.359
20109,-25.043,-25.484
20121,-25.966,-24.844
20133,-26.356,-25.448
20145,-21.649,-27.229
20156,-24.329,-26.255
20168,-25.915,-24.843
20180,-24.766,-23.425
20191,-24.001,-26.047
20203,-24.114,-27.882
20215,-25.972,-27.442
20227,-24.696,-27.338
20238,-26.255,-27.199
20250,-31.028,-28.855
20262,-28.32,-27.685
20273,-25.988,-25.479
20285,-23.514,-25.348
20297,-25.702,-24.622
20309,-27.313,-25.032
20320,-26.431,-23.292
20332,-26.769,-25.107
20344,-23.672,-24.941
20355,-23.763,-25.45
20367,-23.362,-26.146
20379,-25.878,-27.483
20391,-27.087,-29.327
20402,-24.373,-24.685
20414,-25.734,-22.024
20426,-25.886,-20.578
20438,-23.746,-22.167
20449,-25.175,-24.65
20461,-27.15,-26.361
20473,-22.929,-25.547
20484,-25.562,-25.202
20496,-25.828,-24.324
20508,-26.693,-23.342
20520,-26.219,-24.227
20531,-26.084,-26.999
20543,-26.251,-27.534
20555,-27.051,-26.231
20566,-27.207,-25.704
20578,-26.361,-26.657
20590,-26.509,-26.861
20602,-25.072,-26.935
20613,-25.334,-26.746
20625,-27.773,-26.46
20637,-25.659,-30.4
20648,-28.823,-26.524
20660,-24.771,-26.349
20672,-27.459,-25.999
20684,-28.874,-23.651
20695,-26.539,-26.347
20707,-25.419,-29.717
20719,-29.337,-28.88
20730,-25.877,-25.987
20742,-26.374,-25.797
20754,-24.771,-25.103
20766,-26.363,-25.191
20777,-26.999,-24.986
20789,-26.074,-24.98
20801,-22.985,-23.592
20813,-23.955,-23.386
20824,-25.139,-26.943
20836,-26.883,-27.826
20848,-27.385,-26.781
20859,-27.227,-26.009
20871,-23.948,-23.191
20883,-23.772,-22.362
20895,-28.057,-24.831
20906,-29.618,-25.689
20918,-26.213,-27.711
20930,-25.006,-25.051
20941,-25.822,-25.529
20953,-27.999,-27.442
20965,-25.151,-25.784
20977,-23.052,-26.292
20988,-25.379,-25.426
21000,-26.221,-23.323
21012,-25.04,-23.384
21023,-29.08,-23.296
21035,-27.618,-24.502
21047,-27.984,-28.544
21059,-28.566,-31.878
21070,-25.584,-29.76
21082,-25.112,-27.963
21094,-26.466,-27.475
21105,-28.027,-28.415
21117,-27.834,-28.281
21129,-26.365,-27.228
21141,-28.002,-26.47
21152,-30.01,-28.656
21164,-28.287,-26.861
21176,-28.186,-24.315
21188,-26.538,-24.365
21199,-24.529,-25.78
21211,-24.754,-25.473
21223,-24.086,-25.008
21234,-26.567,-26.922
21246,-28.758,-29.941
21258,-26.957,-28.025
21270,-24.169,-28.75
21281,-26.859,-27.004
21293,-27.419,-25.356
21305,-25.961,-28.474
21316,-25.383,-24.348
21328,-23.145,-24.02
21340,-25.571,-29.094
21352,-26.102,-26.97
21363,-23.58,-25.577
21375,-26.722,-25.476
21387,-27.505,-25.644
21398,-28.168,-25.614
21410,-25.182,-24.621
21422,-24.948,-26.565
21434,-26.254,-27.019
21445,-23.291,-24.998
21457,-24.936,-27.235
21469,-25.125,-28.937
21480,-26.197,-25.408
21492,-26.264,-25.885
21504,-26.154,-27.82
21516,-27.441,-29.216
21527,-29.34,-29.787
21539,-29.577,-29.234
21551,-28.933,-27.253
21563,-26.809,-28.203
21574,-22.271,-26.444
21586,-21.259,-25.342
21598,-24.637,-28.26
21609,-25.642,-29.614
21621,-25.401,-27.602
21633,-26.072,-25.843
21645,-24.304,-31.21
21656,-26.839,-29.983
21668,-26.076,-28.261
21680,-25.708,-29.467
21691,-25.545,-27.447
21703,-25.328,-27.043
21715,-28.439,-27.314
21727,-26.443,-24.57
21738,-25.192,-28.106
21750,-24.474,-27.986
21762,-24.73,-25.41
21773,-23.589,-27.063
21785,-23.722,-26.681
21797,-24.4,-24.93
21809,-22.501,-24.225
21820,-22.718,-25.788
21832,-26.299,-30.704
21844,-26.17,-27.958
21855,-22.425,-29.053
21867,-23.229,-28.687
21879,-25.414,-26.58
21891,-23.442,-24.915
21902,-24.768,-25.691
21914,-27.899,-26.924
21926,-25.964,-25.122
21938,-25.086,-26.261
21949,-25.992,-28.139
21961,-28.185,-29.043
21973,-28.346,-28.474
21984,-25.167,-27.084
21996,-27.478,-23.97
22008,-27.582,-24.138
22020,-26.097,-28.065
22031,-25.344,-27.689
22043,-26.241,-28.51
22055,-27.16,-28.556
22066,-25.466,-27.824
22078,-28.624,-26.406
22090,-26.265,-26.86
22102,-28.17,-27.847
22113,-27.397,-25.064
22125,-27.784,-24.592
22137,-27.35,-24.811
22148,-25.534,-24.994
22160,-26.794,-27.674
22172,-26.645,-29.223
22184,-27.243,-28.423
22195,-26.694,-27.594
22207,-23.402,-28.166
22219,-24.457,-28.913
22230,-27.197,-29.504
22242,-26.883,-29.078
22254,-25.679,-26.754
22266,-26.548,-26.124
22277,-26.286,-25.249
22289,-26.681,-26.238
22301,-28.358,-26.774
22313,-27.44,-26.58
22324,-25.838,-29.525
22336,-25.707,-29.54
22348,-24.923,-28.206
22359,-25.367,-29.34
22371,-24.473,-29.13
22383,-27.541,-29.546
22395,-27.06,-27.054
22406,-26.019,-26.206
22418,-27.387,-27.124
22430,-28.786,-28.196
22441,-27.417,-27.622
22453,-26.789,-29.714
22465,-23.899,-26.572
22477,-24.653,-27.178
22488,-26.935,-27.193
22500,-28.254,-29.032
22512,-29.306,-27.497
22523,-27.472,-27.236
22535,-27.526,-28.199
22547,-27.662,-28.749
22559,-26.992,-28.437
22570,-26.269,-29.158
22582,-25.584,-30.812
22594,-26.234,-28.876
22605,-28.421,-27.869
22617,-26.222,-26.93
22629,-28.261,-25.677
22641,-29.771,-26.47
22652,-26.575,-28.681
22664,-28.41,-28.354
22676,-28.191,-27.65
22688,-26.424,-28.616
22699,-24.776,-28.99
22711,-25.862,-30.081
22723,-26.144,-30.465
22734,-25.035,-27.543
22746,-25.132,-28.605
22758,-26.414,-28.35
22770,-26.16,-28.65
22781,-29.375,-29.601
22793,-30.212,-27.903
22805,-27.795,-26.921
22816,-25.181,-26.341
22828,-24.146,-26.154
22840,-25.386,-27.949
22852,-27.415,-29.909
22863,-31.158,-30.586
22875,-27.796,-27.833
22887,-26.022,-28.43
22898,-27.747,-30.173
22910,-28.504,-30.076
22922,-29.154,-29.248
22934,-30.016,-30.309
22945,-24.741,-29.068
22957,-25.113,-28.815
22969,-27.52,-29.615
22980,-27.925,-30.302
22992,-28.871,-27.45
23004,-29.927,-24.2
23016,-29.704,-26.635
23027,-28.086,-29.001
23039,-26.314,-27.594
23051,-27.005,-27.256
23063,-27.027,-28.16
23074,-26.244,-30.274
23086,-25.854,-30.902
23098,-25.502,-29.092
23109,-27.015,-27.842
23121,-28.134,-27.274
23133,-26.307,-31.829
23145,-30.363,-30.745
23156,-27.752,-29.111
23168,-28.006,-28.468
23180,-30.813,-31.477
23191,-29.93,-30.324
23203,-28.454,-26.91
23215,-27.118,-27.98
23227,-29.582,-29.203
23238,-28.7,-29.073
23250,-27.817,-26.627
23262,-26.968,-25.767
23273,-27.547,-28.043
23285,-27.171,-29.317
23297,-27.524,-27.844
23309,-26.582,-28.457
23320,-27.767,-28.639
23332,-27.436,-30.048
23344,-25.159,-28.678
23355,-25.227,-28.527
23367,-25.475,-28.584
23379,-25.932,-30.259
23391,-27.146,-30.175
23402,-24.553,-29.521
23414,-26.311,-28.783
23426,-27.298,-28.942
23438,-27.782,-29.8
23449,-27.468,-30.504
23461,-29.6,-30.248
23473,-30.093,-29.973
23484,-29.839,-31.082
23496,-30.064,-30.566
23508,-30.151,-30.383
23520,-29.028,-27.934
23531,-29.802,-25.431
23543,-28.324,-26.042
23555,-27.428,-29.37
23566,-27.818,-30.505
23578,-28.33,-29.163
23590,-28.18,-31.8
23602,-28.007,-29.557
23613,-29.935,-29.074
23625,-29.267,-30.141
23637,-29.293,-30.656
23648,-27.361,-28.572
23660,-27.264,-27.857
23672,-26.113,-26.325
23684,-27.981,-27.575
23695,-29.219,-26.48
23707,-28.09,-25.975
23719,-29.544,-28.235
23730,-27.642,-28.841
23742,-24.853,-26.459
23754,-26.336,-26.853
23766,-28.787,-28.169
23777,-27.041,-32.202
23789,-26.914,-31.587
23801,-26.383,-29.364
23813,-27.372,-27.575
23824,-28.771,-30.557
23836,-27.621,-30.336
23848,-28.319,-29.145
23859,-27.634,-28.791
23871,-27.317,-30.341
23883,-30.298,-33.142
23895,-28.165,-31.641
23906,-28.494,-30.11
23918,-30.399,-27.768
23930,-29.073,-26.809
23941,-21.776,-27.969
23953,-15.195,-30.994
23965,-18.412,-31.737
23977,-25.381,-28.334
23988,-27.695,-25.501
