FFT,Power Spectrum
Frequency[Hz],Level-L[dB],Level-R[dB]
11.719,-22.164,-23.505
23.438,-1.627,-3.4119
35.156,0.75149,-1.8966
46.875,3.6429,0.69601
58.594,4.4387,4.7541
70.313,3.5779,4.8644
82.031,8.2859,9.3774
93.75,13.827,11.744
105.47,12.545,10.29
117.19,12.056,7.3218
128.91,10.277,6.6885
140.63,8.9062,8.0203
152.34,5.0731,6.5918
164.06,3.216,3.9568
175.78,8.2411,6.7996
187.5,15.472,11.225
199.22,11.682,9.3769
210.94,11.047,6.7196
222.66,13.717,8.956
234.38,11.396,8.4711
246.09,9.3024,4.9645
257.81,7.887,5.8214
269.53,8.3369,7.4949
281.25,11.136,9.3291
292.97,9.645,6.3601
304.69,6.7734,3.76
316.41,6.3827,1.6775
328.13,4.5933,6.1782
339.84,6.4988,5.6386
351.56,7.7376,5.6971
363.28,7.0345,7.5582
375,5.3781,5.272
386.72,6.4176,4.303
398.44,7.9319,3.3149
410.16,8.3275,5.3394
421.88,7.6616,3.7682
433.59,5.1469,4.4449
445.31,4.26,4.9107
457.03,4.1093,8.6492
468.75,5.2391,6.3372
480.47,4.5636,4.3162
492.19,2.0422,7.1511
503.91,6.6097,6.5528
515.63,6.8188,4.1941
527.34,3.5545,6.1159
539.06,9.732,7.4113
550.78,10.515,8.6351
562.5,6.7519,8.6208
574.22,6.6743,7.7576
585.94,7.8812,4.809
597.66,10.619,5.6022
609.38,12.269,6.7078
621.09,7.2646,7.4315
632.81,4.0429,6.1381
644.53,2.9471,6.7708
656.25,6.4564,7.956
667.97,6.3315,3.1663
679.69,7.1388,7.221
691.41,9.2732,7.4807
703.13,6.0461,6.1546
714.84,3.2908,7.1336
726.56,5.1757,7.5246
738.28,5.6492,3.2232
750,6.3524,4.3792
761.72,8.1884,6.1522
773.44,6.1559,7.3915
785.16,9.233,6.7071
796.88,10.962,5.17
808.59,11.924,7.7888
820.31,9.1473,6.8157
832.03,7.8046,5.6908
843.75,12.415,7.6524
855.47,13.057,8.8153
867.19,8.2813,5.946
878.91,6.326,4.1307
890.63,5.8688,4.3746
902.34,6.407,6.0349
914.06,7.365,1.6802
925.78,7.2263,5.8583
937.5,5.7773,5.667
949.22,5.7636,5.747
960.94,5.9107,5.3779
972.66,5.6735,2.2676
984.38,4.307,5.3647
996.09,5.4112,6.0331
1007.8,5.5277,3.4964
1019.5,5.4237,6.6465
1031.3,4.251,5.2242
1043,5.7074,3.9418
1054.7,4.2261,3.4743
1066.4,4.564,2.9018
1078.1,5.5963,3.8377
1089.8,8.0663,7.0071
1101.6,9.2687,6.8609
1113.3,7.0251,4.0253
1125,3.775,3.2475
1136.7,4.9948,5.5679
1148.4,7.3574,8.4831
1160.2,7.2859,5.4618
1171.9,7.2213,4.7597
1183.6,8.38,5.0882
1195.3,6.8056,2.8517
1207,7.1053,4.1939
1218.8,4.2404,3.4196
1230.5,2.843,5.0832
1242.2,5.5338,4.7046
1253.9,0.9923,1.3556
1265.6,2.6437,0.54151
1277.3,4.5541,1.6229
1289.1,1.4945,4.7523
1300.8,3.9553,4.2353
1312.5,4.2131,4.4754
1324.2,0.38029,4.565
1335.9,4.6388,5.5915
1347.7,6.3881,6.9274
1359.4,6.914,4.8959
1371.1,4.945,4.1867
1382.8,5.5435,3.9344
1394.5,5.2464,2.5625
1406.3,4.6445,3.5226
1418,6.0276,5.5707
1429.7,5.4054,5.0477
1441.4,7.385,4.517
1453.1,5.4284,5.3058
1464.8,6.7476,5.9367
1476.6,5.7364,4.7676
1488.3,4.6358,3.6637
1500,8.4097,4.0606
1511.7,7.7696,3.4396
1523.4,6.3996,4.2148
1535.2,5.1943,3.5003
1546.9,0.67839,-0.32742
1558.6,2.8032,4.891
1570.3,5.1862,4.9041
1582,3.3315,3.7561
1593.8,2.2991,2.5956
1605.5,4.4974,1.7417
1617.2,6.7102,1.9619
1628.9,4.6822,1.4587
1640.6,4.551,3.4909
1652.3,3.7149,2.8122
1664.1,-0.18317,1.8246
1675.8,1.0005,0.9152
1687.5,1.2357,3.1403
1699.2,3.64,4.2353
1710.9,2.7141,2.4839
1722.7,1.4774,0.83482
1734.4,5.4091,3.0651
1746.1,5.5204,5.3467
1757.8,4.2248,4.3591
1769.5,2.2157,0.49304
1781.3,2.6037,2.9088
1793,3.3457,3.6932
1804.7,5.1737,3.2044
1816.4,5.4745,0.76251
1828.1,4.4411,0.21783
1839.8,6.8479,2.5089
1851.6,5.1566,2.065
1863.3,4.9013,-0.089112
1875,4.3926,4.6543
1886.7,6.7266,4.7783
1898.4,4.861,0.46124
1910.2,3.9765,-1.5102
1921.9,3.7888,1.415
1933.6,1.9026,1.9336
1945.3,0.76609,4.3191
1957,0.15604,3.1272
1968.8,-0.21329,2.3437
1980.5,1.4912,3.4628
1992.2,4.4052,4.2924
2003.9,2.819,2.0235
2015.6,-0.049938,-1.6482
2027.3,2.8327,-1.4414
2039.1,5.919,1.573
2050.8,6.6523,1.3582
2062.5,3.3546,1.5413
2074.2,-0.19155,2.4394
2085.9,2.625,2.0015
2097.7,1.6778,2.8871
2109.4,2.4778,4.5825
2121.1,3.1298,3.1404
2132.8,3.0207,3.2754
2144.5,3.463,5.2228
2156.3,3.3313,2.7105
2168,2.7129,1.498
2179.7,9.0309,2.5569
2191.4,7.2942,-1.011
2203.1,3.6414,0.93366
2214.8,2.8285,5.3443
2226.6,3.1279,4.9636
2238.3,5.0196,1.6178
2250,2.5205,2.4644
2261.7,2.9065,1.381
2273.4,2.2921,-0.38288
2285.2,2.3339,1.8749
2296.9,2.2406,3.7487
2308.6,-0.3949,4.9953
2320.3,3.041,2.8332
2332,3.41,0.050681
2343.8,2.9711,-0.30148
2355.5,0.99671,1.662
2367.2,1.6281,0.15839
2378.9,2.8548,1.7846
2390.6,2.1177,2.6139
2402.3,-0.15132,1.3434
2414.1,3.7627,1.0181
2425.8,3.5679,-2.3825
2437.5,3.3916,0.37794
2449.2,2.742,0.84573
2460.9,-2.457,2.4055
2472.7,-3.8606,2.8876
2484.4,-1.6888,-0.38553
2496.1,-0.61137,2.6881
2507.8,0.66502,2.5271
2519.5,1.4715,1.1986
2531.3,-2.628,1.2338
2543,-0.32404,1.0914
2554.7,2.8071,5.3448
2566.4,1.6764,5.9852
2578.1,-0.17009,1.0568
2589.8,4.0186,1.3135
2601.6,4.52,-1.2757
2613.3,6.0208,-0.20139
2625,4.0783,0.86181
2636.7,3.2249,-0.91045
2648.4,4.145,0.12266
2660.2,3.1834,0.017382
2671.9,-3.0277,3.0507
2683.6,-0.1198,2.4338
2695.3,-2.513,1.0172
2707,0.24629,1.5378
2718.8,-1.2012,-1.2681
2730.5,-1.414,-0.0072784
2742.2,0.81106,1.7743
2753.9,0.24052,3.1731
2765.6,-0.2508,1.7078
2777.3,0.903,2.3154
2789.1,-0.2362,1.6676
2800.8,-1.2461,0.86834
2812.5,1.5299,2.0071
2824.2,2.8272,1.0591
2835.9,1.5019,0.38623
2847.7,-0.9165,1.8167
2859.4,3.1181,-2.0146
2871.1,6.3668,-0.82049
2882.8,3.8679,1.8908
2894.5,2.5683,-0.29182
2906.3,2.5255,-0.14401
2918,1.8098,-2.7343
2929.7,3.6111,-4.1157
2941.4,3.7718,-1.5475
2953.1,1.4711,-2.9777
2964.8,3.3673,-0.31594
2976.6,2.301,-0.72323
2988.3,0.17338,-0.020853
3000,0.19851,2.3588
3011.7,0.2221,2.1974
3023.4,-1.5127,0.35868
3035.2,-0.46549,-0.59704
3046.9,-0.43919,-3.2888
3058.6,-3.3304,-0.26319
3070.3,-1.5174,-0.24873
3082,-1.5992,-4.3856
3093.8,-2.2166,-0.95427
3105.5,-0.093709,0.82511
3117.2,1.076,1.2733
3128.9,1.8802,1.5171
3140.6,-0.77004,0.19787
3152.3,-2.7179,-1.0569
3164.1,-1.1743,0.23516
3175.8,1.5733,-0.96975
3187.5,1.2117,-1.6937
3199.2,1.8634,-0.81827
3210.9,-0.51582,-0.48378
3222.7,3.3598,-1.1007
3234.4,0.97405,-2.8943
3246.1,-1.2629,2.2935
3257.8,0.16486,1.4405
3269.5,-1.7324,-3.9429
3281.3,-1.7592,-2.4433
3293,0.32161,-2.096
3304.7,0.38144,-3.5653
3316.4,-0.80925,-1.8906
3328.1,-0.52093,3.1107
3339.8,-3.1673,1.112
3351.6,-1.0009,0.01179
3363.3,-0.53836,0.5903
3375,-4.2895,-0.45561
3386.7,-3.727,-2.3212
3398.4,-1.9094,2.2011
3410.2,0.22465,3.2726
3421.9,0.15434,1.1187
3433.6,1.8678,-2.5753
3445.3,0.54421,1.9018
3457,-0.16681,2.3687
3468.8,-0.85387,-0.72576
3480.5,0.37558,-0.60864
3492.2,-0.48759,-3.3633
3503.9,-2.9552,-4.1454
3515.6,-2.4992,-3.8897
3527.3,-1.5163,-4.0639
3539.1,2.2923,-1.7186
3550.8,2.9411,-3.2603
3562.5,0.49204,-2.5681
3574.2,8.5341,-0.69469
3585.9,6.7422,-1.8558
3597.7,9.6716,-2.9261
3609.4,8.4195,-0.8552
3621.1,11.874,-0.6538
3632.8,17.831,0.23702
3644.5,21.202,2.9493
3656.3,28.736,7.0646
3668,43.052,18.995
3679.7,61.954,38.024
3691.4,64.353,40.434
3703.1,54.188,30.233
3714.8,33.993,11.029
3726.6,24.854,4.1971
3738.3,16.855,1.9051
3750,16.547,1.6738
3761.7,11.645,-4.0978
3773.4,8.3943,-2.9046
3785.2,10.608,1.2187
3796.9,10.631,-0.58559
3808.6,7.9135,-0.94164
3820.3,4.2082,-0.54853
3832,2.5882,-0.69015
3843.8,2.6476,-0.17483
3855.5,4.5267,-1.1588
3867.2,4.5294,-1.8505
3878.9,2.8072,-2.6374
3890.6,2.5059,-3.3996
3902.3,1.7044,-3.4416
3914.1,3.0184,-0.086291
3925.8,3.103,1.4039
3937.5,2.8346,-0.38268
3949.2,1.396,-2.1781
3960.9,1.3421,-2.3501
3972.7,-1.0878,-2.4008
3984.4,0.54554,-3.5987
3996.1,1.3526,-3.1777
4007.8,-0.56697,-3.1907
4019.5,-1.9566,-2.4211
4031.3,-3.5983,-3.5792
4043,0.6382,-0.98426
4054.7,0.84859,-1.0037
4066.4,0.30205,1.4682
4078.1,-0.093598,2.0243
4089.8,-2.6372,-2.0039
4101.6,-1.082,-3.4015
4113.3,-0.78886,-5.616
4125,-2.0883,-1.6537
4136.7,-3.9727,-1.1715
4148.4,0.22634,-2.2338
4160.2,0.68187,-3.8519
4171.9,-3.0001,-4.7316
4183.6,-2.0853,-4.4834
4195.3,0.39506,-2.4055
4207,1.1174,-4.3883
4218.8,1.1236,-6.9352
4230.5,-0.3188,-6.0416
4242.2,-2.1307,-1.5561
4253.9,-1.8872,-2.5127
4265.6,-0.011849,-3.3871
4277.3,0.71304,-6.2238
4289.1,-1.5118,-0.98642
4300.8,-3.0791,0.32883
4312.5,-3.3178,-0.64041
4324.2,-0.88492,-0.88588
4335.9,-1.8371,0.63659
4347.7,-1.1849,-1.5855
4359.4,-0.089843,-3.167
4371.1,-1.8473,-4.7051
4382.8,-1.9574,-2.0704
4394.5,-2.3562,-0.79419
4406.3,-1.6532,-4.2623
4418,-0.45453,-0.77207
4429.7,1.5709,0.38088
4441.4,0.39875,-2.0087
4453.1,-1.3137,-2.9507
4464.8,-4.6762,-3.8805
4476.6,-6.2548,-3.4736
4488.3,-5.339,-2.0024
4500,-3.0762,-1.9565
4511.7,-2.983,-2.6709
4523.4,-5.2251,-5.9508
4535.2,-5.4439,-4.0889
4546.9,-2.2735,-2.8197
4558.6,-2.038,-4.1613
4570.3,-2.6362,-1.5719
4582,-0.61856,-2.6085
4593.8,-2.2982,-3.0695
4605.5,-1.1871,-2.1879
4617.2,-2.4206,-3.5797
4628.9,-4.4571,-3.5645
4640.6,-3.2689,-2.0596
4652.3,-0.5882,-2.3806
4664.1,-2.012,-4.2988
4675.8,0.71317,-3.1018
4687.5,-1.0942,-1.1242
4699.2,-2.3815,-2.4245
4710.9,-3.3206,-1.1878
4722.7,-3.1129,0.0042612
4734.4,-1.899,-2.2116
4746.1,-1.0844,-1.9229
4757.8,-3.959,-0.35898
4769.5,-0.57394,-1.879
4781.3,-3.2612,-4.4976
4793,-2.682,-4.1639
4804.7,-0.17642,-4.2285
4816.4,0.08405,-0.7623
4828.1,-4.4688,-1.2478
4839.8,-6.8305,-2.7373
4851.6,-5.634,-2.66
4863.3,-3.6269,-2.3605
4875,-2.4996,-2.933
4886.7,-1.775,-4.7843
4898.4,-2.2205,-6.8317
4910.2,-4.3934,-5.7171
4921.9,-6.8371,-4.8249
4933.6,-4.9874,-3.389
4945.3,-4.4046,-1.9055
4957,-3.8316,-2.5398
4968.8,-2.289,-6.9539
4980.5,-4.4972,-7.4464
4992.2,-1.6502,-5.7437
5003.9,-2.6151,-5.3293
5015.6,-3.8778,-2.0763
5027.3,-2.8844,-2.0905
5039.1,-5.7838,-2.2247
5050.8,-1.5121,-3.2717
5062.5,-1.6789,-5.8603
5074.2,-4.4674,-5.7636
5085.9,-2.8104,-4.511
5097.7,-3.4417,-4.3288
5109.4,-5.0504,-4.8283
5121.1,-3.4762,-4.8449
5132.8,-3.7416,-1.7429
5144.5,-6.4052,-1.6331
5156.3,-6.368,-1.3819
5168,-3.8581,-2.9291
5179.7,-3.9607,-4.391
5191.4,-4.1325,-5.8803
5203.1,-1.9428,-5.4365
5214.8,-2.0778,-4.7079
5226.6,-3.3933,-3.9424
5238.3,-3.3275,-4.0544
5250,0.040261,-1.3801
5261.7,-1.1415,-0.86365
5273.4,-2.8012,-3.5923
5285.2,-0.24431,-6.8397
5296.9,-3.997,-5.3099
5308.6,-4.7731,-5.7628
5320.3,-4.389,-8.1736
5332,-5.6521,-5.8788
5343.8,-6.7822,-5.839
5355.5,-6.9332,-4.9629
5367.2,-3.0859,-5.5027
5378.9,-2.693,-0.85918
5390.6,-5.4272,-4.5752
5402.3,-3.648,-5.3943
5414.1,-3.9547,-5.7066
5425.8,-2.7801,-4.492
5437.5,-1.8835,-3.0189
5449.2,-4.5572,-1.5186
5460.9,-4.2669,-2.3976
5472.7,-4.5142,-6.5447
5484.4,-5.4776,-4.5897
5496.1,-8.0376,-3.973
5507.8,-3.1704,-7.6254
5519.5,-2.634,-7.1089
5531.3,-4.5916,-4.8108
5543,-7.9293,-5.5007
5554.7,-4.5419,-4.9706
5566.4,-3.4628,-4.2645
5578.1,-4.8939,-4.8622
5589.8,-5.9232,-4.7476
5601.6,-6.3032,-4.1402
5613.3,-3.9992,-5.3756
5625,-3.5481,-4.7982
5636.7,-2.3423,-5.2061
5648.4,-3.3295,-6.0106
5660.2,-6.8549,-7.7206
5671.9,-4.7516,-5.9808
5683.6,-2.9507,-1.7781
5695.3,-4.7455,-2.0265
5707,-5.6933,-7.9806
5718.8,-4.8076,-5.5155
5730.5,-7.1058,-5.8213
5742.2,-6.1108,-3.9486
5753.9,-5.1458,-5.3299
5765.6,-3.2688,-6.2629
5777.3,-3.1548,-6.9438
5789.1,-3.8515,-4.6373
5800.8,-7.1872,-5.1873
5812.5,-4.8249,-7.9533
5824.2,-4.3898,-5.8196
5835.9,-6.4375,-3.659
5847.7,-7.7316,-2.7121
5859.4,-3.2485,-4.9111
5871.1,-5.7233,-8.8423
5882.8,-7.5849,-7.1375
5894.5,-3.3999,-5.3295
5906.3,-0.23655,-7.0251
5918,-1.8838,-6.6433
5929.7,-5.8484,-6.6051
5941.4,-8.0837,-11.115
5953.1,-6.9598,-6.4926
5964.8,-5.5324,-5.0285
5976.6,-6.1163,-1.6857
5988.3,-4.4378,-3.2496
6000,-6.1569,-5.7377
6011.7,-6.0862,-6.6647
6023.4,-5.7569,-6.2501
6035.2,-6.583,-5.521
6046.9,-5.7265,-5.4126
6058.6,-4.8231,-5.5889
6070.3,-6.0773,-7.9715
6082,-8.6622,-6.4056
6093.8,-5.3581,-6.8848
6105.5,-6.4845,-6.6368
6117.2,-8.159,-6.5976
6128.9,-10.814,-7.4169
6140.6,-7.0145,-4.6329
6152.3,-6.7602,-3.739
6164.1,-5.2495,-4.6755
6175.8,-4.9119,-4.7909
6187.5,-4.1948,-5.2768
6199.2,-3.9903,-4.9902
6210.9,-6.0098,-4.104
6222.7,-8.4466,-3.9189
6234.4,-4.7249,-4.0938
6246.1,-3.4356,-3.7802
6257.8,-3.8655,-4.975
6269.5,-7.0133,-4.5484
6281.3,-7.2074,-6.9569
6293,-6.6969,-7.8551
6304.7,-8.5936,-6.2295
6316.4,-5.992,-7.1394
6328.1,-5.7631,-3.4839
6339.8,-2.2293,-2.4625
6351.6,-6.4621,-3.2577
6363.3,-11.128,-4.7092
6375,-8.0624,-6.2484
6386.7,-7.6143,-5.7502
6398.4,-5.4798,-3.6328
6410.2,-6.5542,-3.8477
6421.9,-7.1721,-6.5043
6433.6,-5.019,-7.6201
6445.3,-5.4386,-7.1358
6457,-5.3186,-6.2975
6468.8,-5.303,-10.245
6480.5,-6.4107,-9.8886
6492.2,-9.2513,-7.0267
6503.9,-9.4657,-5.0095
6515.6,-6.9715,-6.0537
6527.3,-2.2855,-5.3048
6539.1,-3.7673,-6.382
6550.8,-3.485,-7.2836
6562.5,-2.0387,-4.8932
6574.2,-5.8413,-4.7969
6585.9,-7.7939,-5.8081
6597.7,-4.0317,-5.1911
6609.4,-5.5038,-5.5901
6621.1,-4.3735,-5.2142
6632.8,-4.6568,-6.8762
6644.5,-7.9624,-7.2755
6656.3,-9.6944,-7.0093
6668,-5.0652,-6.9797
6679.7,-6.9947,-7.9161
6691.4,-9.5023,-5.6716
6703.1,-5.5146,-8.4529
6714.8,-5.132,-5.9563
6726.6,-4.7382,-6.2638
6738.3,-5.6353,-6.4005
6750,-5.6749,-9.3911
6761.7,-3.9496,-7.8359
6773.4,-3.1542,-9.3882
6785.2,-8.3784,-5.218
6796.9,-9.5675,-6.7078
6808.6,-7.2396,-8.2625
6820.3,-5.9413,-8.5123
6832,-7.3433,-8.148
6843.8,-8.399,-7.785
6855.5,-8.3246,-7.4726
6867.2,-6.0845,-7.8664
6878.9,-6.1571,-8.1582
6890.6,-9.3107,-8.7125
6902.3,-8.213,-7.278
6914.1,-9.097,-5.2919
6925.8,-8.7015,-6.4871
6937.5,-6.885,-8.1989
6949.2,-7.4917,-5.8204
6960.9,-6.0655,-3.9132
6972.7,-5.3724,-4.211
6984.4,-5.3803,-8.3226
6996.1,-6.5841,-7.6278
7007.8,-8.0027,-5.4895
7019.5,-10.779,-5.0413
7031.3,-8.9707,-8.9975
7043,-6.439,-9.6965
7054.7,-6.1429,-10.143
7066.4,-5.739,-10.655
7078.1,-6.2459,-10.011
7089.8,-7.3491,-10.709
7101.6,-5.8175,-8.9113
7113.3,-7.374,-7.797
7125,-5.4021,-9.9184
7136.7,-7.9046,-10.568
7148.4,-6.6026,-7.3419
7160.2,-5.7692,-7.5274
7171.9,-4.3751,-7.3764
7183.6,-5.3307,-7.2455
7195.3,-5.4734,-6.7952
7207,-7.6939,-4.1944
7218.8,-6.5089,-4.1636
7230.5,-5.4142,-5.5972
7242.2,-8.084,-8.4132
7253.9,-9.8641,-8.9372
7265.6,-11.042,-8.576
7277.3,-10.919,-7.7389
7289.1,-7.6461,-6.1604
7300.8,-7.3125,-7.1099
7312.5,-7.6059,-8.4993
7324.2,-7.1431,-10.132
7335.9,-6.8286,-9.9235
7347.7,-8.4126,-6.2403
7359.4,-7.9942,-4.3824
7371.1,-6.9136,-5.1234
7382.8,-6.6518,-6.4121
7394.5,-7.2063,-6.9057
7406.3,-5.6096,-9.8985
7418,-6.0587,-8.7953
7429.7,-8.8013,-10.212
7441.4,-8.2616,-7.5749
7453.1,-8.9721,-7.9787
7464.8,-7.9489,-9.017
7476.6,-7.6687,-8.9129
7488.3,-8.8172,-7.5604
7500,-11.216,-8.5777
7511.7,-7.1552,-7.6103
7523.4,-4.8254,-7.4593
7535.2,-4.0727,-9.2363
7546.9,-9.8004,-10.791
7558.6,-6.7204,-12.282
7570.3,-6.0633,-10.365
7582,-6.7935,-7.9094
7593.8,-9.7336,-7.532
7605.5,-10.211,-6.3379
7617.2,-9.1577,-7.7414
7628.9,-9.4297,-8.7564
7640.6,-7.5951,-8.5051
7652.3,-7.919,-9.3101
7664.1,-11.173,-8.8451
7675.8,-9.7702,-9.0859
7687.5,-7.2235,-9.7237
7699.2,-6.9821,-9.1414
7710.9,-9.0397,-9.0387
7722.7,-11.126,-3.6668
7734.4,-9.2967,-4.6999
7746.1,-6.226,-8.089
7757.8,-6.4717,-8.1021
7769.5,-7.7726,-10.798
7781.3,-7.6391,-9.1102
7793,-5.663,-8.5762
7804.7,-7.6527,-6.9745
7816.4,-10.401,-8.2263
7828.1,-9.4889,-6.3152
7839.8,-9.7177,-6.3851
7851.6,-9.9474,-10.346
7863.3,-10.733,-6.8072
7875,-8.7279,-8.8803
7886.7,-9.6101,-10.391
7898.4,-10.924,-9.658
7910.2,-6.8364,-8.0323
7921.9,-6.7879,-10.819
7933.6,-8.2702,-13.402
7945.3,-7.4913,-12.282
7957,-8.5037,-8.951
7968.8,-7.3292,-7.9471
7980.5,-8.7869,-9.1726
7992.2,-10.562,-9.656
8003.9,-7.1636,-9.5696
8015.6,-6.7281,-9.1203
8027.3,-9.9896,-8.8656
8039.1,-11.679,-9.9075
8050.8,-8.6521,-10.974
8062.5,-4.3775,-12.03
8074.2,-4.9295,-9.165
8085.9,-8.1744,-9.9733
8097.7,-8.1066,-11.016
8109.4,-6.5014,-6.8034
8121.1,-8.0518,-5.2467
8132.8,-8.3116,-9.4776
8144.5,-8.8587,-11.541
8156.3,-8.7073,-12.269
8168,-10.486,-12.491
8179.7,-9.9634,-11.652
8191.4,-10.048,-8.9974
8203.1,-10.847,-10.96
8214.8,-9.8326,-10.223
8226.6,-10.445,-8.3151
8238.3,-6.8952,-10.255
8250,-6.3309,-12.758
8261.7,-6.8611,-7.5782
8273.4,-12.595,-7.0709
8285.2,-8.9745,-10.657
8296.9,-7.9485,-11.831
8308.6,-7.9691,-9.0929
8320.3,-10.467,-9.6204
8332,-7.2107,-11.331
8343.8,-8.1297,-9.2641
8355.5,-11.975,-7.4499
8367.2,-10.672,-8.4821
8378.9,-10.791,-10.113
8390.6,-7.1022,-7.3785
8402.3,-8.8669,-7.8114
8414.1,-8.9527,-8.7032
8425.8,-11.34,-8.5786
8437.5,-9.2796,-9.4106
8449.2,-8.1572,-6.5056
8460.9,-9.0581,-5.3743
8472.7,-9.9458,-10.185
8484.4,-10.006,-12.992
8496.1,-8.185,-12.394
8507.8,-8.7644,-11.344
8519.5,-9.3397,-10.445
8531.3,-9.3389,-9.6083
8543,-9.4443,-13.262
8554.7,-12.76,-12.228
8566.4,-11.713,-11.676
8578.1,-8.9864,-12.535
8589.8,-6.9935,-11.845
8601.6,-8.907,-9.1529
8613.3,-9.1486,-8.6681
8625,-6.2948,-9.351
8636.7,-5.4544,-9.3893
8648.4,-7.433,-10.778
8660.2,-8.4122,-12.132
8671.9,-7.699,-10.268
8683.6,-8.6734,-8.5564
8695.3,-7.8612,-10.384
8707,-8.8852,-12.958
8718.8,-10.61,-8.0142
8730.5,-13.219,-8.6026
8742.2,-11.16,-9.3726
8753.9,-11.989,-9.7421
8765.6,-11.527,-9.6663
8777.3,-9.0793,-9.1048
8789.1,-10.024,-9.7824
8800.8,-12.334,-11.677
8812.5,-10.647,-8.7089
8824.2,-6.8954,-7.4252
8835.9,-6.9371,-9.7619
8847.7,-11.313,-12.071
8859.4,-12.953,-12.292
8871.1,-13.595,-12.647
8882.8,-10.941,-10.9
8894.5,-8.1203,-12.188
8906.3,-9.2522,-12.888
8918,-10.921,-12.098
8929.7,-12.439,-10.841
8941.4,-11.581,-7.5829
8953.1,-9.3724,-7.4605
8964.8,-9.621,-12.064
8976.6,-9.0524,-9.8165
8988.3,-11.371,-9.8992
9000,-11.917,-10.139
9011.7,-11.276,-9.1689
9023.4,-11.156,-10.976
9035.2,-12.319,-14.816
9046.9,-14.037,-11.653
9058.6,-13.911,-13.219
9070.3,-12.565,-10.414
9082,-7.9411,-9.4097
9093.8,-9.417,-10.746
9105.5,-9.9673,-11.216
9117.2,-8.9497,-11.703
9128.9,-9.6384,-11.587
9140.6,-7.825,-10.087
9152.3,-11.647,-8.3171
9164.1,-12.294,-9.6953
9175.8,-12.311,-11.787
9187.5,-11.046,-12.582
9199.2,-10.76,-11.076
9210.9,-10.639,-12.583
9222.7,-11.375,-11.544
9234.4,-13.518,-11.333
9246.1,-12.066,-8.294
9257.8,-10.919,-12.832
9269.5,-11.543,-9.0395
9281.3,-13.353,-10.739
9293,-12.105,-14.172
9304.7,-9.4472,-12.382
9316.4,-11.528,-9.555
9328.1,-10.595,-12.86
9339.8,-10.327,-12.644
9351.6,-11.385,-11.728
9363.3,-11.521,-10.882
9375,-12.361,-12.775
9386.7,-11.323,-11.691
9398.4,-11.31,-11.976
9410.2,-10.965,-12.335
9421.9,-10.273,-10.716
9433.6,-12.448,-13.809
9445.3,-14.06,-14.198
9457,-13.147,-12.337
9468.8,-11.602,-11.308
9480.5,-9.5664,-12.054
9492.2,-6.2245,-12.376
9503.9,-6.9637,-12.272
9515.6,-9.4419,-11.966
9527.3,-11.826,-13.724
9539.1,-11.791,-12.572
9550.8,-10.008,-15.029
9562.5,-7.8514,-10.938
9574.2,-6.9731,-10.821
9585.9,-6.2743,-10.474
9597.7,-7.6693,-13.271
9609.4,-10.428,-13.806
9621.1,-8.6325,-13.052
9632.8,-8.5974,-11.839
9644.5,-9.4846,-11.349
9656.3,-10.146,-10.482
9668,-10.565,-13.716
9679.7,-9.4551,-13.127
9691.4,-7.8315,-10.874
9703.1,-12.172,-9.2632
9714.8,-11.467,-8.6665
9726.6,-10.806,-9.3892
9738.3,-10.104,-10.333
9750,-11.131,-13.652
9761.7,-12.448,-13.527
9773.4,-12.335,-12.744
9785.2,-12.447,-14.688
9796.9,-12.317,-11.221
9808.6,-9.9721,-12.943
9820.3,-12.415,-11.074
9832,-12.96,-10.789
9843.8,-13.855,-9.6479
9855.5,-13.74,-11.804
9867.2,-10.07,-9.6158
9878.9,-10.762,-11.852
9890.6,-13.736,-14.289
9902.3,-9.472,-12.039
9914.1,-7.3013,-12.895
9925.8,-8.4379,-13.704
9937.5,-11.577,-14.189
9949.2,-11.357,-12.937
9960.9,-12.09,-11.548
9972.7,-12.883,-13.868
9984.4,-11.299,-13.567
9996.1,-11.543,-11.225
10008,-12.507,-10.619
10020,-11.582,-10.838
10031,-11.511,-15.064
10043,-13.642,-12.552
10055,-14.829,-10.182
10066,-13.727,-11.292
10078,-12.286,-10.319
10090,-13.921,-12.215
10102,-13.786,-14.589
10113,-16.592,-12.309
10125,-16.171,-11.442
10137,-10.356,-9.4509
10148,-8.7436,-10.078
10160,-9.469,-12.882
10172,-9.521,-13.624
10184,-8.1582,-13.408
10195,-9.1531,-15.384
10207,-10.083,-17.451
10219,-12.097,-15.857
10230,-13.918,-12.067
10242,-12.346,-12.271
10254,-10.227,-13.541
10266,-9.559,-12.351
10277,-11.594,-13.041
10289,-11.469,-14.686
10301,-13.205,-12.384
10313,-9.1288,-12.815
10324,-10.125,-15.576
10336,-10.81,-16.563
10348,-8.6056,-16.261
10359,-8.6859,-15.428
10371,-8.4344,-11.193
10383,-9.7985,-7.5469
10395,-12.635,-8.086
10406,-14.842,-11.817
10418,-14.768,-13.348
10430,-11.315,-13.254
10441,-8.2396,-14.258
10453,-9.2328,-13.933
10465,-10.94,-12.888
10477,-10.367,-15.033
10488,-10.792,-14.267
10500,-12.327,-10.794
10512,-10.207,-12.039
10523,-8.5293,-15.05
10535,-8.2274,-12.091
10547,-12.137,-11.186
10559,-15.201,-10.423
10570,-15.857,-9.8765
10582,-15.383,-10.389
10594,-12.94,-11.378
10605,-10.966,-14.324
10617,-9.7415,-14.526
10629,-8.4766,-14.586
10641,-10.427,-18.026
10652,-13.813,-15.805
10664,-14.747,-14.036
10676,-12.063,-15.201
10688,-10.66,-15.848
10699,-12.09,-16.562
10711,-11.962,-12.836
10723,-11.841,-10.76
10734,-12.146,-11.69
10746,-11.731,-13.36
10758,-10.856,-13.599
10770,-12.336,-15.165
10781,-16.458,-14.586
10793,-14.563,-13.192
10805,-12.261,-14.791
10816,-11.585,-15.213
10828,-11.726,-12.708
10840,-9.9944,-11.554
10852,-10.345,-13.207
10863,-11.363,-13.564
10875,-10.616,-12.642
10887,-8.614,-12.172
10898,-10.719,-14.216
10910,-14.625,-12.483
10922,-13.224,-11.945
10934,-13.471,-12.535
10945,-12.126,-15.29
10957,-13.951,-14.45
10969,-12.94,-13.186
10980,-11.551,-13.537
10992,-11.282,-12.021
11004,-10.982,-14.925
11016,-15.344,-15.507
11027,-14.177,-13.588
11039,-13.052,-15.47
11051,-7.8609,-15.938
11063,-2.3023,-15.3
11074,-6.3643,-13
11086,-11.089,-13.255
11098,-11.165,-13.028
11109,-15.452,-12.915
11121,-14.9,-12.83
11133,-9.9832,-15.57
11145,-10.537,-12.662
11156,-11.295,-14.152
11168,-11.951,-13.057
11180,-8.7537,-13.787
11191,-11.151,-13.937
11203,-10.507,-16.497
11215,-11.989,-18.524
11227,-13.113,-14.739
11238,-12.877,-16.124
11250,-13.2,-15.117
11262,-10.321,-14.313
11273,-11.06,-14.078
11285,-15.049,-14.952
11297,-12.148,-15.157
11309,-12.193,-16.652
11320,-13.297,-14.381
11332,-13.129,-13.261
11344,-11.811,-15.372
11355,-10.199,-15.521
11367,-9.99,-16.183
11379,-13.602,-14.951
11391,-15.37,-12.371
11402,-17.934,-12.571
11414,-11.237,-14.722
11426,-11.057,-16.21
11438,-11.854,-15.351
11449,-10.993,-13.837
11461,-13.832,-15.146
11473,-13.458,-11.279
11484,-11.613,-10.921
11496,-12.54,-15.062
11508,-13.837,-15.535
11520,-13.753,-12.872
11531,-12.345,-14.14
11543,-12.977,-15.77
11555,-12.872,-15.042
11566,-15.03,-14.032
11578,-12.802,-13.532
11590,-12.324,-13.343
11602,-15.423,-16.076
11613,-15.779,-18.325
11625,-11.865,-18.221
11637,-11.303,-16.661
11648,-11.843,-15.014
11660,-10.225,-14.453
11672,-10.987,-14.208
11684,-13.26,-15.904
11695,-11.136,-14.726
11707,-11.906,-15.073
11719,-12.022,-13.551
11730,-10.246,-13.143
11742,-8.9047,-12.846
11754,-9.3983,-13.943
11766,-10.164,-13.745
11777,-8.3581,-11.153
11789,-9.487,-11.763
11801,-10.847,-12.728
11813,-11.972,-11.686
11824,-10.529,-13.499
11836,-11.6,-18.092
11848,-11.82,-12.787
11859,-12.53,-11.508
11871,-12.433,-10.729
11883,-12.97,-13.388
11895,-15.259,-13.421
11906,-11.629,-15.751
11918,-10.721,-19.597
11930,-13.61,-16.101
11941,-10.887,-17.251
11953,-7.6934,-18.154
11965,-8.768,-17.201
11977,-13.076,-16.608
11988,-15.013,-12.332
12000,-13.233,-13.618
12012,-13.934,-17.868
12023,-15.162,-15.361
12035,-11.853,-18.086
12047,-13.203,-14.199
12059,-13.214,-13.002
12070,-13.178,-13.32
12082,-14.937,-12
12094,-17.651,-12.178
12105,-13.355,-13.984
12117,-10.615,-15.901
12129,-13.784,-16.034
12141,-12.623,-16.534
12152,-11.517,-19.444
12164,-13.117,-19.013
12176,-13.156,-17.668
12188,-13.1,-16.607
12199,-13.618,-18.049
12211,-11.463,-15.194
12223,-11.525,-15.536
12234,-11.251,-17.547
12246,-11.249,-15.035
12258,-13.828,-12.401
12270,-14.581,-13.062
12281,-12.473,-13.568
12293,-13.291,-14.685
12305,-13.848,-13.886
12316,-13.906,-14.862
12328,-13.175,-14.316
12340,-13.323,-17.189
12352,-13.917,-17.169
12363,-13.598,-13.534
12375,-11.767,-14.373
12387,-13.738,-18.305
12398,-13.941,-15.932
12410,-12.35,-16.188
12422,-12.076,-14.547
12434,-10.958,-16.739
12445,-9.8275,-17.499
12457,-10.326,-15.514
12469,-11.91,-15.476
12480,-10.583,-13.676
12492,-12.297,-14.546
12504,-17.925,-17.636
12516,-11.535,-17.575
12527,-10.452,-16.739
12539,-11.458,-15.234
12551,-10.863,-14.935
12563,-12.809,-15.445
12574,-12.103,-15.54
12586,-13.371,-15.113
12598,-13.707,-16.776
12609,-12.61,-17.349
12621,-11.55,-14.419
12633,-12.99,-12.343
12645,-16.55,-15.518
12656,-17.259,-18.206
12668,-15.395,-18.213
12680,-12.815,-18.55
12691,-13.954,-14.685
12703,-11.294,-13.323
12715,-12.397,-11.655
12727,-13.905,-11.349
12738,-12.396,-15.701
12750,-12.755,-17.527
12762,-15.178,-17.178
12773,-12.943,-17.718
12785,-13.538,-18.207
12797,-13.715,-16.919
12809,-10.886,-15.683
12820,-11.777,-15.459
12832,-12.379,-16.419
12844,-14.997,-18.911
12855,-13.614,-16.66
12867,-9.8824,-16.714
12879,-10.525,-15.788
12891,-13.192,-15.135
12902,-11.115,-18.894
12914,-12.104,-15.788
12926,-18.049,-15.369
12938,-15.023,-15.94
12949,-13.575,-15.396
12961,-13.385,-18.304
12973,-15.454,-16.891
12984,-11.73,-16.473
12996,-10.774,-15.024
13008,-10.716,-15.762
13020,-10.488,-14.911
13031,-10.781,-16.056
13043,-13.194,-16.138
13055,-15.927,-15.419
13066,-15.009,-15.425
13078,-13.775,-15.234
13090,-12.094,-15.019
13102,-14.953,-15.138
13113,-14.793,-14.266
13125,-12.957,-15.981
13137,-13.21,-15.73
13148,-14.595,-16.605
13160,-13.906,-16.848
13172,-11.343,-15.142
13184,-11.525,-18.799
13195,-14.162,-13.889
13207,-15.713,-13.804
13219,-14.175,-16.316
13230,-13.216,-15.551
13242,-13.458,-14.949
13254,-13.742,-15.965
13266,-13.826,-16.365
13277,-14.244,-19.224
13289,-17.105,-18.155
13301,-14.472,-15.194
13313,-16.616,-14.359
13324,-15.097,-14.981
13336,-16.265,-15.55
13348,-14.044,-16.12
13359,-12.707,-15.687
13371,-11.886,-14.843
13383,-12.66,-17.443
13395,-15.755,-16.35
13406,-16.268,-17.989
13418,-14.651,-15.191
13430,-13.69,-17.536
13441,-14.323,-16.552
13453,-15.53,-16.084
13465,-17.488,-14.359
13477,-14.605,-16.423
13488,-13.824,-15.868
13500,-15.736,-13.16
13512,-15.741,-13.389
13523,-15.69,-15.184
13535,-12.862,-14.764
13547,-12.596,-18.21
13559,-13.474,-19.783
13570,-11.84,-17.424
13582,-10.845,-15.068
13594,-13.022,-14.155
13605,-16.238,-15.58
13617,-14.765,-18.138
13629,-17.692,-15.303
13641,-17.381,-12.393
13652,-15.591,-13.356
13664,-12.7,-15.931
13676,-12.167,-15.763
13688,-15.216,-17.265
13699,-14.446,-17.691
13711,-17.467,-14.606
13723,-18.363,-15.406
13734,-15.012,-12.899
13746,-16.049,-14.413
13758,-15.571,-16.656
13770,-16.6,-19.192
13781,-19.348,-16.125
13793,-16.925,-18.538
13805,-18.162,-18.205
13816,-14.011,-16.879
13828,-12.309,-17.584
13840,-14.132,-17.536
13852,-14.897,-17.155
13863,-14.841,-12.022
13875,-12.639,-14.244
13887,-13.942,-16.957
13898,-15.196,-15.422
13910,-15.038,-16.421
13922,-17.844,-18.009
13934,-15.989,-16.589
13945,-15.099,-15.281
13957,-16.812,-14.581
13969,-14.841,-14.628
13980,-14.747,-16.967
13992,-15.409,-16.15
14004,-17.496,-16.579
14016,-23.27,-16.678
14027,-19.067,-15.714
14039,-17.272,-17.796
14051,-16.488,-17.725
14063,-13.506,-16.411
14074,-15.819,-19.961
14086,-17.798,-15.63
14098,-14.976,-15.189
14109,-15.003,-19.019
14121,-15.381,-18.45
14133,-14.701,-17.517
14145,-16.857,-14.821
14156,-17.764,-16.788
14168,-17.074,-16.773
14180,-13.557,-21.455
14191,-15.012,-16.699
14203,-14.236,-16.586
14215,-13.968,-15.965
14227,-15.577,-17.412
14238,-15.699,-17.659
14250,-13.854,-17.76
14262,-13.984,-16.165
14273,-19.038,-14.123
14285,-16.819,-16.402
14297,-14.53,-18.909
14309,-15.001,-17.84
14320,-17.115,-19.753
14332,-18.874,-17.894
14344,-17.294,-16.311
14355,-16.134,-16.662
14367,-15.899,-18.486
14379,-16.053,-19.068
14391,-17.47,-17.795
14402,-16.436,-17.572
14414,-17.31,-16.823
14426,-16.126,-18.333
14438,-20.416,-19.292
14449,-15.902,-19.953
14461,-15.602,-21.085
14473,-17.397,-16.162
14484,-18.054,-16.498
14496,-16.049,-19.256
14508,-15.276,-16.841
14520,-17.047,-17.268
14531,-16.428,-18.955
14543,-14.216,-17.935
14555,-15.194,-17.826
14566,-15.879,-21.608
14578,-14.624,-19.908
14590,-15.585,-17.374
14602,-13.46,-16.641
14613,-16.657,-17.623
14625,-16.462,-15.715
14637,-16.288,-16.368
14648,-21.449,-17.842
14660,-14.563,-16.346
14672,-13.916,-16.026
14684,-17.521,-19.065
14695,-17.129,-16.783
14707,-18.207,-15.49
14719,-18.451,-17.184
14730,-16.309,-19.851
14742,-16.373,-16.218
14754,-13.066,-15.527
14766,-14.92,-18.551
14777,-15.979,-16.19
14789,-17.244,-15.199
14801,-17.421,-18.12
14813,-14.359,-16.836
14824,-14.18,-16.755
14836,-16.94,-17.366
14848,-17.952,-18.52
14859,-15.899,-20.61
14871,-15.467,-19.579
14883,-14.106,-20.383
14895,-14.814,-19.396
14906,-16.891,-16.757
14918,-19.086,-16.832
14930,-18.026,-16.756
14941,-15.893,-18.745
14953,-18.911,-19.982
14965,-15.741,-17.451
14977,-15.198,-19.526
14988,-17.207,-19.961
15000,-19.716,-13.78
15012,-21.591,-12.388
15023,-20.566,-17.052
15035,-17.598,-18.787
15047,-14.649,-18.192
15059,-14.736,-18.038
15070,-16.783,-16.491
15082,-18.048,-19.03
15094,-20.009,-17.881
15105,-18.004,-16.479
15117,-17.048,-18.177
15129,-16.271,-20.171
15141,-16.683,-19.112
15152,-15.824,-20.392
15164,-16.4,-22.263
15176,-16.557,-17.433
15188,-22.163,-15.694
15199,-18.751,-18.584
15211,-16.429,-18.567
15223,-17.655,-18.314
15234,-16.677,-18.942
15246,-21.007,-19.077
15258,-19.154,-16.356
15270,-16.005,-17.879
15281,-19.815,-18.816
15293,-17.796,-18.813
15305,-18.17,-18.755
15316,-18.665,-18.271
15328,-17.222,-19.586
15340,-20.893,-18.457
15352,-18.811,-19.508
15363,-16.988,-17.575
15375,-19.919,-15.763
15387,-17.551,-15.503
15398,-17.477,-17.301
15410,-20.296,-18.272
15422,-20.325,-18.797
15434,-16.887,-20.165
15445,-17.812,-19.91
15457,-17.639,-17.722
15469,-16.622,-17.925
15480,-17.532,-18.626
15492,-21.366,-20.587
15504,-17.422,-20.817
15516,-16.303,-20.404
15527,-20.458,-21.573
15539,-18.755,-20.079
15551,-15.949,-19.627
15563,-16.118,-19.417
15574,-16.701,-16.567
15586,-18.489,-17.413
15598,-18.389,-18.193
15609,-17.229,-18.829
15621,-18.973,-17.72
15633,-17.765,-17.463
15645,-17.435,-17.612
15656,-17.666,-18.733
15668,-19.127,-20.365
15680,-19.787,-18.484
15691,-19.863,-19.411
15703,-20.402,-22.558
15715,-17.403,-20.492
15727,-16.405,-19.453
15738,-16.531,-20.059
15750,-16.455,-19.818
15762,-19.845,-22.016
15773,-22.026,-18.801
15785,-19.44,-19.604
15797,-14.349,-19.908
15809,-17.856,-19.931
15820,-19.061,-17.968
15832,-18.865,-17.89
15844,-21.406,-18.421
15855,-20.643,-19.863
15867,-18.666,-18.062
15879,-17.311,-18.139
15891,-17.893,-16.84
15902,-18.1,-17.714
15914,-19.697,-20.511
15926,-17.661,-19.244
15938,-17.421,-19.179
15949,-17.219,-18.265
15961,-17.372,-18.479
15973,-19.538,-19.679
15984,-18.803,-19.31
15996,-17.532,-20.259
16008,-15.81,-19.609
16020,-18.774,-19.166
16031,-21.037,-18.079
16043,-20.192,-18.069
16055,-20.936,-19.898
16066,-20.102,-16.735
16078,-17.903,-18.582
16090,-19.727,-20.372
16102,-19.195,-20.104
16113,-17.554,-18.402
16125,-18.49,-20.261
16137,-19.339,-20.628
16148,-19.531,-22.942
16160,-19.903,-19.488
16172,-20.623,-20.241
16184,-20.717,-21.927
16195,-22.212,-19.167
16207,-21.642,-18.075
16219,-20.131,-19.236
16230,-19.508,-23.139
16242,-18.574,-22.178
16254,-21.674,-21.017
16266,-20.422,-20.538
16277,-22.555,-20.815
16289,-20.23,-21.381
16301,-19.667,-20.041
16313,-18.332,-21.358
16324,-18.252,-19.911
16336,-19.556,-20.585
16348,-21.328,-19.935
16359,-21.152,-19.927
16371,-19.389,-21.29
16383,-18.689,-17.561
16395,-20.408,-17.788
16406,-20.011,-19.111
16418,-20.293,-19.476
16430,-21.713,-18.713
16441,-20.508,-18.305
16453,-20.647,-19.089
16465,-19.685,-21.543
16477,-18.159,-23.505
16488,-18.798,-19.151
16500,-19.354,-18.373
16512,-17.555,-19.992
16523,-17.856,-20.716
16535,-21.238,-20.309
16547,-23.701,-18.154
16559,-22.293,-19.892
16570,-25.23,-19.642
16582,-24.628,-18.018
16594,-20.817,-22.516
16605,-20.211,-19.211
16617,-20.254,-20.781
16629,-21.107,-18.949
16641,-19.274,-20.276
16652,-17.46,-20.185
16664,-20.721,-19.152
16676,-22.572,-18.994
16688,-18.361,-20.988
16699,-18.994,-21.075
16711,-21.419,-19.375
16723,-18.242,-18.903
16734,-19.836,-21.309
16746,-20.283,-21.619
16758,-21.473,-21.941
16770,-21.216,-21.345
16781,-21.337,-18.621
16793,-24.247,-21.267
16805,-21.778,-20.857
16816,-18.77,-20.439
16828,-20.708,-21.64
16840,-19.363,-22.746
16852,-18.988,-18.35
16863,-20.759,-19.581
16875,-21.644,-19.846
16887,-23.193,-18.333
16898,-23.453,-20.951
16910,-21.647,-19.712
16922,-19.312,-16.459
16934,-19.592,-18.385
16945,-20.286,-22.135
16957,-20.472,-20.052
16969,-20.355,-21.263
16980,-20.368,-21.748
16992,-20.133,-20.492
17004,-21.527,-21.826
17016,-22.322,-21.951
17027,-20.956,-22.322
17039,-18.905,-24.842
17051,-19.151,-24.12
17063,-20.046,-24.71
17074,-19.784,-21.808
17086,-21.895,-23.14
17098,-22.884,-20.285
17109,-21.255,-20.91
17121,-18.735,-19.708
17133,-21.208,-17.834
17145,-21.141,-20.969
17156,-22.22,-21.615
17168,-20.905,-20.23
17180,-18.75,-20.562
17191,-19.906,-22.8
17203,-21.257,-21.686
17215,-17.501,-20.606
17227,-17.496,-20.12
17238,-20.341,-19.488
17250,-21.491,-19.007
17262,-23.363,-21.484
17273,-21.6,-21.118
17285,-18.999,-19.765
17297,-21.326,-21.703
17309,-19.577,-24.15
17320,-21.273,-25.659
17332,-21.51,-21.969
17344,-18.594,-23.456
17355,-19.077,-19.394
17367,-22.768,-19.33
17379,-22.681,-22.83
17391,-24.17,-21.969
17402,-21.426,-21.214
17414,-23.167,-23.11
17426,-21.155,-22.022
17438,-22.537,-22.904
17449,-21.361,-23.696
17461,-22.591,-23.67
17473,-20.434,-21.907
17484,-21.43,-21.725
17496,-23.339,-21.816
17508,-25.586,-23.034
17520,-25.788,-22.951
17531,-22.348,-20.922
17543,-17.739,-22.639
17555,-19.486,-22.47
17566,-22.833,-21.64
17578,-22.347,-22.094
17590,-22.569,-22.98
17602,-20.983,-23.761
17613,-23.408,-22.451
17625,-22.554,-22.902
17637,-21.751,-25.812
17648,-22.59,-24.644
17660,-23.438,-24.342
17672,-21.441,-23.782
17684,-20.046,-24.377
17695,-21.106,-23.254
17707,-22.147,-22.141
17719,-22.417,-24.795
17730,-22.061,-23.659
17742,-24.657,-23.149
17754,-23.345,-22.441
17766,-23.913,-20.92
17777,-20.887,-21.98
17789,-20.808,-24.616
17801,-20.786,-23.601
17813,-19.27,-23.129
17824,-21.832,-23.338
17836,-22.075,-25.078
17848,-22.372,-24.73
17859,-25.267,-24.407
17871,-26.336,-24.039
17883,-22.619,-24.398
17895,-20.573,-19.538
17906,-21.356,-20.579
17918,-19.522,-22.61
17930,-21.897,-21.092
17941,-23.159,-20.864
17953,-21.165,-21.203
17965,-24.103,-20.024
17977,-26.081,-22.289
17988,-24.495,-22.291
18000,-23.03,-21.375
18012,-22.144,-20.853
18023,-23.969,-22.727
18035,-22.186,-23.754
18047,-19.925,-24.18
18059,-21.645,-24.23
18070,-25.335,-23.392
18082,-23.932,-22.103
18094,-19.54,-20.132
18105,-21.518,-21.808
18117,-25.009,-21.793
18129,-23.451,-23.263
18141,-23.284,-21.964
18152,-23.194,-21.926
18164,-22.978,-24.514
18176,-26.085,-25.266
18188,-23.67,-23.723
18199,-22.886,-21.422
18211,-21.604,-23.513
18223,-23.169,-25.692
18234,-23.083,-23.049
18246,-19.808,-21.247
18258,-17.812,-21.078
18270,-19.298,-24.59
18281,-21.492,-25.437
18293,-22.145,-27.325
18305,-21.03,-24.598
18316,-21.79,-24.475
18328,-22.675,-22.932
18340,-20.843,-24.599
18352,-20.893,-24.989
18363,-19.309,-22.317
18375,-23.94,-22.013
18387,-24.514,-25.615
18398,-23.617,-28.45
18410,-23.806,-25.164
18422,-24.143,-23.145
18434,-22.792,-23.071
18445,-23.773,-24.509
18457,-24.193,-22.041
18469,-23.234,-23.162
18480,-25.325,-25.742
18492,-25.595,-23.848
18504,-23.685,-21.83
18516,-22.15,-24.21
18527,-20.973,-23.287
18539,-25.825,-21.89
18551,-25.596,-21.301
18563,-23.618,-22.371
18574,-22.688,-22.607
18586,-22.223,-24.245
18598,-22.933,-25.146
18609,-21.78,-23.948
18621,-20.16,-23.221
18633,-21.015,-22.503
18645,-22.591,-22.905
18656,-22.566,-21.205
18668,-21.135,-23.85
18680,-23.763,-23.513
18691,-24.545,-22.666
18703,-23.962,-22.381
18715,-24.448,-22.353
18727,-21.583,-24.65
18738,-22.419,-25.56
18750,-24.334,-24.577
18762,-24.018,-22.109
18773,-21.581,-22.222
18785,-21.189,-23.744
18797,-26.267,-23.833
18809,-24.208,-24.659
18820,-24.074,-23.715
18832,-25.323,-21.529
18844,-23.602,-26.957
18855,-22.471,-25.969
18867,-20.849,-23.52
18879,-19.793,-22.257
18891,-23.299,-23.562
18902,-26.496,-24.68
18914,-26.724,-25.889
18926,-26.249,-28.5
18938,-25.43,-22.99
18949,-25.515,-22.241
18961,-26.809,-24.149
18973,-23.386,-23.535
18984,-23.893,-24.585
18996,-26.348,-20.728
19008,-21.249,-18.219
19020,-21.093,-22.331
19031,-24.769,-25.651
19043,-24.739,-23.692
19055,-23.856,-22.258
19066,-23.322,-23.57
19078,-25.204,-24.684
19090,-22.911,-24.686
19102,-26.03,-22.667
19113,-23.828,-22.944
19125,-20.569,-25.064
19137,-20.864,-22.915
19148,-23.527,-26.226
19160,-21.747,-28.318
19172,-19.877,-30.005
19184,-24.287,-25.396
19195,-25.434,-25.764
19207,-26.129,-24.066
19219,-23.224,-21.194
19230,-23.085,-21.777
19242,-25.518,-24.297
19254,-27.624,-27.112
19266,-25.859,-21.07
19277,-26.296,-19.35
19289,-26.417,-24.226
19301,-23.984,-24.385
19313,-22.474,-22.666
19324,-22.769,-22.954
19336,-22.505,-25.071
19348,-21.796,-26.52
19359,-22.916,-27.163
19371,-23.615,-26.307
19383,-22.755,-24.858
19395,-23.461,-24.611
19406,-23.078,-23.836
19418,-22.202,-24.739
19430,-22.656,-25.428
19441,-24.401,-24.82
19453,-23.639,-28.053
19465,-26.091,-25.849
19477,-27.015,-24.094
19488,-25.775,-22.806
19500,-26.237,-25.606
19512,-20.763,-24.344
19523,-20.371,-22.487
19535,-26.047,-24.377
19547,-24.96,-23.864
19559,-25.62,-23.903
19570,-23.483,-25.687
19582,-21.29,-23.153
19594,-25.264,-23.318
19605,-22.88,-22.628
19617,-24.1,-26.828
19629,-21.552,-28.257
19641,-20.622,-28.103
19652,-24.376,-25.089
19664,-27.495,-21.308
19676,-25.693,-20.792
19688,-22.692,-21.921
19699,-20.71,-24.684
19711,-21.244,-23.166
19723,-25.48,-22.059
19734,-24.653,-23.435
19746,-23.054,-24.237
19758,-22.175,-23.066
19770,-24.715,-24.627
19781,-24.846,-27.155
19793,-25.567,-24.662
19805,-26.333,-27.207
19816,-26.159,-29.475
19828,-28.036,-24.528
19840,-28.111,-25.504
19852,-24.449,-23.858
19863,-22.305,-28.158
19875,-22.792,-26.818
19887,-23.476,-23.844
19898,-21.342,-24.626
19910,-23.942,-26.345
19922,-27.531,-26.224
19934,-26.159,-23.894
19945,-25.059,-23.947
19957,-25.741,-24.969
19969,-27.215,-25.045
19980,-27.58,-28.139
19992,-27.14,-25.803
20004,-26.955,-23.261
20016,-27.803,-25.899
20027,-22.226,-28.082
20039,-22.385,-24.993
20051,-26.33,-24.054
20063,-27.079,-24.857
20074,-25.664,-24.516
20086,-26.118,-23.472
20098,-30.146,-23.294
20109,-24.972,-25.122
20121,-27.772,-26.477
20133,-27.042,-25.406
20145,-26.219,-24.611
20156,-26.741,-25.507
20168,-27.422,-25.039
20180,-25.714,-24.289
20191,-25.447,-22.836
20203,-22.167,-24.716
20215,-22.368,-25.887
20227,-24.423,-23.885
20238,-25.222,-23.034
20250,-26.317,-25.551
20262,-25.145,-25.926
20273,-24.635,-25.674
20285,-24.756,-24.723
20297,-25.556,-26.283
20309,-24.274,-25.947
20320,-24.659,-26.204
20332,-22.564,-25.684
20344,-22.272,-24.777
20355,-23.735,-23.705
20367,-24.395,-23.116
20379,-26.8,-23.997
20391,-24.823,-25.721
20402,-24.639,-28.351
20414,-23.781,-29.081
20426,-24.945,-28.57
20438,-24.737,-27.006
20449,-23.929,-26.326
20461,-22.425,-27.127
20473,-24.621,-25.661
20484,-26.777,-27.103
20496,-23.61,-25.832
20508,-23.113,-26.139
20520,-24.29,-28.961
20531,-26.856,-28.123
20543,-27.849,-26.326
20555,-29.216,-26.804
20566,-29.202,-26.193
20578,-28.046,-27.646
20590,-27.175,-26.985
20602,-25.209,-24.362
20613,-25.898,-25.554
20625,-25.782,-27.208
20637,-26.771,-27.07
20648,-23.461,-26.806
20660,-23.866,-27.919
20672,-26.818,-27.022
20684,-26.896,-26.484
20695,-27.571,-25.867
20707,-26.148,-26.206
20719,-23.16,-26.215
20730,-24.631,-27.004
20742,-28.447,-27.107
20754,-28.747,-25.22
20766,-26.304,-23.854
20777,-23.437,-26.035
20789,-22.991,-23.983
20801,-25.81,-24.342
20813,-24.737,-24.235
20824,-25.811,-23.168
20836,-24.702,-27.362
20848,-28.295,-24.722
20859,-23.967,-25.582
20871,-24.164,-25.848
20883,-26.584,-26.733
20895,-24.125,-26.56
20906,-24.536,-23.931
20918,-27.296,-24.965
20930,-28.027,-26.067
20941,-25.858,-24.516
20953,-25.158,-26.486
20965,-25.321,-27.146
20977,-24.838,-26.362
20988,-26.164,-25.485
21000,-27.7,-24.307
21012,-24.52,-22.801
21023,-25.457,-24.824
21035,-29.58,-23.284
21047,-26.958,-23.215
21059,-27.973,-23.276
21070,-27.646,-23.109
21082,-24.734,-26.329
21094,-22.55,-26.575
21105,-24.32,-25.872
21117,-26.596,-25.648
21129,-29.553,-26.445
21141,-29.104,-26.001
21152,-26.539,-25.515
21164,-25.587,-24.952
21176,-25.197,-24.013
21188,-25.876,-25.55
21199,-25.505,-25.032
21211,-27.539,-24.716
21223,-26.367,-27.977
21234,-27.631,-26.298
21246,-28.922,-26.822
21258,-26.416,-25.267
21270,-24.959,-26.778
21281,-23.138,-26.617
21293,-22.752,-24.324
21305,-27.089,-26.008
21316,-27.655,-29.224
21328,-26.213,-29.422
21340,-24.847,-26.422
21352,-26.539,-26.684
21363,-28.881,-25.201
21375,-25.084,-24.428
21387,-26.438,-26.334
21398,-25.141,-28.104
21410,-25.173,-27.994
21422,-26.521,-25.219
21434,-27.937,-24.958
21445,-26.971,-26.607
21457,-28.083,-26.998
21469,-28.719,-23.712
21480,-26.32,-24.838
21492,-28.687,-25.945
21504,-30.458,-26.736
21516,-27.806,-26.26
21527,-25.908,-28.187
21539,-25.011,-32.595
21551,-29.631,-28.515
21563,-25.654,-24.7
21574,-25.299,-27.682
21586,-28.54,-26.511
21598,-27.675,-27.812
21609,-26.238,-28.44
21621,-26.874,-25.715
21633,-26.084,-25.923
21645,-25.293,-29.003
21656,-27.791,-26.753
21668,-27.802,-24.341
21680,-27.356,-25.037
21691,-26.705,-25.848
21703,-23.631,-25.103
21715,-24.116,-25.96
21727,-26.653,-28.434
21738,-27.819,-28.003
21750,-23.936,-25.869
21762,-23.236,-27.676
21773,-24.663,-27.373
21785,-26.223,-26.722
21797,-27.104,-27.951
21809,-28.784,-24.938
21820,-26.789,-26.97
21832,-28.646,-29.011
21844,-23.874,-28.791
21855,-22.875,-29.585
21867,-24.601,-27.517
21879,-26.139,-24.678
21891,-27.436,-25.495
21902,-26.279,-27.301
21914,-24.454,-31.274
21926,-27.464,-32.089
21938,-25.151,-31.744
21949,-28.866,-30.488
21961,-27.372,-28.353
21973,-26.994,-26.543
21984,-28.154,-25.937
21996,-26.805,-26.778
22008,-26.54,-28.784
22020,-28.259,-29.584
22031,-27.734,-29.019
22043,-25.605,-25.982
22055,-27.312,-24.632
22066,-26.302,-27.812
22078,-26.691,-26.515
22090,-29.06,-22.741
22102,-24.933,-24.406
22113,-24.705,-28.066
22125,-24.735,-28.591
22137,-23.914,-27.257
22148,-27.456,-23.112
22160,-27.873,-26.014
22172,-26.857,-28.023
22184,-27.312,-24.897
22195,-26.195,-25.328
22207,-26.097,-26.306
22219,-27.644,-28.474
22230,-27.35,-29.245
22242,-26.222,-30.133
22254,-29.184,-31.152
22266,-25.33,-26.522
22277,-25.182,-25.806
22289,-29.082,-26.645
22301,-29.99,-25.882
22313,-29.756,-25.493
22324,-29.691,-27.202
22336,-28.262,-27.188
22348,-28.742,-28.446
22359,-28.654,-25.934
22371,-27.501,-26.011
22383,-29.484,-27.469
22395,-27.69,-28.176
22406,-24.046,-28.724
22418,-25.075,-26.547
22430,-26.734,-29.386
22441,-26.025,-27.791
22453,-25.003,-31.304
22465,-27.342,-25.228
22477,-28.74,-27.705
22488,-27.937,-27.795
22500,-30.164,-25.804
22512,-27.017,-24.943
22523,-26.771,-26.569
22535,-26.398,-31.328
22547,-27.891,-29.925
22559,-27.333,-27.793
22570,-23.702,-26.891
22582,-23.819,-26.452
22594,-25.103,-28.764
22605,-25.522,-30.093
22617,-28.874,-29.098
22629,-29.267,-26.782
22641,-28.686,-26.918
22652,-28.191,-28.478
22664,-26.16,-30.23
22676,-28.571,-28.513
22688,-28.802,-28.277
22699,-29.736,-30.662
22711,-28.105,-32.24
22723,-29.995,-30.837
22734,-30.319,-31.121
22746,-29.339,-30.65
22758,-27.397,-28.613
22770,-28.625,-26.748
22781,-29.381,-26.175
22793,-28.266,-25.489
22805,-26.238,-30.621
22816,-25.452,-29.999
22828,-26.619,-29.147
22840,-27.782,-27.493
22852,-25.317,-29.719
22863,-26.247,-28.824
22875,-27.371,-28.075
22887,-27.274,-28.756
22898,-28.268,-28.838
22910,-29.102,-28.533
22922,-30.859,-29.38
22934,-29.722,-28.906
22945,-32.829,-26.598
22957,-26.839,-27.015
22969,-28.387,-28.403
22980,-27.342,-25.127
22992,-27.732,-24.261
23004,-27.982,-27.851
23016,-28.267,-25.74
23027,-30.958,-25.192
23039,-27.834,-25.744
23051,-26.837,-27.395
23063,-28.091,-30.639
23074,-29.091,-26.53
23086,-29.313,-26.871
23098,-26.321,-30.109
23109,-27.579,-27.107
23121,-28.16,-27.933
23133,-29.701,-28.168
23145,-28.213,-26.062
23156,-26.424,-29.491
23168,-29.163,-29.042
23180,-27.985,-28.615
23191,-25.654,-30.808
23203,-27.839,-30.031
23215,-30.006,-29.514
23227,-31.171,-26.98
23238,-31.431,-28.258
23250,-29.892,-29.173
23262,-29.445,-31.58
23273,-25.12,-30.942
23285,-23.922,-29.596
23297,-25.058,-28.179
23309,-24.081,-30.335
23320,-27.817,-32.188
23332,-29.118,-29.305
23344,-28.639,-27.577
23355,-29.055,-29.403
23367,-27.12,-30.02
23379,-27.02,-27.947
23391,-31.126,-31.583
23402,-30.639,-31.045
23414,-27.98,-29.048
23426,-25.896,-28.771
23438,-28.009,-27.738
23449,-29.49,-28.531
23461,-26.255,-29.697
23473,-26.209,-28.782
23484,-27.127,-29.97
23496,-26.829,-29.843
23508,-26.952,-29.95
23520,-33.557,-29.709
23531,-29.946,-32.493
23543,-26.616,-27.846
23555,-27.596,-25.782
23566,-27.084,-25.337
23578,-25.897,-26.924
23590,-28.507,-29.571
23602,-28.987,-27.397
23613,-27.223,-25.665
23625,-27.95,-25.622
23637,-27.657,-24.709
23648,-26.248,-25.86
23660,-27.611,-28.902
23672,-28.512,-28.295
23684,-27.233,-29.066
23695,-26.039,-29.812
23707,-26.158,-29.24
23719,-25.856,-29.06
23730,-27.898,-28.648
23742,-32.842,-29.232
23754,-32.565,-29.204
23766,-29.845,-29.567
23777,-33.086,-29.738
23789,-28.787,-30.045
23801,-28.633,-29.463
23813,-27.689,-29.638
23824,-29.88,-31.644
23836,-27.857,-30.67
23848,-26.668,-30.004
23859,-27.95,-30.355
23871,-30.924,-28.917
23883,-29.432,-26.907
23895,-27.728,-27.247
23906,-30.286,-28.715
23918,-27.011,-29.987
23930,-28.107,-31.323
23941,-22.163,-27.677
23953,-15.715,-27.739
23965,-19.331,-28.375
23977,-28.883,-28.634
23988,-24.709,-27.142
