FFT,Power Spectrum
Frequency[Hz],Level-L[dB],Level-R[dB]
11.719,-3.8951,-62.739
23.438,15.597,-56.418
35.156,13.08,-41.811
46.875,12.89,-26.654
58.594,15.779,-24.91
70.313,16.429,-28.416
82.031,18.303,-26.797
93.75,20.638,-25.556
105.47,20.623,-24.189
117.19,17.322,-24.043
128.91,18.803,-20.895
140.63,23.2,-15.109
152.34,20.811,-11.341
164.06,14.608,-14.634
175.78,16.621,-16.826
187.5,17.532,-16.601
199.22,20.307,-15.567
210.94,17.856,-18.454
222.66,11.415,-17.757
234.38,20.172,-17.815
246.09,20.31,-12.787
257.81,19.118,-13.055
269.53,17.965,-15.9
281.25,18.236,-16.954
292.97,19.907,-15.533
304.69,18.527,-17.39
316.41,16.914,-15.165
328.13,15.789,-13.271
339.84,14.151,-15.613
351.56,13.146,-14.428
363.28,13.734,-13.957
375,16.69,-14.716
386.72,15.856,-15.559
398.44,16.338,-14.164
410.16,18.726,-13.256
421.88,18.071,-14.438
433.59,16.916,-14.146
445.31,17.273,-12.425
457.03,16.635,-10.433
468.75,18.66,-11.971
480.47,19.017,-14.877
492.19,19.337,-12.957
503.91,18.498,-10.488
515.63,16.465,-11.713
527.34,14.715,-12.985
539.06,15.66,-11.861
550.78,17.575,-11.914
562.5,20.33,-10.825
574.22,21.954,-8.0215
585.94,22.397,-9.5654
597.66,20.101,-9.0288
609.38,18.968,-10.409
621.09,23.07,-11.849
632.81,24.474,-8.1663
644.53,20.455,-8.9417
656.25,16.894,-10.312
667.97,18.829,-8.7429
679.69,20.325,-7.8366
691.41,16.91,-10.311
703.13,15.587,-11.026
714.84,15.84,-7.7916
726.56,18.335,-8.7115
738.28,16.619,-7.3429
750,13.426,-7.4235
761.72,16.829,-8.974
773.44,17.217,-9.4341
785.16,16.848,-8.1671
796.88,13.881,-10.174
808.59,13.761,-13.087
820.31,17.226,-8.191
832.03,16.359,-6.3743
843.75,13.992,-9.4417
855.47,16.705,-10.546
867.19,16.115,-9.2335
878.91,13.577,-7.8602
890.63,18.393,-10.189
902.34,18.2,-12.034
914.06,14.908,-10.179
925.78,17.503,-9.0393
937.5,20.18,-9.9613
949.22,17.655,-9.4053
960.94,17.114,-6.7308
972.66,17.347,-7.0169
984.38,16.496,-6.2204
996.09,14.682,-6.9893
1007.8,14.85,-10.347
1019.5,14.748,-14.702
1031.3,15.664,-12.902
1043,17.305,-9.4781
1054.7,15.474,-7.9219
1066.4,16.39,-7.6848
1078.1,16.201,-7.3938
1089.8,14.44,-10.189
1101.6,15.694,-9.3126
1113.3,16.852,-9.9301
1125,15.046,-7.8899
1136.7,16.578,-11.358
1148.4,15.551,-12.157
1160.2,15.952,-10.727
1171.9,16.008,-7.4367
1183.6,16.282,-6.8553
1195.3,15.19,-7.8041
1207,19.317,-8.0248
1218.8,19.663,-5.8011
1230.5,15.296,-7.9381
1242.2,14.887,-9.3095
1253.9,15.885,-8.4684
1265.6,17.737,-6.4004
1277.3,16.01,-4.398
1289.1,17.374,-5.2627
1300.8,17.583,-7.6841
1312.5,17.323,-7.8433
1324.2,17.391,-9.8313
1335.9,15.055,-7.3189
1347.7,12.765,-9.4967
1359.4,14.64,-13.613
1371.1,17.135,-8.7632
1382.8,13.452,-6.8027
1394.5,12.538,-5.8175
1406.3,18.085,-5.3001
1418,19.447,-4.0102
1429.7,18.957,-6.9362
1441.4,17.467,-7.5722
1453.1,16.887,-6.3923
1464.8,17.584,-6.5641
1476.6,15.237,-7.4308
1488.3,13.68,-7.455
1500,15.62,-7.5692
1511.7,15.608,-7.888
1523.4,17.273,-7.6697
1535.2,18.485,-9.0787
1546.9,18.898,-8.0313
1558.6,16.982,-7.895
1570.3,13.675,-8.0254
1582,13.216,-7.3344
1593.8,16.527,-7.7016
1605.5,18.504,-7.4822
1617.2,19.489,-7.1046
1628.9,17.9,-7.9004
1640.6,14.273,-6.7335
1652.3,16.073,-8.6567
1664.1,15.894,-8.2162
1675.8,17.563,-3.7856
1687.5,17.126,-5.0383
1699.2,16.127,-7.3406
1710.9,17.495,-6.6152
1722.7,15.413,-6.1386
1734.4,16.462,-7.0132
1746.1,16.994,-4.609
1757.8,16.442,-4.4623
1769.5,17.345,-7.7394
1781.3,16.714,-8.4987
1793,15.303,-7.2924
1804.7,16.753,-5.7084
1816.4,16.363,-6.4641
1828.1,14.057,-7.105
1839.8,15.762,-8.0481
1851.6,12.991,-8.2749
1863.3,18.274,-7.7028
1875,16.05,-7.3866
1886.7,15.393,-5.662
1898.4,14.734,-6.9486
1910.2,16.031,-8.9676
1921.9,15.128,-5.2151
1933.6,13.9,-3.8484
1945.3,12.833,-6.6384
1957,11.456,-7.9276
1968.8,12.013,-7.8082
1980.5,9.926,-6.6652
1992.2,11.164,-6.8532
2003.9,11.449,-9.1603
2015.6,10.024,-7.4959
2027.3,10.604,-5.3062
2039.1,8.6686,-4.144
2050.8,11.801,-2.1067
2062.5,14.527,-3.8373
2074.2,16.143,-7.6032
2085.9,12.394,-8.485
2097.7,11.395,-5.8288
2109.4,11.173,-3.0207
2121.1,9.6259,-6.4509
2132.8,6.9049,-10.871
2144.5,6.8068,-6.4424
2156.3,9.3212,-5.9547
2168,12.727,-8.736
2179.7,10.67,-5.7008
2191.4,12.55,-5.4873
2203.1,10.652,-6.6149
2214.8,12.257,-6.2547
2226.6,11.963,-7.1965
2238.3,9.7626,-7.1294
2250,10.853,-6.3686
2261.7,11.727,-3.8027
2273.4,12.535,-2.8743
2285.2,10.482,-7.2364
2296.9,11.636,-8.4958
2308.6,14.377,-6.7319
2320.3,12.125,-7.2358
2332,11.704,-10.504
2343.8,12.535,-7.6382
2355.5,9.7582,-9.1051
2367.2,12.384,-7.0007
2378.9,14.573,-6.7404
2390.6,14.463,-5.3732
2402.3,14.471,-4.9529
2414.1,10.188,-5.4337
2425.8,8.4223,-8.9199
2437.5,9.4818,-8.9822
2449.2,12.028,-8.8395
2460.9,11.768,-7.6684
2472.7,11.184,-7.312
2484.4,13.943,-5.6625
2496.1,14.599,-6.9221
2507.8,12.536,-7.4193
2519.5,12.336,-7.0152
2531.3,14.751,-5.4599
2543,12.929,-7.8704
2554.7,14.007,-8.5063
2566.4,14.038,-8.4687
2578.1,12.259,-8.9174
2589.8,9.1476,-10.908
2601.6,11.604,-9.7118
2613.3,10.267,-4.4428
2625,9.0184,-4.4941
2636.7,9.3128,-3.3202
2648.4,11.093,-3.7091
2660.2,11.074,-5.3093
2671.9,12.858,-7.5409
2683.6,8.8727,-9.0486
2695.3,8.2806,-8.9045
2707,12.586,-9.4596
2718.8,11.996,-7.8646
2730.5,10.815,-8.7787
2742.2,12.515,-9.8177
2753.9,12.251,-7.7017
2765.6,9.6914,-6.878
2777.3,9.974,-7.5097
2789.1,10.757,-8.1535
2800.8,10.462,-5.9666
2812.5,10.376,-5.2225
2824.2,11.127,-6.1461
2835.9,11.695,-6.2504
2847.7,10.163,-6.4695
2859.4,10.696,-8.6094
2871.1,12.048,-8.9736
2882.8,8.5546,-10.639
2894.5,8.324,-7.433
2906.3,11.566,-6.3376
2918,12.657,-5.9917
2929.7,9.2832,-5.9658
2941.4,9.7518,-6.9308
2953.1,9.3946,-6.3025
2964.8,11.028,-7.0169
2976.6,10.398,-7.0224
2988.3,9.8417,-5.0494
3000,10.938,-6.2893
3011.7,10.593,-5.5059
3023.4,12.124,-5.7563
3035.2,11.85,-5.8837
3046.9,8.2325,-8.6348
3058.6,9.8153,-8.6541
3070.3,11.596,-6.3061
3082,12.61,-6.3448
3093.8,11.953,-9.1394
3105.5,10.6,-5.8489
3117.2,9.8756,-6.857
3128.9,10.02,-6.188
3140.6,7.4711,-6.1595
3152.3,11.434,-5.3106
3164.1,12.058,-6.7808
3175.8,10.272,-10.074
3187.5,11.269,-10.847
3199.2,9.5894,-5.7578
3210.9,11.479,-5.903
3222.7,12.34,-7.9181
3234.4,8.6553,-8.4501
3246.1,7.6025,-8.2367
3257.8,12.547,-6.961
3269.5,12.969,-5.5602
3281.3,9.0554,-8.0936
3293,9.7725,-7.5935
3304.7,9.6004,-6.3145
3316.4,10.871,-7.8121
3328.1,12.921,-8.8239
3339.8,11.468,-8.2108
3351.6,8.1593,-9.7239
3363.3,10.044,-12.109
3375,9.4351,-9.2624
3386.7,13.094,-7.9203
3398.4,13.923,-5.5421
3410.2,9.9394,-6.9933
3421.9,7.2767,-11.165
3433.6,5.7816,-8.9125
3445.3,9.9775,-8.0667
3457,11.52,-6.5733
3468.8,12.739,-5.126
3480.5,11.807,-5.11
3492.2,9.1054,-5.8021
3503.9,7.7903,-6.9866
3515.6,8.4552,-7.02
3527.3,10.693,-4.6032
3539.1,9.9895,-4.1274
3550.8,7.1872,-8.9894
3562.5,11.026,-7.4527
3574.2,17.919,-7.2955
3585.9,18.212,-7.2319
3597.7,10.104,-3.3882
3609.4,10.58,-6.3875
3621.1,8.8075,-7.5371
3632.8,9.3991,-5.9552
3644.5,8.6761,-3.6626
3656.3,8.2845,-3.5958
3668,7.8872,-7.0772
3679.7,10.968,-6.4167
3691.4,10.662,-7.5449
3703.1,8.0513,-9.3673
3714.8,9.8627,-8.6613
3726.6,9.3803,-10.647
3738.3,7.3887,-10.899
3750,9.1068,-9.2361
3761.7,5.4243,-6.4673
3773.4,8.614,-6.9003
3785.2,9.1519,-6.4271
3796.9,7.6394,-5.4453
3808.6,6.7924,-6.9585
3820.3,7.4112,-7.6005
3832,8.0103,-8.9903
3843.8,9.5434,-8.6584
3855.5,8.3233,-6.1351
3867.2,7.167,-5.5559
3878.9,7.6721,-9.019
3890.6,8.0657,-7.2355
3902.3,9.6083,-6.7635
3914.1,9.7012,-5.1198
3925.8,8.9946,-9.5419
3937.5,10.905,-8.706
3949.2,10.743,-6.978
3960.9,12.069,-6.4805
3972.7,12.042,-6.1378
3984.4,11.54,-5.2329
3996.1,12.48,-4.3959
4007.8,10.741,-4.2157
4019.5,9.5756,-4.9459
4031.3,10.862,-8.5432
4043,10.026,-9.0927
4054.7,8.4719,-7.487
4066.4,6.771,-9.0633
4078.1,9.3835,-7.2217
4089.8,9.0919,-4.5924
4101.6,9.1722,-7.0271
4113.3,9.5143,-4.9413
4125,10.428,-5.2839
4136.7,8.449,-9.1409
4148.4,5.7744,-6.3974
4160.2,9.5601,-9.0597
4171.9,8.5601,-9.9733
4183.6,5.9155,-12.353
4195.3,5.5421,-10.279
4207,7.6715,-10.558
4218.8,8.6801,-9.4874
4230.5,9.2079,-7.6661
4242.2,8.3988,-5.5306
4253.9,9.4563,-6.7425
4265.6,11.019,-12.167
4277.3,10.149,-8.5638
4289.1,9.515,-7.1952
4300.8,9.8787,-5.9308
4312.5,10.504,-10.618
4324.2,7.7505,-5.8322
4335.9,9.8557,-6.9924
4347.7,9.5584,-7.8596
4359.4,8.7319,-8.2774
4371.1,5.5139,-9.442
4382.8,7.1532,-6.8593
4394.5,10.632,-7.4094
4406.3,7.2154,-9.8116
4418,8.2631,-9.2915
4429.7,6.5857,-6.9092
4441.4,5.772,-6.1764
4453.1,7.4445,-6.6896
4464.8,8.8441,-7.4584
4476.6,8.8491,-6.9776
4488.3,9.8595,-6.9855
4500,9.5846,-4.7447
4511.7,8.8161,-4.0678
4523.4,8.8505,-5.3256
4535.2,9.8025,-5.2165
4546.9,8.1932,-5.7641
4558.6,3.2872,-7.107
4570.3,6.307,-9.9207
4582,6.144,-10.445
4593.8,5.5444,-7.6536
4605.5,7.2041,-5.5676
4617.2,7.8395,-4.624
4628.9,6.4379,-4.894
4640.6,6.6362,-6.8026
4652.3,10.08,-7.2025
4664.1,9.3991,-8.7696
4675.8,7.3303,-4.9244
4687.5,7.7483,-5.6915
4699.2,7.7345,-8.3659
4710.9,6.4502,-9.86
4722.7,7.8929,-12.141
4734.4,8.7392,-12.159
4746.1,6.8738,-12.688
4757.8,6.0799,-9.4301
4769.5,9.2345,-9.8588
4781.3,8.7796,-6.7454
4793,8.4288,-7.4831
4804.7,7.8082,-8.0603
4816.4,7.7906,-8.1609
4828.1,7.372,-7.3457
4839.8,6.4237,-8.0637
4851.6,7.3384,-7.0976
4863.3,5.7726,-7.3479
4875,8.0099,-7.7608
4886.7,5.1365,-8.6395
4898.4,5.1758,-7.8594
4910.2,9.8771,-9.5869
4921.9,6.7983,-7.3485
4933.6,5.9722,-5.2148
4945.3,5.2405,-4.1519
4957,9.0192,-8.1699
4968.8,10.287,-9.321
4980.5,9.3909,-10.293
4992.2,8.2432,-11.08
5003.9,7.0561,-7.0016
5015.6,3.7086,-5.5316
5027.3,3.074,-9.1286
5039.1,5.026,-13.772
5050.8,9.453,-9.1398
5062.5,8.2654,-7.1302
5074.2,4.7168,-5.4798
5085.9,7.1113,-6.8635
5097.7,8.0363,-7.8735
5109.4,7.0074,-6.7905
5121.1,6.0611,-6.6258
5132.8,5.6758,-6.3654
5144.5,7.4983,-6.7796
5156.3,6.6968,-9.1627
5168,3.9805,-10.283
5179.7,5.7886,-10.536
5191.4,5.6867,-10.297
5203.1,7.2372,-9.6987
5214.8,9.0241,-11.114
5226.6,10.461,-11.155
5238.3,7.1344,-10.48
5250,2.2311,-5.8539
5261.7,3.2124,-5.4512
5273.4,7.663,-6.6197
5285.2,6.4097,-6.6625
5296.9,3.3521,-8.3736
5308.6,4.4126,-8.4816
5320.3,5.4103,-7.2765
5332,9.9363,-9.8293
5343.8,9.9029,-10.976
5355.5,7.7591,-9.7764
5367.2,10.045,-8.9814
5378.9,9.76,-6.1804
5390.6,9.4499,-7.1409
5402.3,7.8558,-8.7278
5414.1,5.886,-7.5586
5425.8,3.7559,-9.0623
5437.5,10.319,-9.2512
5449.2,12.233,-7.5045
5460.9,9.7106,-6.9054
5472.7,7.4797,-6.2664
5484.4,7.0463,-6.563
5496.1,4.4242,-9.0302
5507.8,4.9195,-11.733
5519.5,5.0093,-9.6267
5531.3,7.2613,-6.3734
5543,5.9427,-8.1117
5554.7,5.8573,-10.543
5566.4,7.6409,-6.6683
5578.1,5.2029,-7.4776
5589.8,5.98,-12.711
5601.6,7.4107,-12.378
5613.3,9.1978,-10.468
5625,5.8014,-8.2909
5636.7,3.3979,-6.5748
5648.4,5.5945,-6.4789
5660.2,6.4682,-8.3833
5671.9,5.3683,-9.4521
5683.6,5.3354,-9.1248
5695.3,6.4079,-6.748
5707,8.5666,-6.487
5718.8,7.8861,-9.0579
5730.5,4.9745,-7.0858
5742.2,3.279,-8.8899
5753.9,4.3419,-10.672
5765.6,4.7112,-10.252
5777.3,4.9326,-9.3508
5789.1,5.3163,-10.469
5800.8,6.0373,-10.119
5812.5,6.1125,-8.8767
5824.2,5.7053,-10.671
5835.9,7.3971,-12.062
5847.7,8.2037,-6.8133
5859.4,5.8014,-4.202
5871.1,8.2073,-5.1858
5882.8,3.7873,-6.8711
5894.5,7.2842,-7.3136
5906.3,5.0721,-11.062
5918,5.4285,-9.2161
5929.7,4.6505,-6.1294
5941.4,2.8226,-8.0459
5953.1,4.0129,-7.0702
5964.8,7.0863,-6.878
5976.6,8.0357,-8.0409
5988.3,6.3908,-9.4338
6000,6.0126,-8.8286
6011.7,8.9034,-9.0275
6023.4,8.8178,-11.096
6035.2,7.193,-10.845
6046.9,5.6135,-9.3404
6058.6,4.0575,-9.054
6070.3,4.5165,-9.5303
6082,7.6385,-8.6106
6093.8,8.7283,-8.9593
6105.5,5.3339,-6.6408
6117.2,6.2309,-7.4409
6128.9,4.7359,-9.6738
6140.6,5.695,-8.6576
6152.3,6.0285,-7.7375
6164.1,6.7648,-5.878
6175.8,6.7189,-8.1042
6187.5,3.7216,-11.38
6199.2,4.199,-8.4657
6210.9,6.0657,-7.4307
6222.7,5.8462,-10.445
6234.4,6.8516,-9.6709
6246.1,6.625,-7.5504
6257.8,8.5928,-7.5819
6269.5,11.328,-6.6756
6281.3,7.6725,-10.231
6293,3.5124,-13.086
6304.7,0.58903,-9.8095
6316.4,2.3832,-8.1497
6328.1,5.7371,-8.6084
6339.8,3.8467,-8.2863
6351.6,4.172,-7.8975
6363.3,5.4557,-8.9675
6375,6.1907,-10.796
6386.7,6.8134,-10.904
6398.4,6.4307,-9.3792
6410.2,5.6868,-8.0442
6421.9,4.4221,-8.8895
6433.6,4.9156,-11.507
6445.3,3.2688,-8.1115
6457,4.5881,-8.544
6468.8,5.9389,-9.7348
6480.5,3.3205,-6.7298
6492.2,3.1487,-7.823
6503.9,3.0679,-8.2849
6515.6,4.1805,-8.8365
6527.3,0.44239,-9.4382
6539.1,1.0206,-8.0266
6550.8,3.5703,-7.2705
6562.5,4.5777,-8.1723
6574.2,3.5516,-5.5318
6585.9,3.548,-5.058
6597.7,2.9429,-7.8552
6609.4,2.132,-9.6875
6621.1,2.5591,-8.7183
6632.8,5.4623,-6.6425
6644.5,4.7616,-9.4992
6656.3,4.5833,-12.974
6668,3.745,-12.106
6679.7,1.1857,-12.505
6691.4,4.3245,-7.8248
6703.1,5.4943,-7.3451
6714.8,5.3832,-8.9921
6726.6,3.7733,-11.181
6738.3,3.7795,-11.299
6750,3.8734,-9.9947
6761.7,1.8284,-9.5269
6773.4,5.1391,-9.9154
6785.2,5.5203,-9.3162
6796.9,5.795,-10.284
6808.6,4.5632,-9.6698
6820.3,5.5063,-6.6373
6832,5.8807,-8.1169
6843.8,5.6874,-10.166
6855.5,3.6536,-11.651
6867.2,2.8723,-8.8408
6878.9,3.7892,-7.1341
6890.6,7.4229,-11.643
6902.3,5.1041,-9.9111
6914.1,4.8079,-8.998
6925.8,4.6829,-9.2438
6937.5,3.2861,-9.1379
6949.2,2.4572,-9.5497
6960.9,2.7856,-10.816
6972.7,4.7656,-8.9369
6984.4,1.8284,-7.7287
6996.1,2.2199,-5.7385
7007.8,4.1541,-8.284
7019.5,3.466,-12.078
7031.3,5.2448,-9.446
7043,7.9585,-9.3368
7054.7,9.1518,-8.1667
7066.4,6.8771,-7.4293
7078.1,6.154,-8.0462
7089.8,5.642,-6.1057
7101.6,5.5823,-6.6209
7113.3,2.4564,-10.742
7125,-0.30608,-8.6244
7136.7,4.5896,-9.2234
7148.4,6.5416,-9.0908
7160.2,5.8706,-8.5365
7171.9,4.8614,-10.494
7183.6,1.9246,-10.665
7195.3,2.1239,-9.2849
7207,4.9753,-9.4728
7218.8,4.4313,-10.464
7230.5,4.0725,-7.1417
7242.2,2.9979,-7.5068
7253.9,1.4949,-11.452
7265.6,0.89677,-11.001
7277.3,1.7076,-8.2245
7289.1,2.4423,-4.7383
7300.8,2.927,-6.1543
7312.5,3.6782,-9.852
7324.2,5.3406,-10.679
7335.9,5.3604,-10.913
7347.7,4.9804,-11.641
7359.4,3.0909,-10.608
7371.1,2.4311,-9.8565
7382.8,3.4265,-11.066
7394.5,3.8162,-12.911
7406.3,6.9743,-8.4082
7418,5.2349,-8.5469
7429.7,5.0506,-7.9666
7441.4,2.8526,-10.064
7453.1,3.7894,-13.638
7464.8,3.394,-11.904
7476.6,1.6181,-8.9619
7488.3,2.5268,-8.5266
7500,3.9293,-8.068
7511.7,5.0556,-8.7336
7523.4,2.3768,-9.3702
7535.2,1.8453,-9.2332
7546.9,4.4298,-10.215
7558.6,5.6772,-8.7567
7570.3,2.3591,-10.189
7582,0.82716,-10.569
7593.8,2.6732,-8.7092
7605.5,2.6493,-7.8264
7617.2,2.6018,-7.0227
7628.9,0.94401,-11.347
7640.6,2.1188,-12.096
7652.3,4.8436,-10.549
7664.1,4.4242,-11.298
7675.8,1.0648,-8.6246
7687.5,2.0732,-6.8649
7699.2,3.5566,-9.8552
7710.9,2.8743,-13.053
7722.7,2.2393,-11.251
7734.4,1.0419,-11.641
7746.1,3.3001,-8.9943
7757.8,0.66288,-10.204
7769.5,1.9909,-9.624
7781.3,1.906,-7.4743
7793,1.5666,-8.4635
7804.7,3.8162,-10.892
7816.4,2.3033,-10.113
7828.1,1.5483,-9.2946
7839.8,1.1757,-10.166
7851.6,0.26068,-12.959
7863.3,2.6372,-13.359
7875,2.8397,-9.4464
7886.7,1.1602,-6.2152
7898.4,3.2518,-5.8413
7910.2,4.9857,-7.2348
7921.9,2.6919,-8.4829
7933.6,1.9559,-11.123
7945.3,1.5078,-9.2015
7957,5.9441,-8.8136
7968.8,5.6285,-9.5234
7980.5,2.0983,-11.088
7992.2,4.4366,-8.6553
8003.9,2.7153,-9.0862
8015.6,3.7032,-10.188
8027.3,5.5956,-7.8341
8039.1,4.4169,-8.5735
8050.8,2.7857,-9.7033
8062.5,3.5901,-12.512
8074.2,1.9203,-10.182
8085.9,1.7519,-9.8111
8097.7,1.4029,-12.396
8109.4,1.4164,-7.8544
8121.1,0.6272,-7.0289
8132.8,0.32694,-12.258
8144.5,-1.9582,-10.294
8156.3,0.81225,-9.8371
8168,0.66457,-9.0516
8179.7,0.33108,-9.6884
8191.4,0.2472,-7.9094
8203.1,-1.6748,-10.538
8214.8,3.1703,-12.371
8226.6,2.8013,-12.653
8238.3,0.54375,-9.244
8250,2.3583,-8.8611
8261.7,-0.67279,-8.0175
8273.4,-1.0513,-5.826
8285.2,1.1682,-8.0235
8296.9,2.2997,-10.807
8308.6,1.9137,-13.92
8320.3,1.2943,-11.202
8332,1.2943,-11.109
8343.8,0.80686,-11.695
8355.5,0.2744,-10.816
8367.2,1.5721,-10.864
8378.9,4.0758,-12.279
8390.6,3.3828,-10.205
8402.3,2.0071,-5.0557
8414.1,2.1582,-7.1376
8425.8,2.1171,-11.277
8437.5,1.7919,-12.569
8449.2,-0.50837,-9.7675
8460.9,-0.27123,-8.5096
8472.7,2.5804,-9.4098
8484.4,2.991,-6.9539
8496.1,4.1447,-7.9511
8507.8,3.2466,-12.119
8519.5,2.0002,-13.123
8531.3,2.6385,-11.208
8543,1.2201,-8.7646
8554.7,2.6196,-7.8855
8566.4,2.9017,-8.4771
8578.1,0.3018,-10.305
8589.8,0.47389,-10.286
8601.6,2.8006,-10.105
8613.3,0.90134,-9.4783
8625,0.53277,-12.085
8636.7,-0.31471,-11.892
8648.4,1.9604,-12.082
8660.2,2.1601,-11.158
8671.9,-0.92874,-11.391
8683.6,1.0485,-9.6407
8695.3,3.8903,-10.558
8707,2.3755,-10.841
8718.8,3.6173,-9.9389
8730.5,2.7783,-10.239
8742.2,2.9967,-10.146
8753.9,2.5115,-10.505
8765.6,1.892,-9.8123
8777.3,1.5721,-8.496
8789.1,0.53264,-9.6088
8800.8,-1.557,-10.311
8812.5,-1.9852,-9.6301
8824.2,0.5814,-8.4304
8835.9,3.7425,-9.8453
8847.7,1.3224,-11.48
8859.4,0.061686,-9.3455
8871.1,0.039164,-11.024
8882.8,0.032334,-13.682
8894.5,1.1169,-12.927
8906.3,2.2906,-12.256
8918,-0.031089,-14.274
8929.7,-1.0286,-12.214
8941.4,0.10638,-13.926
8953.1,0.28559,-10.646
8964.8,1.5956,-9.2326
8976.6,-0.53993,-10.643
8988.3,0.66928,-10.059
9000,1.9526,-7.6508
9011.7,0.38545,-6.4515
9023.4,-0.63286,-8.0631
9035.2,-3.1959,-8.5464
9046.9,0.56068,-11.807
9058.6,3.6103,-14.519
9070.3,1.2503,-12.782
9082,1.837,-11.237
9093.8,1.6224,-11.521
9105.5,-0.09841,-12.825
9117.2,-3.829,-14.97
9128.9,-3.1485,-12.722
9140.6,1.0848,-10.839
9152.3,2.5984,-12.264
9164.1,-1.7886,-12.457
9175.8,-2.0503,-12.472
9187.5,-1.5362,-11.565
9199.2,-1.9213,-9.5138
9210.9,-2.782,-7.5985
9222.7,-0.81341,-7.5252
9234.4,0.74396,-8.4225
9246.1,1.0526,-11.961
9257.8,1.5742,-10.234
9269.5,3.6128,-7.298
9281.3,1.2011,-8.8241
9293,-1.3051,-10.493
9304.7,1.4254,-11.949
9316.4,3.1109,-15.294
9328.1,0.76096,-12.926
9339.8,0.032047,-12.995
9351.6,1.2398,-11.272
9363.3,2.3885,-9.9546
9375,2.5908,-10.524
9386.7,0.66864,-10.299
9398.4,-0.37222,-11.013
9410.2,2.3344,-12.745
9421.9,0.023809,-10.728
9433.6,-1.0888,-9.9083
9445.3,-0.60549,-9.2382
9457,-1.8595,-10.115
9468.8,0.20925,-10.53
9480.5,0.58018,-9.32
9492.2,-0.013141,-9.7839
9503.9,0.86493,-7.7596
9515.6,-0.22927,-7.4743
9527.3,-2.5277,-7.8612
9539.1,0.97067,-10.101
9550.8,1.013,-11.031
9562.5,0.25963,-12.199
9574.2,0.32814,-12.503
9585.9,2.6805,-9.7243
9597.7,0.50636,-9.1566
9609.4,-0.1717,-9.6122
9621.1,-3.2125,-10.955
9632.8,-2.6971,-10.951
9644.5,0.079694,-11.335
9656.3,-0.61332,-10.866
9668,0.7682,-7.4647
9679.7,0.97621,-10.364
9691.4,-0.3816,-10.189
9703.1,-0.25602,-9.9255
9714.8,0.93686,-11.41
9726.6,3.1752,-9.3558
9738.3,1.4102,-10.55
9750,-3.6262,-14.41
9761.7,-1.5419,-11.931
9773.4,0.17285,-9.7407
9785.2,2.1014,-10.244
9796.9,-0.74274,-12.807
9808.6,1.8327,-12.891
9820.3,0.76145,-12.252
9832,-1.6386,-9.1894
9843.8,-3.3912,-4.9634
9855.5,-2.4461,-5.933
9867.2,-1.4074,-9.8036
9878.9,-2.3704,-12.998
9890.6,-2.1638,-13.983
9902.3,-0.51418,-15.026
9914.1,0.32921,-13.205
9925.8,-1.9848,-12.857
9937.5,-1.1751,-10.988
9949.2,0.28941,-11.039
9960.9,0.43006,-13.457
9972.7,1.162,-10.717
9984.4,2.5787,-10.472
9996.1,1.4968,-11.178
10008,0.57494,-15.346
10020,-2.3692,-12.185
10031,-1.6732,-9.6268
10043,0.46438,-13.576
10055,0.067703,-12.819
10066,1.2356,-11.98
10078,1.2785,-13.013
10090,-0.27714,-9.8139
10102,0.35228,-10.967
10113,-2.04,-11.656
10125,-1.6118,-11.324
10137,-0.88757,-12.352
10148,-2.1358,-13.099
10160,-0.38176,-11.99
10172,-1.3241,-11.853
10184,1.4484,-11.304
10195,0.43148,-9.1711
10207,0.37632,-7.4376
10219,-3.9482,-10.758
10230,-0.97081,-12.569
10242,-1.884,-12.516
10254,0.0013035,-11.531
10266,0.93849,-10.719
10277,0.2206,-9.6987
10289,-1.4943,-12.034
10301,-1.7021,-10.689
10313,-2.0753,-8.6483
10324,-2.0316,-9.5061
10336,-1.4314,-9.62
10348,0.51584,-9.7409
10359,-1.2638,-11.86
10371,-4.3312,-8.6707
10383,-3.5572,-8.0183
10395,-2.2849,-6.3576
10406,-2.544,-9.3931
10418,-2.4789,-13.699
10430,-2.1797,-12.013
10441,-1.7362,-10.785
10453,-4.4016,-10.617
10465,-4.2236,-10.099
10477,-2.0171,-12.695
10488,1.2846,-10.69
10500,2.8314,-11.907
10512,-0.0077592,-12.336
10523,-2.0838,-14.572
10535,-2.1715,-17.191
10547,0.28439,-12.999
10559,-0.7728,-8.6433
10570,-2.5536,-8.8556
10582,-3.2078,-14.359
10594,-1.8985,-9.0497
10605,-0.64018,-9.4642
10617,0.29093,-12.181
10629,-1.0992,-13.132
10641,-0.60379,-11.624
10652,1.2066,-11.166
10664,-1.2292,-11.843
10676,-1.7548,-11.31
10688,-2.1131,-12.215
10699,-2.5502,-12.966
10711,-5.2596,-15.585
10723,-3.596,-14.673
10734,-3.0132,-13.896
10746,-3.8923,-12.14
10758,-1.7369,-11.745
10770,0.81069,-11.631
10781,-0.28411,-8.8502
10793,-2.6032,-8.1711
10805,0.53612,-11.059
10816,-0.041646,-12.972
10828,-1.9493,-11.044
10840,-2.2368,-10.84
10852,-0.013149,-9.1419
10863,0.53074,-11.151
10875,-2.923,-10.384
10887,-0.66952,-10.297
10898,-0.56647,-10.79
10910,1.1152,-10.374
10922,-1.7748,-11.073
10934,-1.4773,-10.894
10945,-1.2872,-12.071
10957,-2.8665,-11.153
10969,-0.90872,-11.432
10980,-2.4793,-10.202
10992,-2.4106,-10.977
11004,-4.5518,-12.436
11016,-2.3676,-10.553
11027,-0.34153,-9.3724
11039,-1.9322,-11.925
11051,0.16418,-13.164
11063,0.16149,-12.048
11074,-1.7647,-10.109
11086,-2.0316,-12.608
11098,-4.2905,-14.089
11109,-2.8227,-16.144
11121,-1.145,-15.591
11133,-2.0747,-13.299
11145,-0.45942,-15.002
11156,0.43764,-13.245
11168,0.36914,-11.046
11180,-1.583,-10.355
11191,-3.5091,-12.287
11203,-6.136,-14.241
11215,-3.145,-12.14
11227,-2.1092,-13.732
11238,-2.2987,-14.648
11250,-3.8761,-12.733
11262,-3.8536,-14.936
11273,3.3921,-13.623
11285,2.1547,-11.606
11297,0.54819,-10.81
11309,-1.1089,-12.01
11320,-5.4123,-13.137
11332,-5.2945,-13.993
11344,-3.1852,-15.351
11355,-1.4998,-15.827
11367,-0.41163,-13.517
11379,-1.5559,-10.166
11391,-4.6165,-10.623
11402,-3.4582,-13.09
11414,0.15438,-11.46
11426,-0.52271,-10.434
11438,-1.4403,-13.074
11449,-1.0843,-14.055
11461,-1.0134,-10.08
11473,-0.46594,-9.0121
11484,-3.2243,-11.243
11496,-3.7907,-10.815
11508,-3.539,-11.374
11520,-3.4338,-10.597
11531,-1.9093,-11.18
11543,-0.21443,-13.013
11555,0.15815,-14.665
11566,-0.55204,-14.481
11578,-2.7375,-12.234
11590,-1.2837,-12.893
11602,-2.519,-15.757
11613,-0.48126,-13.187
11625,-1.1867,-14.601
11637,-3.0764,-13.952
11648,-2.094,-10.617
11660,-4.3066,-11.577
11672,-2.3139,-14.197
11684,0.84431,-13.72
11695,0.56273,-11.815
11707,-1.7513,-12.854
11719,-5.4463,-13.002
11730,-5.3772,-13.031
11742,-0.63649,-12.973
11754,0.045285,-12.179
11766,-1.8841,-10.484
11777,-3.6286,-10.086
11789,-5.0792,-13.2
11801,-2.8081,-14.205
11813,-1.5216,-14.289
11824,0.19719,-14.02
11836,-1.8855,-14.451
11848,-0.64252,-12.094
11859,2.5438,-12.291
11871,2.0428,-11.617
11883,-1.5445,-12.149
11895,-4.2374,-12.917
11906,-2.9452,-13.734
11918,-2.0664,-13.302
11930,-3.1846,-11.616
11941,-0.23215,-10.157
11953,-0.66616,-9.7865
11965,-3.5875,-11.791
11977,-2.5439,-13.804
11988,-3.0143,-12.56
12000,-0.65409,-10.394
12012,-0.64188,-10.848
12023,1.9304,-9.541
12035,-1.6055,-10.276
12047,-2.1107,-13.465
12059,-1.217,-11.406
12070,-1.8405,-11.723
12082,-0.59507,-12.529
12094,-1.6633,-12.222
12105,-3.419,-13.354
12117,-2.1147,-18.141
12129,-3.0804,-14.117
12141,-2.6037,-12.295
12152,-2.5077,-11.793
12164,-2.9837,-11.909
12176,-3.0166,-14.784
12188,-3.2281,-10.793
12199,-4.7081,-10.629
12211,-4.7217,-14.239
12223,-6.1795,-12.972
12234,-4.5884,-11.659
12246,-2.3584,-10.145
12258,0.27315,-10.394
12270,0.5837,-12.771
12281,-2.6193,-13.287
12293,-3.0994,-14.348
12305,-2.006,-12.273
12316,-3.241,-11.358
12328,-3.7149,-10.876
12340,-4.6788,-15.094
12352,-3.8853,-14.649
12363,-3.5625,-10.411
12375,-3.6894,-11.117
12387,-0.66564,-14.554
12398,-1.5828,-17.535
12410,-1.8771,-12.405
12422,-1.4714,-12.271
12434,-0.38155,-13.5
12445,-2.0502,-13.885
12457,-2.5762,-10.261
12469,-4.7271,-13.888
12480,-3.8785,-11.978
12492,-1.1252,-11.392
12504,-1.709,-15.815
12516,-1.625,-14.201
12527,-1.8938,-14.913
12539,-3.2592,-12.759
12551,-3.7545,-13.367
12563,-1.9688,-13.358
12574,-4.3901,-12.723
12586,-3.3862,-16.097
12598,-2.3781,-12.521
12609,-4.9006,-13.116
12621,-5.5996,-13.275
12633,-3.263,-12.72
12645,-2.9898,-10.989
12656,-2.9575,-9.2141
12668,-2.8475,-10.382
12680,-1.2523,-14.03
12691,-1.3908,-12.917
12703,-4.054,-13.385
12715,-6.5451,-14.853
12727,-4.9408,-15.266
12738,-1.5201,-18.142
12750,-0.50349,-18.16
12762,-3.7584,-16.045
12773,-6.9288,-13.555
12785,-3.6314,-11.628
12797,-5.0009,-13.555
12809,-3.4516,-11.372
12820,-3.2058,-13.23
12832,-3.8582,-15.017
12844,-4.2284,-13.584
12855,-3.0286,-13.618
12867,-3.1273,-16.712
12879,-3.0044,-11.713
12891,-1.953,-9.4347
12902,-2.3186,-12.323
12914,-1.9088,-13.734
12926,-0.56218,-14.581
12938,-2.56,-12.111
12949,-4.29,-13.127
12961,-6.0335,-13.381
12973,-5.226,-14.699
12984,-3.6089,-11.285
12996,-2.9795,-10.081
13008,-3.9994,-12.792
13020,-3.9307,-9.9353
13031,0.068544,-9.0251
13043,-0.83925,-10.243
13055,-5.2775,-16.527
13066,-6.836,-17.435
13078,-5.8195,-14.453
13090,-6.6023,-13.718
13102,-4.1714,-14.351
13113,-3.7583,-14.221
13125,-5.0983,-14.363
13137,-4.8278,-13.193
13148,-4.6367,-10.711
13160,-3.0866,-12.803
13172,-1.147,-15.668
13184,-1.0147,-12.617
13195,-5.155,-13.155
13207,-6.2988,-12.154
13219,-2.8933,-13.243
13230,-2.461,-14.43
13242,-2.6974,-13.703
13254,-3.8175,-12.261
13266,-6.2284,-12.293
13277,-6.6473,-13.302
13289,-4.844,-13.625
13301,-3.3422,-11.977
13313,-2.2082,-12.811
13324,-2.6187,-12.345
13336,-2.5035,-14.971
13348,-2.517,-14.655
13359,-1.7985,-14.096
13371,-2.8112,-12.798
13383,-2.6578,-15.303
13395,-3.5295,-15.782
13406,-4.9006,-16.585
13418,-2.6614,-13.637
13430,-1.3835,-13.9
13441,-0.35501,-14.48
13453,-4.4464,-15.066
13465,-8.3695,-13.873
13477,-3.3548,-15.98
13488,-1.5698,-15.724
13500,-1.9432,-12.715
13512,-2.1094,-12.412
13523,-3.2197,-13.98
13535,-3.8717,-14.993
13547,-2.3743,-14.882
13559,-2.4439,-12.916
13570,-1.3716,-11.695
13582,-2.7342,-14.959
13594,-1.533,-13.031
13605,-4.3393,-11.809
13617,-6.7513,-12.137
13629,-6.0545,-12.416
13641,-4.8601,-15.031
13652,-4.2695,-14.148
13664,-5.3918,-13.413
13676,-4.0429,-12.132
13688,-3.1883,-12.406
13699,-2.9782,-13.043
13711,-2.6966,-11.183
13723,-3.3834,-12.766
13734,-4.2626,-15.544
13746,-4.1953,-10.982
13758,-3.0218,-10.976
13770,-6.1307,-11.245
13781,-4.9308,-11.544
13793,-5.1234,-16.205
13805,-3.3711,-16.372
13816,-1.5467,-14.223
13828,-1.5774,-13.658
13840,-2.6008,-11.711
13852,-3.0339,-12.935
13863,-4.2204,-16.03
13875,-6.8828,-16.084
13887,-3.554,-12.855
13898,-5.1417,-12.995
13910,-3.097,-12.245
13922,-1.2934,-12.542
13934,-0.58516,-13.568
13945,-2.6645,-15.225
13957,-3.1305,-13.088
13969,-2.3239,-12.976
13980,-3.6502,-15.427
13992,-2.2119,-13.045
14004,-0.21288,-14.533
14016,-5.1297,-13.594
14027,-3.7215,-13.916
14039,-2.4096,-12.3
14051,-4.8574,-12.559
14063,-5.7446,-14.381
14074,-5.5384,-14.805
14086,-3.239,-13.693
14098,-3.6179,-15.037
14109,-3.7718,-11.599
14121,-4.7135,-9.5662
14133,-4.1136,-10.62
14145,-3.0788,-13.776
14156,-4.1779,-13.834
14168,-2.2129,-13.777
14180,-1.5015,-14.236
14191,-1.8371,-12.629
14203,-1.6019,-11.134
14215,-4.3799,-11.695
14227,-5.469,-18.67
14238,-3.1054,-16.053
14250,-2.7571,-14.782
14262,-3.964,-11.414
14273,-3.0555,-13.951
14285,-3.4943,-14.864
14297,-5.2705,-12.916
14309,-3.313,-14.949
14320,-1.7635,-15.75
14332,-0.89241,-14.541
14344,2.0321,-16.965
14355,-0.79387,-17.15
14367,-4.838,-14.969
14379,-6.5805,-14.382
14391,-3.9908,-13.85
14402,-5.3102,-14.739
14414,-5.9295,-13.515
14426,-7.4671,-12.818
14438,-3.521,-13.464
14449,-5.0089,-14.996
14461,-2.0504,-18.132
14473,-2.1142,-15.019
14484,-4.2399,-14.134
14496,-2.5015,-16.258
14508,-1.3292,-15.423
14520,-3.0933,-15.2
14531,-8.1046,-11.502
14543,-7.8616,-13.137
14555,-6.6776,-14.024
14566,-6.6423,-13.146
14578,-6.1418,-11.515
14590,-2.6425,-10.535
14602,-2.514,-8.4963
14613,-5.7268,-12.294
14625,-8.4956,-13.72
14637,-6.3459,-14.218
14648,-5.6845,-13.693
14660,-4.9051,-15.375
14672,-5.6821,-15.039
14684,-6.8294,-18.609
14695,-8.9492,-16.5
14707,-7.0994,-14.309
14719,-5.731,-14.327
14730,-6.3426,-19.484
14742,-4.9315,-15.775
14754,-4.4402,-15.206
14766,-5.254,-15.194
14777,-6.8663,-18.199
14789,-3.4692,-16.245
14801,-1.7935,-13.152
14813,-4.4083,-13.737
14824,-5.0072,-14.621
14836,-4.9798,-14.59
14848,-8.1558,-16.143
14859,-6.134,-17.026
14871,-5.3008,-12.016
14883,-5.6932,-13.189
14895,-5.0959,-17.293
14906,-4.0175,-16.851
14918,-4.4087,-15.662
14930,-6.934,-14.461
14941,-7.5974,-19.832
14953,-4.2714,-15.986
14965,-6.4473,-16.685
14977,-5.2681,-14.071
14988,-6.8278,-13.612
15000,-6.4096,-11.788
15012,-8.4702,-11.499
15023,-7.699,-14.576
15035,-6.0755,-14.148
15047,-5.3531,-16.13
15059,-5.4803,-16.388
15070,-8.4871,-12.29
15082,-7.9936,-13.241
15094,-9.4287,-16.207
15105,-6.2391,-15.044
15117,-5.5851,-13.654
15129,-8.2124,-15.48
15141,-5.4399,-13.493
15152,-4.1148,-13.979
15164,-0.71218,-15.853
15176,1.9346,-14.739
15188,-3.4313,-14.209
15199,-9.2055,-15.789
15211,-6.8297,-15.168
15223,-4.988,-13.665
15234,-6.7866,-13.41
15246,-6.8492,-15.105
15258,-5.2104,-16.767
15270,-4.4413,-16.858
15281,-4.6695,-15.858
15293,-5.5536,-14.813
15305,-9.1712,-14.025
15316,-6.8918,-12.774
15328,-4.8007,-14.729
15340,-7.1868,-15.472
15352,-6.6269,-14.346
15363,-5.139,-14.7
15375,-8.3127,-14.47
15387,-7.3251,-12.361
15398,-8.283,-15.424
15410,-11.083,-18.22
15422,-8.4485,-16.563
15434,-6.6729,-14.91
15445,-6.1287,-15.368
15457,-9.1526,-13.805
15469,-7.2918,-11.838
15480,-6.6348,-15.444
15492,-5.7013,-16.106
15504,-4.0464,-15.052
15516,-5.9024,-13.409
15527,-6.1441,-13.028
15539,-8.709,-16.077
15551,-8.8331,-19.847
15563,-7.2182,-18.55
15574,-7.7826,-15.921
15586,-7.9898,-15.982
15598,-8.584,-13.385
15609,-5.6306,-14.472
15621,-5.7118,-12.76
15633,-7.6867,-14.949
15645,-8.5051,-17.909
15656,-7.7698,-18.288
15668,-7.1515,-15.514
15680,-4.6938,-16.357
15691,-3.0987,-18.757
15703,-6.4895,-15.836
15715,-6.4198,-15.174
15727,-6.4625,-19.169
15738,-8.1909,-18.305
15750,-6.7032,-16.787
15762,-8.3824,-15.886
15773,-6.8535,-13.186
15785,-4.821,-14.039
15797,-5.2129,-15.53
15809,-4.805,-16.143
15820,-2.7171,-13.371
15832,-1.7239,-12.899
15844,-0.20267,-14.027
15855,0.094344,-13.789
15867,3.8135,-16.123
15879,4.7415,-16.284
15891,8.0245,-15.353
15902,10.192,-13.791
15914,14.032,-15.486
15926,17.713,-14.428
15938,22.244,-14.277
15949,27.836,-16.716
15961,34.978,-17.876
15973,45.212,-16.382
15984,65.173,-13.984
15996,76.063,-4.9139
16008,74.135,-6.1007
16020,56.121,-14.717
16031,41.294,-17.39
16043,32.354,-16.955
16055,25.771,-15.976
16066,20.708,-17.376
16078,16.224,-15.518
16090,12.751,-14.865
16102,9.4119,-15.909
16113,6.3393,-16.539
16125,4.5029,-16.56
16137,1.2325,-13.517
16148,0.22375,-13.672
16160,-0.58037,-16.071
16172,-4.5014,-15.68
16184,-3.6628,-14.155
16195,-4.3151,-15.486
16207,-4.8762,-18.947
16219,-4.0315,-18.804
16230,-7.05,-14.722
16242,-7.5851,-14.419
16254,-8.02,-15.108
16266,-6.6333,-12.894
16277,-6.1961,-13.206
16289,-12.27,-14.088
16301,-9.7172,-16.911
16313,-10.527,-15.613
16324,-6.1908,-19.03
16336,-7.9826,-15.369
16348,-9.2382,-12.422
16359,-7.3287,-13.321
16371,-8.0563,-14.025
16383,-10.362,-17.286
16395,-8.0286,-17.94
16406,-7.4417,-18.159
16418,-10.646,-17.87
16430,-8.3427,-16.818
16441,-7.4472,-18.741
16453,-9.0787,-15.748
16465,-7.4524,-16.136
16477,-8.0594,-15.851
16488,-10.186,-14.214
16500,-9.3768,-11.914
16512,-9.4652,-13.228
16523,-7.6803,-13.407
16535,-5.8829,-15.292
16547,-7.1705,-15.466
16559,-5.5779,-15.668
16570,-6.3437,-13.925
16582,-6.3985,-16.71
16594,-9.498,-16.182
16605,-9.1407,-14.31
16617,-7.3959,-15.624
16629,-7.8251,-15.137
16641,-7.8444,-13.95
16652,-8.404,-14.378
16664,-8.5705,-15.98
16676,-7.7188,-17.268
16688,-11.065,-17.851
16699,-9.7088,-16.738
16711,-8.2617,-14.13
16723,-7.8622,-13.698
16734,-11.613,-15.809
16746,-9.2026,-15.301
16758,-7.6781,-14.985
16770,-10.301,-15.835
16781,-12.055,-14.732
16793,-12.042,-15.835
16805,-7.797,-13.495
16816,-6.4437,-13.63
16828,-7.6941,-13.171
16840,-9.5678,-13.886
16852,-7.779,-15.043
16863,-6.6813,-17.021
16875,-6.4701,-16.592
16887,-8.4902,-16.274
16898,-9.9528,-12.171
16910,-7.9069,-12.533
16922,-8.8767,-14.239
16934,-10.452,-15.61
16945,-8.7891,-17.096
16957,-12.266,-14.865
16969,-9.8108,-16.737
16980,-8.0202,-15.455
16992,-7.9367,-14.591
17004,-7.7742,-15.362
17016,-9.2119,-18.332
17027,-10.024,-13.115
17039,-9.4908,-13.137
17051,-8.6269,-16.312
17063,-10.138,-18.201
17074,-12.234,-17.002
17086,-15.331,-18.393
17098,-11.676,-13.239
17109,-7.5336,-13.872
17121,-7.9158,-18.008
17133,-9.8353,-17.35
17145,-9.9072,-16.914
17156,-8.8067,-18.294
17168,-8.4678,-16.965
17180,-9.7667,-17.433
17191,-9.8256,-17.518
17203,-8.0112,-16.236
17215,-9.9582,-17.161
17227,-13.117,-15.927
17238,-11.51,-15.976
17250,-8.4885,-16.375
17262,-7.456,-18.432
17273,-10.053,-17.726
17285,-9.0212,-17.48
17297,-12.131,-17.224
17309,-10.81,-15.559
17320,-8.6552,-14.893
17332,-9.4423,-14.976
17344,-9.4552,-15.269
17355,-9.3762,-19.797
17367,-8.2145,-18.82
17379,-10.665,-16.356
17391,-10.175,-15.978
17402,-9.4895,-17.241
17414,-10.051,-14.948
17426,-10.288,-18.274
17438,-12.745,-15.917
17449,-9.6558,-14.058
17461,-11.164,-17.072
17473,-11.284,-20.527
17484,-9.6453,-17.616
17496,-8.6877,-13.821
17508,-10.426,-13.798
17520,-10.809,-15.394
17531,-9.8111,-16.034
17543,-8.93,-16.415
17555,-11.124,-15.128
17566,-15.389,-12.889
17578,-12.337,-12.659
17590,-12.155,-13.378
17602,-9.1506,-13.8
17613,-10.207,-16.606
17625,-12.951,-15.555
17637,-10.723,-16.368
17648,-6.3645,-20.692
17660,-3.7132,-16.292
17672,-7.9864,-16.029
17684,-9.2835,-14.383
17695,-9.7364,-14.644
17707,-12.496,-17.312
17719,-12.703,-21.333
17730,-11.879,-18.068
17742,-10.404,-14.9
17754,-9.2862,-14.865
17766,-8.9649,-19.187
17777,-9.6352,-17.183
17789,-13.646,-15.097
17801,-11.951,-16.618
17813,-12.054,-17.6
17824,-11.218,-16.527
17836,-9.3726,-15.599
17848,-9.129,-16.709
17859,-12.545,-18.586
17871,-11.398,-16.633
17883,-8.3927,-18.203
17895,-9.7081,-19.759
17906,-10.959,-19.611
17918,-11.487,-18.553
17930,-13.12,-18.594
17941,-11.933,-18.42
17953,-12.164,-19.754
17965,-13.529,-19.576
17977,-9.166,-15.588
17988,-7.8667,-14.237
18000,-9.4231,-16.011
18012,-8.4922,-18.873
18023,-8.6928,-16.298
18035,-9.1548,-16.441
18047,-10.124,-17.048
18059,-14.021,-17.901
18070,-10.892,-17.763
18082,-9.6016,-14.515
18094,-9.8596,-16.793
18105,-12.516,-19.938
18117,-12.49,-20.915
18129,-12.177,-18.403
18141,-14.756,-18.039
18152,-13.363,-17.051
18164,-13.262,-14.5
18176,-10.8,-14.793
18188,-9.0798,-14.726
18199,-12.309,-12.891
18211,-13.731,-14.57
18223,-11.148,-15.983
18234,-10.488,-15.922
18246,-8.9894,-15.579
18258,-8.5648,-15.394
18270,-9.5767,-16.322
18281,-12.891,-17.625
18293,-13.763,-14.865
18305,-11.471,-15.68
18316,-13.882,-18.126
18328,-13.292,-16.829
18340,-11.741,-20.296
18352,-9.0169,-17.874
18363,-8.7465,-15.699
18375,-10.488,-16.905
18387,-10.986,-16.631
18398,-12.293,-14.517
18410,-13.208,-12.562
18422,-9.2756,-15.382
18434,-10.502,-16.714
18445,-12.946,-16.941
18457,-12.776,-19.935
18469,-9.9381,-15.659
18480,-10.6,-14.781
18492,-10.574,-14.595
18504,-11.086,-17.998
18516,-14.731,-18.457
18527,-13.453,-14.115
18539,-12.51,-14.307
18551,-14.998,-19.408
18563,-14.025,-16.538
18574,-15.116,-17.749
18586,-12.569,-19.337
18598,-10.474,-19.293
18609,-10.648,-15.465
18621,-13.83,-14.285
18633,-12.268,-16.475
18645,-13.913,-19.418
18656,-14.415,-18.005
18668,-10.899,-16.497
18680,-11.779,-15.645
18691,-11.795,-17.576
18703,-10.317,-16.877
18715,-10.653,-13
18727,-12.407,-13.913
18738,-11.704,-15.445
18750,-10.896,-15.506
18762,-12.635,-17.073
18773,-15.221,-18.857
18785,-13.836,-17.003
18797,-12.33,-16.847
18809,-13.265,-15.779
18820,-13.532,-16.84
18832,-11.104,-18.941
18844,-10.139,-16.393
18855,-11.838,-16.958
18867,-9.6769,-17.174
18879,-10.653,-18.087
18891,-10.676,-21.15
18902,-15.142,-19.276
18914,-12.364,-18.473
18926,-10.127,-19.237
18938,-11.528,-18.044
18949,-12.474,-17.102
18961,-11.185,-16.908
18973,-10.904,-14.668
18984,-13.701,-15.003
18996,-15.539,-13.501
19008,-19.146,-15.146
19020,-13.722,-16.5
19031,-13.579,-16.613
19043,-14.096,-15.458
19055,-15.038,-13.474
19066,-12.333,-15.975
19078,-14.728,-16.882
19090,-13.713,-18.678
19102,-10.887,-16.301
19113,-10.504,-14.669
19125,-11.33,-17.02
19137,-12.602,-17.496
19148,-13.995,-17.748
19160,-14.217,-20.125
19172,-13.161,-19.366
19184,-12.681,-19.9
19195,-9.7394,-18.667
19207,-10.762,-17.112
19219,-12.041,-16.044
19230,-12.965,-19.071
19242,-14.16,-17.53
19254,-12.746,-16.118
19266,-9.9556,-14.97
19277,-10.816,-15.572
19289,-10.225,-16.638
19301,-10.907,-16.117
19313,-9.1398,-13.366
19324,-10.913,-16.386
19336,-13.002,-20.303
19348,-14.76,-18.362
19359,-12.442,-15.712
19371,-13.195,-19.04
19383,-13.209,-18.111
19395,-15.855,-20.033
19406,-14.826,-17.73
19418,-15.333,-20.194
19430,-11.195,-16.985
19441,-9.6498,-19.725
19453,-11.981,-18.787
19465,-12.898,-21.375
19477,-12.457,-20.364
19488,-10.96,-16.113
19500,-11.467,-19.188
19512,-14.572,-20.777
19523,-13.597,-19.122
19535,-15.23,-19.435
19547,-15.642,-21.359
19559,-13.347,-21.124
19570,-10.929,-18.969
19582,-10.505,-16.625
19594,-11.834,-16.461
19605,-14.495,-18.8
19617,-15.999,-20.218
19629,-14.699,-22.2
19641,-13.625,-19.645
19652,-14.146,-19.14
19664,-13.916,-19.158
19676,-14.634,-20.947
19688,-16.135,-20.275
19699,-14.654,-21.723
19711,-13.726,-17.16
19723,-10.256,-16.102
19734,-11.858,-17.374
19746,-12.124,-22.486
19758,-10.256,-20.482
19770,-12.501,-16.863
19781,-12.313,-16.044
19793,-10.807,-16.93
19805,-15.047,-17.445
19816,-11.99,-19.428
19828,-13.404,-20.942
19840,-16.305,-19.464
19852,-14.056,-18.844
19863,-11.626,-15.421
19875,-12.345,-15.119
19887,-15.74,-18.652
19898,-16.349,-17.455
19910,-13.757,-19.431
19922,-14.207,-19.118
19934,-14.739,-18.112
19945,-15.401,-19.868
19957,-17.433,-18.614
19969,-11.613,-17.11
19980,-15.122,-18.595
19992,-15.84,-17.411
20004,-12.729,-18.379
20016,-12.355,-18.551
20027,-12.777,-19.49
20039,-11.607,-19.547
20051,-14.193,-20.52
20063,-13.883,-19.155
20074,-13.883,-20.177
20086,-14.149,-19.132
20098,-10.866,-17.082
20109,-12.108,-19.983
20121,-15.768,-21.517
20133,-14.63,-19.221
20145,-16.101,-18.566
20156,-13.089,-17.313
20168,-13.065,-16.732
20180,-13.121,-16.696
20191,-12.479,-16.99
20203,-15.322,-15.761
20215,-18.015,-15.579
20227,-13.383,-17.813
20238,-11.358,-23.125
20250,-13.267,-19.755
20262,-15.428,-17.036
20273,-15.283,-16.885
20285,-15.315,-16.719
20297,-16.222,-16.677
20309,-12.175,-17.836
20320,-18.3,-18.998
20332,-11.547,-18.037
20344,-11.042,-17.701
20355,-12.299,-18.063
20367,-14.664,-17.007
20379,-12.001,-20.779
20391,-11.256,-21.534
20402,0.71705,-21.126
20414,0.59117,-19.638
20426,-10.18,-20.349
20438,-13.932,-21.754
20449,-11.393,-18.331
20461,-17.243,-15.927
20473,-14.914,-15.873
20484,-14.176,-16.701
20496,-14.657,-16.807
20508,-11.288,-16.366
20520,-14.069,-16.965
20531,-13.485,-17.594
20543,-11.854,-19.655
20555,-14.124,-16.959
20566,-16.768,-18.681
20578,-13.373,-17.221
20590,-12.989,-17.356
20602,-15.303,-16.497
20613,-13.048,-16.888
20625,-13.3,-18.381
20637,-16.055,-17.64
20648,-12.513,-17.59
20660,-13.422,-17.571
20672,-15.813,-18.817
20684,-11.712,-20.569
20695,-11.788,-20.798
20707,-14.789,-20.999
20719,-15.62,-18.259
20730,-12.411,-17.105
20742,-14.6,-15.826
20754,-13.617,-16.595
20766,-14.069,-16.22
20777,-16.121,-16.084
20789,-13.034,-19.323
20801,-17.715,-18.901
20813,-15.93,-18.003
20824,-15.995,-21.777
20836,-15.719,-16.252
20848,-14.26,-14.831
20859,-15.051,-17.8
20871,-15.1,-18.909
20883,-12.238,-19.81
20895,-13.887,-20.32
20906,-12.294,-18.755
20918,-13.826,-19.929
20930,-15.556,-19.39
20941,-15.24,-18.908
20953,-13.531,-22.573
20965,-14.817,-20.506
20977,-14.728,-19.118
20988,-13.459,-18.844
21000,-13.425,-14.833
21012,-13.304,-14.213
21023,-13.354,-15.861
21035,-12.736,-18.158
21047,-13.767,-18.133
21059,-14.992,-19.24
21070,-19.695,-20.646
21082,-16.056,-20.448
21094,-13.221,-19.797
21105,-14.624,-19.131
21117,-15.051,-20.867
21129,-17.273,-16.853
21141,-16.393,-18.313
21152,-16.475,-19.793
21164,-15.434,-17.018
21176,-14.376,-18.56
21188,-13.91,-17.688
21199,-15.471,-16.74
21211,-19.047,-18.94
21223,-16.528,-19.357
21234,-15.387,-20.509
21246,-15.729,-18.858
21258,-14.87,-19.961
21270,-16.043,-19.894
21281,-14.745,-18.698
21293,-15.383,-18.738
21305,-15.977,-17.308
21316,-15.955,-17.416
21328,-16.443,-16.664
21340,-15.605,-15.858
21352,-13.937,-18.736
21363,-13.37,-19.77
21375,-15.981,-18.78
21387,-16.467,-18.575
21398,-13.692,-18.778
21410,-12.373,-19.527
21422,-17.004,-20.15
21434,-14.626,-18.367
21445,-12.072,-20.981
21457,-14.8,-20.19
21469,-14.31,-18.532
21480,-12.496,-19.121
21492,-14.287,-19.937
21504,-16.23,-19.623
21516,-16.068,-22.013
21527,-16.767,-18.141
21539,-14.587,-18.402
21551,-15.198,-18.607
21563,-16.511,-18.509
21574,-14.247,-19.412
21586,-13.527,-19.538
21598,-13.381,-17.678
21609,-16.414,-18.174
21621,-18.735,-20.059
21633,-19.191,-20.769
21645,-14.669,-19.729
21656,-13.942,-17.928
21668,-14.648,-18.032
21680,-15.035,-19.207
21691,-12.928,-20.863
21703,-13.773,-19.891
21715,-12.499,-16.98
21727,-13.122,-17.762
21738,-15.866,-20.777
21750,-14.804,-19.569
21762,-15.665,-19.268
21773,-15.59,-22.058
21785,-14.015,-20.166
21797,-13.539,-16.839
21809,-13.128,-16.544
21820,-12.433,-16.614
21832,-15.468,-17.713
21844,-17.5,-18.16
21855,-13.9,-20.82
21867,-14.547,-20.42
21879,-16.207,-20.207
21891,-15.09,-18.609
21902,-11.855,-19.333
21914,-15.041,-18.602
21926,-16.636,-17.327
21938,-19.044,-18.388
21949,-16.551,-22.312
21961,-15.765,-17.996
21973,-17.004,-16.233
21984,-18.731,-16.505
21996,-16.984,-15.05
22008,-14.753,-15.065
22020,-15.765,-19.642
22031,-15.553,-20.08
22043,-14.711,-20.066
22055,-15.171,-17.945
22066,-16.741,-20.837
22078,-14.732,-23.137
22090,-15.951,-22.221
22102,-17.023,-20.49
22113,-14.873,-17.166
22125,-13.984,-18.249
22137,-14.218,-18.161
22148,-14.466,-18.949
22160,-16.503,-21.804
22172,-16.026,-19.917
22184,-17.162,-19.307
22195,-17.129,-19.958
22207,-15.766,-19.003
22219,-15.725,-19.585
22230,-16.869,-19.358
22242,-18.048,-18.305
22254,-16.688,-19.482
22266,-14.215,-19.378
22277,-14.284,-21.938
22289,-15.442,-17.762
22301,-15.314,-19.604
22313,-14.835,-18.906
22324,-14.748,-15.004
22336,-14.848,-15.589
22348,-16.863,-18.754
22359,-16.375,-19.426
22371,-17.364,-19.514
22383,-16.526,-20.514
22395,-13.687,-21.621
22406,-15.189,-20.41
22418,-17.08,-20.315
22430,-14.911,-22.447
22441,-14.045,-21.134
22453,-13.649,-20.074
22465,-14.031,-20.183
22477,-18.143,-17.292
22488,-18.578,-20.863
22500,-16.892,-20.581
22512,-17.347,-18.591
22523,-18.596,-16.211
22535,-15.03,-18.678
22547,-15.338,-20.566
22559,-16.954,-22.179
22570,-16.862,-20.926
22582,-16.149,-21.178
22594,-15.214,-20.467
22605,-15.509,-19.065
22617,-17.656,-19.25
22629,-15.346,-20.352
22641,-17.708,-21.148
22652,-18.535,-18.611
22664,-16.98,-20.405
22676,-18.488,-19.682
22688,-15.219,-18.121
22699,-16.661,-19.648
22711,-18.276,-20.532
22723,-18.919,-23.948
22734,-18.243,-22.813
22746,-17.986,-19.763
22758,-17.058,-19.769
22770,-17.126,-17.548
22781,-18.07,-18.21
22793,-18.407,-21.436
22805,-17.805,-20.865
22816,-16.689,-19.408
22828,-17.19,-22.422
22840,-20.532,-20.004
22852,-20.395,-18.362
22863,-18.503,-18.747
22875,-16.979,-19.831
22887,-18.326,-21.404
22898,-15.919,-20.657
22910,-13.844,-20.025
22922,-15.953,-19.793
22934,-13.777,-22.291
22945,-14.699,-20.09
22957,-15.325,-19.866
22969,-15.997,-21.947
22980,-17.209,-19.579
22992,-17.831,-19.395
23004,-18.347,-20.224
23016,-18.82,-22.984
23027,-21.658,-24.061
23039,-18.954,-22.416
23051,-19.228,-21.857
23063,-20.222,-19.652
23074,-19.079,-20.985
23086,-15.312,-21.104
23098,-14.377,-20.118
23109,-15.381,-20.762
23121,-17.94,-20.561
23133,-16.66,-18.184
23145,-16.858,-19.291
23156,-19.788,-19.35
23168,-16.99,-18.773
23180,-14.787,-18.13
23191,-15.965,-20.902
23203,-17.717,-19.935
23215,-15.879,-21.348
23227,-17.486,-22.378
23238,-16.159,-21.966
23250,-16.749,-20.056
23262,-17.345,-18.509
23273,-20.158,-18.46
23285,-20.064,-18.866
23297,-16.725,-19.82
23309,-17.698,-20.31
23320,-21.291,-21.72
23332,-17.331,-18.74
23344,-14.633,-19.197
23355,-16.215,-21.916
23367,-18.895,-20.657
23379,-17.555,-21.167
23391,-21.105,-21.077
23402,-21.11,-19.308
23414,-16.916,-17.247
23426,-14.706,-18
23438,-17.033,-20.921
23449,-17.75,-19.661
23461,-16.572,-18.814
23473,-17.375,-16.709
23484,-16.093,-17.183
23496,-18.502,-21.41
23508,-16.497,-20.463
23520,-18.186,-19.162
23531,-18.938,-19.499
23543,-18.459,-17.673
23555,-21.065,-18.487
23566,-18.966,-19.285
23578,-19.203,-20.253
23590,-18.612,-21.885
23602,-19.572,-20.394
23613,-22.291,-21.224
23625,-21.027,-19.324
23637,-19.938,-21.236
23648,-14.906,-21.414
23660,-13.584,-23.196
23672,-19.961,-24.399
23684,-16.473,-21.51
23695,-16.862,-20.268
23707,-19.635,-22.642
23719,-20.107,-21.261
23730,-18.086,-21.031
23742,-17.374,-22.205
23754,-20.641,-20.829
23766,-18.683,-20.57
23777,-16.906,-22.593
23789,-19.263,-23.431
23801,-15.555,-20.276
23813,-15.344,-18.272
23824,-17.25,-19.588
23836,-17.862,-23.394
23848,-18.671,-19.804
23859,-17.792,-22.77
23871,-15.932,-23.175
23883,-17.604,-19.437
23895,-17.256,-18.573
23906,-17.406,-16.827
23918,-18.875,-18.366
23930,-19.149,-21.101
23941,-17.169,-21.703
23953,-16.426,-21.355
23965,-17.392,-22.133
23977,-18.569,-21.709
23988,-19.957,-20.372
