FFT,Power Spectrum
Frequency[Hz],Level-L[dB],Level-R[dB]
11.719,-4.8248,-62.92
23.438,15.034,-55.232
35.156,12.256,-40.552
46.875,14.753,-27.397
58.594,16.249,-25.877
70.313,19.231,-31.007
82.031,22.779,-29.03
93.75,20.886,-25.54
105.47,17.888,-25.167
117.19,15.883,-22.206
128.91,16.106,-21.281
140.63,20.354,-17.958
152.34,18.894,-13.79
164.06,16.088,-15.042
175.78,13.137,-18.836
187.5,20.162,-19.234
199.22,23.666,-18.155
210.94,14.885,-16.058
222.66,15.25,-17.816
234.38,17.23,-18.818
246.09,22.392,-16.548
257.81,20.996,-17.77
269.53,15.508,-16.491
281.25,14.272,-15.113
292.97,17.274,-16.312
304.69,20.635,-15.375
316.41,19.517,-16.385
328.13,16.951,-13.715
339.84,16.982,-12.171
351.56,16.034,-12.008
363.28,15.634,-10.684
375,17.471,-10.813
386.72,16.71,-11.936
398.44,17.691,-10.853
410.16,19.324,-12.379
421.88,16.062,-12.037
433.59,14.838,-13.229
445.31,15.191,-12.901
457.03,14.961,-13.105
468.75,14.766,-15.465
480.47,17.559,-15.834
492.19,13.996,-16.669
503.91,12.021,-14.655
515.63,13.497,-13.548
527.34,17.225,-11.709
539.06,16.819,-11.787
550.78,13.558,-14.058
562.5,16.782,-11.283
574.22,15.056,-10.207
585.94,13.383,-10.308
597.66,18.155,-9.2459
609.38,22.782,-8.4679
621.09,22.718,-12.016
632.81,19.444,-8.122
644.53,16.278,-7.9009
656.25,14.442,-9.3646
667.97,16.932,-9.9827
679.69,17.16,-10.164
691.41,16.742,-9.3792
703.13,16.798,-10.256
714.84,14.185,-9.5145
726.56,16.387,-10.444
738.28,18.352,-11.562
750,17.793,-9.3662
761.72,16.938,-7.3201
773.44,14.04,-8.1178
785.16,13.388,-7.919
796.88,12.529,-7.9766
808.59,13.44,-9.9533
820.31,17.402,-9.3316
832.03,18.716,-10.16
843.75,15.911,-13.878
855.47,15.325,-10.124
867.19,14.437,-8.0481
878.91,16.524,-8.6023
890.63,14.735,-11.285
902.34,14.087,-10.577
914.06,13.837,-11.03
925.78,16.168,-10.331
937.5,14.965,-9.3284
949.22,14.457,-9.0191
960.94,15.06,-6.1751
972.66,13.382,-6.2322
984.38,13.966,-7.054
996.09,16.169,-5.8121
1007.8,16.88,-5.2582
1019.5,16.955,-11.981
1031.3,16.294,-9.916
1043,15.477,-6.3891
1054.7,14.813,-8.8867
1066.4,17.174,-10.365
1078.1,16.795,-10.57
1089.8,16.164,-7.8525
1101.6,13.924,-5.3338
1113.3,16.094,-6.6142
1125,14.313,-6.8107
1136.7,15.271,-7.8064
1148.4,14.255,-9.7844
1160.2,15.188,-10.815
1171.9,15.112,-8.806
1183.6,14.015,-7.0018
1195.3,15.159,-8.2321
1207,12.305,-6.5666
1218.8,13.215,-7.7112
1230.5,15.245,-7.1141
1242.2,14.761,-5.1083
1253.9,14.625,-7.0124
1265.6,15.445,-7.9485
1277.3,14.137,-6.9464
1289.1,11.346,-5.5035
1300.8,15.102,-5.5067
1312.5,14.671,-7.2741
1324.2,13.762,-9.1199
1335.9,12.98,-8.3433
1347.7,13.235,-7.311
1359.4,13.201,-6.6137
1371.1,13.208,-6.239
1382.8,15.557,-7.793
1394.5,15.358,-10.797
1406.3,15.726,-11.524
1418,17.455,-10.464
1429.7,17.666,-5.7459
1441.4,17.426,-8.4457
1453.1,14.946,-9.6127
1464.8,14.761,-7.4712
1476.6,15.57,-6.4215
1488.3,12.261,-9.9748
1500,13.541,-6.7924
1511.7,15.613,-6.5546
1523.4,14.317,-7.3271
1535.2,16.487,-6.5382
1546.9,16.401,-7.2989
1558.6,16.115,-7.5246
1570.3,14.842,-8.4053
1582,14.068,-5.7032
1593.8,14.537,-7.1565
1605.5,13.771,-7.0824
1617.2,12.664,-8.3248
1628.9,12.299,-8.4414
1640.6,12.303,-5.8501
1652.3,15.375,-4.7037
1664.1,15.901,-7.5748
1675.8,14.991,-8.907
1687.5,13.224,-7.3104
1699.2,10.334,-4.8434
1710.9,14.926,-4.84
1722.7,17.548,-5.1108
1734.4,16.259,-6.3877
1746.1,17.062,-6.3987
1757.8,16.267,-7.1759
1769.5,13.102,-7.1082
1781.3,15.645,-6.7912
1793,17.424,-4.8295
1804.7,19.634,-8.9789
1816.4,18.038,-12.621
1828.1,13.85,-5.9603
1839.8,19.679,-5.2459
1851.6,19.428,-6.2748
1863.3,16.287,-9.691
1875,13.393,-8.6513
1886.7,14.404,-7.5405
1898.4,11.281,-7.0614
1910.2,15.341,-9.9073
1921.9,16.716,-11.258
1933.6,14.798,-6.1581
1945.3,14.393,-5.3366
1957,14.909,-5.9699
1968.8,14.989,-5.6359
1980.5,15.875,-3.4683
1992.2,17.179,-3.0563
2003.9,14.838,-5.01
2015.6,13.264,-5.6869
2027.3,14.382,-7.4442
2039.1,15.287,-5.1811
2050.8,14.879,-4.922
2062.5,15.06,-8.1556
2074.2,13.675,-6.5327
2085.9,14.796,-7.8673
2097.7,18.627,-12.243
2109.4,16.217,-7.4838
2121.1,11.669,-6.9049
2132.8,12.235,-7.8813
2144.5,14.268,-6.1913
2156.3,13.924,-8.872
2168,9.5868,-9.0801
2179.7,13.295,-8.8837
2191.4,12.825,-8.2422
2203.1,10.005,-10.516
2214.8,13.44,-8.3791
2226.6,13.552,-5.8974
2238.3,9.492,-4.7588
2250,12.274,-5.2325
2261.7,15.144,-6.0504
2273.4,15.932,-8.2431
2285.2,17.631,-6.8527
2296.9,16.534,-6.3158
2308.6,13.548,-6.5133
2320.3,13.463,-5.6605
2332,10.195,-6.1234
2343.8,11.772,-7.4064
2355.5,12.554,-11.6
2367.2,13.635,-7.7403
2378.9,13.907,-7.5457
2390.6,15.736,-9.2308
2402.3,16.279,-8.7238
2414.1,13.775,-6.8401
2425.8,14.755,-6.4016
2437.5,14.029,-5.0038
2449.2,12.904,-5.3178
2460.9,11.26,-7.071
2472.7,13.16,-5.2537
2484.4,13.004,-6.3167
2496.1,11.637,-8.7182
2507.8,9.0602,-7.7032
2519.5,8.0899,-8.6725
2531.3,14.306,-11.779
2543,13.707,-10.18
2554.7,11.684,-9.2034
2566.4,11.057,-8.4595
2578.1,13.273,-8.8609
2589.8,15.435,-6.1068
2601.6,11.455,-5.0099
2613.3,10.131,-6.6776
2625,10.469,-8.6378
2636.7,11.938,-9.3252
2648.4,11.077,-6.3207
2660.2,9.2355,-5.5303
2671.9,8.6609,-8.8425
2683.6,10.379,-6.1051
2695.3,10.715,-7.5114
2707,10.577,-8.7853
2718.8,13.205,-9.1073
2730.5,15.084,-7.6001
2742.2,15.063,-5.0992
2753.9,10.504,-5.9721
2765.6,9.0333,-6.9628
2777.3,8.1299,-8.5518
2789.1,8.8083,-8.6038
2800.8,8.3926,-6.4728
2812.5,8.8948,-4.0035
2824.2,9.4726,-4.3447
2835.9,9.315,-6.0349
2847.7,13.287,-9.122
2859.4,12.785,-10.49
2871.1,12.09,-9.8405
2882.8,10.67,-8.8314
2894.5,11.112,-8.5353
2906.3,15.129,-10.428
2918,16.193,-9.1824
2929.7,13.05,-6.6732
2941.4,7.9046,-9.5007
2953.1,7.8163,-7.266
2964.8,9.7445,-7.0775
2976.6,10.783,-6.8669
2988.3,13.72,-6.2109
3000,14.216,-5.2212
3011.7,11.425,-6.2064
3023.4,14.061,-8.0967
3035.2,12.06,-7.7318
3046.9,8.831,-6.7032
3058.6,12.098,-9.9192
3070.3,13.868,-9.5467
3082,12.341,-7.9682
3093.8,10.828,-7.0306
3105.5,10.485,-7.3694
3117.2,8.9904,-7.1504
3128.9,10.239,-5.7068
3140.6,11.012,-4.9268
3152.3,11.628,-6.6188
3164.1,13.272,-8.3253
3175.8,12.423,-7.8657
3187.5,11.498,-7.0505
3199.2,9.5559,-4.8337
3210.9,9.4077,-5.1255
3222.7,10.523,-9.4871
3234.4,11.2,-6.6884
3246.1,11.328,-5.5924
3257.8,10.967,-5.3835
3269.5,10.733,-5.3443
3281.3,12.095,-8.7579
3293,10.843,-7.6478
3304.7,11.29,-10.577
3316.4,11.617,-9.6615
3328.1,12.572,-8.8926
3339.8,9.6948,-11.492
3351.6,7.911,-7.0947
3363.3,10.232,-7.7424
3375,10.021,-11.509
3386.7,8.4806,-11.37
3398.4,10.545,-9.8292
3410.2,10.644,-7.9656
3421.9,11.589,-8.1904
3433.6,11.54,-5.8021
3445.3,12.27,-6.236
3457,9.8684,-5.249
3468.8,8.9974,-7.1044
3480.5,9.4245,-7.3783
3492.2,9.1729,-6.9608
3503.9,10.666,-6.272
3515.6,7.8044,-7.2893
3527.3,9.9932,-5.195
3539.1,11.742,-4.9412
3550.8,13.977,-6.1442
3562.5,13.844,-5.7365
3574.2,13.595,-7.353
3585.9,13.91,-8.6257
3597.7,11.738,-7.1687
3609.4,9.8478,-7.1161
3621.1,10.077,-8.2285
3632.8,10.097,-7.575
3644.5,12.364,-9.5961
3656.3,11.686,-6.9542
3668,9.7933,-7.2194
3679.7,8.7392,-8.7942
3691.4,9.2414,-9.6148
3703.1,9.4369,-8.2959
3714.8,7.2762,-8.1901
3726.6,8.939,-5.6797
3738.3,10.587,-5.2981
3750,8.4082,-6.8296
3761.7,8.2185,-3.867
3773.4,9.8234,-5.4731
3785.2,11.07,-6.9242
3796.9,13.289,-6.4691
3808.6,11.882,-9.7756
3820.3,7.9649,-7.2041
3832,8.608,-6.122
3843.8,10.105,-7.736
3855.5,9.4193,-7.5491
3867.2,9.1954,-8.2867
3878.9,12.004,-7.4294
3890.6,12.08,-7.5585
3902.3,9.3131,-8.7465
3914.1,8.064,-10.41
3925.8,10.557,-5.8408
3937.5,11.786,-6.8223
3949.2,9.124,-10.249
3960.9,7.847,-7.3051
3972.7,11.174,-5.3401
3984.4,11.187,-6.1248
3996.1,13.821,-5.7838
4007.8,10.854,-4.8192
4019.5,10.539,-6.8368
4031.3,9.6672,-6.4939
4043,7.3533,-6.474
4054.7,8.9007,-7.8701
4066.4,8.8967,-7.4681
4078.1,9.8103,-9.7994
4089.8,9.9983,-11.416
4101.6,7.2871,-9.4058
4113.3,5.8344,-8.6385
4125,7.2018,-6.9519
4136.7,10.091,-7.4314
4148.4,9.1224,-7.136
4160.2,7.6576,-7.3864
4171.9,7.6866,-6.3991
4183.6,7.2229,-6.8181
4195.3,10.505,-8.617
4207,9.1347,-10.308
4218.8,8.6901,-10.535
4230.5,9.1233,-6.5527
4242.2,10.673,-8.9955
4253.9,5.6354,-7.676
4265.6,5.9226,-7.102
4277.3,7.6927,-7.1512
4289.1,7.3648,-6.9771
4300.8,6.6561,-7.2129
4312.5,4.9632,-6.9337
4324.2,8.1581,-8.74
4335.9,10.845,-8.2196
4347.7,6.3936,-9.5083
4359.4,9.3325,-9.3585
4371.1,8.0234,-8.576
4382.8,7.5959,-8.5783
4394.5,8.8187,-7.1047
4406.3,7.097,-8.1826
4418,7.0059,-6.6373
4429.7,6.5058,-4.8812
4441.4,9.1311,-7.3009
4453.1,9.926,-9.8139
4464.8,6.0485,-10.111
4476.6,2.9726,-9.6123
4488.3,4.8428,-8.8982
4500,6.487,-8.7925
4511.7,5.1524,-10.169
4523.4,8.0063,-10.712
4535.2,9.6374,-9.5214
4546.9,9.0742,-8.5838
4558.6,5.5497,-8.3175
4570.3,5.9796,-6.006
4582,7.2415,-6.6458
4593.8,6.3997,-7.3255
4605.5,3.4171,-9.0591
4617.2,6.2205,-8.1819
4628.9,8.6933,-8.6583
4640.6,9.1921,-8.1243
4652.3,6.3212,-5.795
4664.1,9.8533,-6.4687
4675.8,9.8435,-7.2332
4687.5,8.3645,-7.6776
4699.2,8.4607,-5.8137
4710.9,9.3293,-6.0079
4722.7,11.343,-9.9313
4734.4,8.3774,-5.9714
4746.1,7.3426,-5.7628
4757.8,6.3811,-8.3159
4769.5,6.5283,-7.6567
4781.3,5.3377,-8.7502
4793,6.4827,-8.9846
4804.7,5.8128,-7.0868
4816.4,3.8915,-7.1896
4828.1,6.6555,-6.7993
4839.8,6.52,-9.382
4851.6,5.3813,-10.936
4863.3,10.021,-7.8033
4875,10.657,-6.0145
4886.7,8.8466,-7.0734
4898.4,7.3163,-6.8871
4910.2,8.9017,-8.9854
4921.9,7.4523,-6.7894
4933.6,4.8143,-7.4012
4945.3,5.4494,-9.3839
4957,5.5898,-9.6884
4968.8,5.122,-7.7716
4980.5,5.1101,-7.3088
4992.2,4.5861,-10.682
5003.9,6.7397,-10.194
5015.6,6.8283,-9.509
5027.3,8.5718,-8.6065
5039.1,5.1564,-9.422
5050.8,4.8942,-9.4457
5062.5,7.2337,-7.1341
5074.2,9.5865,-7.0055
5085.9,7.9309,-9.1829
5097.7,6.713,-10.496
5109.4,6.552,-8.5688
5121.1,8.6232,-9.551
5132.8,7.0642,-8.8986
5144.5,9.1232,-8.5244
5156.3,7.5227,-8.8833
5168,6.107,-9.7616
5179.7,4.8907,-9.1297
5191.4,5.7685,-7.6646
5203.1,7.4893,-7.7262
5214.8,6.2554,-6.7869
5226.6,7.3402,-8.8032
5238.3,7.1983,-13.015
5250,8.8545,-10.704
5261.7,7.1374,-10.748
5273.4,3.7611,-7.2564
5285.2,5.0875,-5.4234
5296.9,6.5455,-6.2914
5308.6,7.1561,-8.8169
5320.3,4.712,-10.447
5332,5.9282,-10.307
5343.8,6.6769,-12.243
5355.5,5.716,-7.8247
5367.2,5.7568,-7.8227
5378.9,3.3157,-7.2848
5390.6,6.3433,-4.7801
5402.3,4.9536,-5.3123
5414.1,5.8708,-8.0168
5425.8,7.4581,-7.0608
5437.5,5.1461,-6.6743
5449.2,6.25,-6.4703
5460.9,7.6564,-4.8244
5472.7,8.5693,-7.0298
5484.4,6.4346,-7.7372
5496.1,3.4483,-6.894
5507.8,3.2048,-6.7141
5519.5,4.7452,-7.5583
5531.3,4.9522,-9.6905
5543,4.0377,-10.06
5554.7,5.7791,-7.4049
5566.4,7.593,-9.0276
5578.1,6.0861,-9.2233
5589.8,5.3983,-9.6437
5601.6,6.6808,-9.6114
5613.3,5.3717,-7.7982
5625,5.852,-8.8668
5636.7,1.4507,-13.302
5648.4,4.306,-11.02
5660.2,4.1639,-8.2343
5671.9,3.0561,-8.2212
5683.6,4.8906,-9.2664
5695.3,6.6007,-9.4383
5707,5.7103,-9.1165
5718.8,4.0358,-9.0433
5730.5,2.768,-8.9875
5742.2,3.5383,-9.4337
5753.9,1.5696,-9.3181
5765.6,5.7014,-8.8587
5777.3,7.3511,-8.6764
5789.1,7.5958,-10.383
5800.8,7.9762,-10.352
5812.5,4.9174,-9.133
5824.2,8.1327,-9.6689
5835.9,10.966,-9.6689
5847.7,10.759,-7.3816
5859.4,6.8551,-9.4014
5871.1,5.8448,-8.0092
5882.8,3.8369,-10.052
5894.5,5.966,-7.8344
5906.3,7.5782,-9.0019
5918,4.7195,-10.93
5929.7,2.6234,-6.8089
5941.4,2.5189,-7.4641
5953.1,1.9681,-9.8275
5964.8,5.3517,-12.614
5976.6,4.0384,-11.094
5988.3,5.9364,-11.862
6000,3.4893,-11.998
6011.7,3.5038,-9.8743
6023.4,7.6065,-10.332
6035.2,8.0702,-9.3839
6046.9,4.3115,-9.2954
6058.6,2.9582,-8.5882
6070.3,3.3555,-6.4843
6082,1.2783,-6.4718
6093.8,2.5138,-8.2011
6105.5,1.6917,-8.1971
6117.2,3.6751,-9.8818
6128.9,5.9811,-5.8489
6140.6,6.0768,-7.7706
6152.3,6.3975,-6.4549
6164.1,7.1508,-6.6112
6175.8,7.8568,-11.583
6187.5,4.6517,-10.108
6199.2,1.6076,-7.0905
6210.9,3.9897,-8.2965
6222.7,3.2051,-12.552
6234.4,3.1552,-11.825
6246.1,5.495,-11.003
6257.8,5.7632,-9.828
6269.5,7.3186,-7.856
6281.3,6.9293,-9.8774
6293,6.0029,-12.367
6304.7,1.2779,-9.9461
6316.4,4.5216,-10.825
6328.1,5.4673,-7.0444
6339.8,7.1774,-6.916
6351.6,6.232,-6.9623
6363.3,5.353,-6.8497
6375,5.6849,-6.9609
6386.7,3.4533,-6.3405
6398.4,3.2584,-5.4664
6410.2,7.4108,-5.0301
6421.9,6.0154,-6.0252
6433.6,4.196,-7.8499
6445.3,4.7644,-7.4239
6457,3.5183,-7.498
6468.8,2.5098,-8.0332
6480.5,4.0014,-10.228
6492.2,4.2975,-12.392
6503.9,2.1819,-10.548
6515.6,3.1948,-9.8212
6527.3,4.2643,-10.607
6539.1,5.0296,-11.997
6550.8,5.5536,-9.7352
6562.5,3.3662,-6.4131
6574.2,6.4689,-7.4971
6585.9,7.88,-8.5476
6597.7,7.5534,-8.0419
6609.4,5.2583,-8.9272
6621.1,4.4243,-8.5493
6632.8,5.4126,-5.7698
6644.5,4.7115,-6.5824
6656.3,3.897,-8.7162
6668,3.6649,-11.242
6679.7,4.5993,-11.462
6691.4,4.2665,-10.289
6703.1,4.5406,-9.4467
6714.8,4.2917,-10.929
6726.6,5.5749,-11.472
6738.3,4.0244,-12.966
6750,2.6821,-10.149
6761.7,2.7586,-8.1559
6773.4,1.3022,-9.3082
6785.2,2.8774,-8.8009
6796.9,4.4144,-9.9517
6808.6,5.8295,-14.821
6820.3,7.9707,-12.08
6832,8.3745,-9.2182
6843.8,2.5591,-11.032
6855.5,2.6757,-11.474
6867.2,2.2317,-9.5696
6878.9,2.6771,-8.5672
6890.6,2.4467,-8.006
6902.3,2.7243,-7.3445
6914.1,1.663,-9.4977
6925.8,-0.0052352,-11.027
6937.5,2.1124,-14
6949.2,6.4548,-10.823
6960.9,7.3149,-9.8653
6972.7,7.4193,-7.7724
6984.4,6.2336,-7.1716
6996.1,4.4397,-7.6237
7007.8,4.4567,-8.1625
7019.5,4.6842,-8.0809
7031.3,5.9454,-7.8197
7043,3.7475,-10.172
7054.7,5.2479,-12.423
7066.4,6.4908,-10.985
7078.1,4.8012,-9.1335
7089.8,4.5106,-11.425
7101.6,1.3349,-10.049
7113.3,2.4012,-12.398
7125,1.0724,-15.393
7136.7,1.7504,-12.367
7148.4,2.5086,-8.2951
7160.2,2.8798,-10.205
7171.9,2.4403,-5.1476
7183.6,2.4951,-7.636
7195.3,2.4751,-8.9695
7207,2.7446,-8.7831
7218.8,3.0222,-7.8626
7230.5,3.5561,-8.6592
7242.2,3.8303,-8.8492
7253.9,3.372,-8.9794
7265.6,4.746,-7.4556
7277.3,3.6411,-13.803
7289.1,4.5498,-9.4215
7300.8,5.5638,-8.5881
7312.5,6.4578,-12.794
7324.2,4.3938,-9.8572
7335.9,3.0348,-8.8806
7347.7,2.2887,-8.5545
7359.4,0.96788,-8.3859
7371.1,2.1745,-10.234
7382.8,3.3622,-13.014
7394.5,4.0961,-10.462
7406.3,1.3017,-9.9331
7418,1.7307,-9.0696
7429.7,2.2667,-9.2189
7441.4,0.06511,-9.9275
7453.1,-0.029204,-11.217
7464.8,2.304,-13.136
7476.6,2.6924,-13.52
7488.3,3.1118,-10.178
7500,3.8686,-9.5953
7511.7,2.3304,-11.491
7523.4,3.1081,-11.769
7535.2,2.318,-9.2273
7546.9,1.5799,-6.6209
7558.6,2.3384,-6.813
7570.3,3.1084,-6.8679
7582,2.1193,-10.105
7593.8,3.6245,-12.974
7605.5,1.8169,-10.395
7617.2,0.53378,-11.93
7628.9,1.4783,-12.136
7640.6,1.0474,-10.622
7652.3,1.2488,-8.1846
7664.1,0.32602,-7.9817
7675.8,2.6814,-9.4533
7687.5,1.0717,-11.214
7699.2,3.3599,-11.681
7710.9,5.3491,-12.986
7722.7,2.8135,-12.821
7734.4,0.75593,-8.2596
7746.1,-0.26171,-7.2617
7757.8,-1.8671,-9.3642
7769.5,1.9589,-8.2889
7781.3,3.9429,-7.606
7793,2.9789,-10.953
7804.7,-0.18478,-14.679
7816.4,3.3267,-11.402
7828.1,2.537,-13.28
7839.8,0.85173,-11.944
7851.6,0.10976,-13.487
7863.3,-0.24422,-11.665
7875,2.1135,-9.9612
7886.7,4.7041,-9.7423
7898.4,3.2652,-9.0075
7910.2,1.2267,-9.7119
7921.9,2.9063,-11.542
7933.6,0.89729,-11.157
7945.3,1.7178,-10.571
7957,3.2271,-9.4553
7968.8,-0.21473,-10.179
7980.5,-1.5195,-9.7967
7992.2,2.6801,-7.1355
8003.9,2.8326,-4.6684
8015.6,-0.15406,-8.5292
8027.3,0.25763,-9.4603
8039.1,1.7632,-9.1825
8050.8,3.1014,-10.09
8062.5,3.1368,-10.273
8074.2,1.3307,-10.507
8085.9,3.5382,-9.0942
8097.7,5.2531,-10.749
8109.4,2.7722,-10.594
8121.1,1.159,-8.3111
8132.8,2.1415,-7.3026
8144.5,2.184,-11.634
8156.3,4.1809,-10.426
8168,3.628,-9.959
8179.7,1.5902,-8.6583
8191.4,0.42596,-11.192
8203.1,-0.58226,-10.812
8214.8,2.097,-9.6889
8226.6,3.6003,-8.7659
8238.3,4.0555,-9.3343
8250,1.5439,-9.7108
8261.7,-1.4957,-11.595
8273.4,-1.7617,-8.8693
8285.2,-0.82161,-9.792
8296.9,1.2443,-11.348
8308.6,2.8667,-9.0098
8320.3,0.50321,-11.177
8332,-2.4459,-13.502
8343.8,-1.4251,-8.859
8355.5,-6.269,-9.9984
8367.2,-4.163,-13.858
8378.9,-1.183,-13.414
8390.6,-0.89246,-12.18
8402.3,-1.0361,-12.327
8414.1,-2.1723,-12.129
8425.8,2.4672,-8.4155
8437.5,2.6327,-9.5172
8449.2,3.6395,-11.145
8460.9,3.0503,-10.389
8472.7,0.94543,-7.9276
8484.4,-0.82614,-7.896
8496.1,-0.83735,-5.4562
8507.8,0.99742,-8.0728
8519.5,2.5659,-11.994
8531.3,0.84309,-11.534
8543,-2.1243,-10.162
8554.7,0.46471,-11.819
8566.4,3.4054,-9.4432
8578.1,1.1851,-9.7263
8589.8,-0.44691,-13.273
8601.6,-1.6739,-10.33
8613.3,-0.73156,-10.633
8625,-0.096113,-12.46
8636.7,1.2172,-11.077
8648.4,1.9897,-10.717
8660.2,3.2421,-13.466
8671.9,2.24,-13.712
8683.6,0.56639,-12.832
8695.3,3.0187,-13.113
8707,1.5218,-10.62
8718.8,1.1077,-7.5346
8730.5,2.9492,-7.648
8742.2,1.9491,-10.838
8753.9,1.7011,-11.377
8765.6,3.5902,-11.836
8777.3,3.0839,-10.883
8789.1,0.45219,-10.177
8800.8,-3.8714,-12.503
8812.5,1.6267,-13.634
8824.2,2.0541,-10.9
8835.9,0.92645,-8.3082
8847.7,1.931,-9.7267
8859.4,1.8992,-10.784
8871.1,4.6025,-10.557
8882.8,0.68197,-9.1148
8894.5,1.2392,-9.2659
8906.3,-0.70269,-8.2142
8918,-2.5182,-7.1127
8929.7,3.4104,-11.88
8941.4,3.7121,-13.992
8953.1,1.3916,-13.389
8964.8,3.4552,-9.7316
8976.6,1.2135,-6.6603
8988.3,-0.17302,-10.257
9000,-2.0449,-10.078
9011.7,-4.2728,-11.161
9023.4,-2.7581,-9.3375
9035.2,-0.81358,-11.598
9046.9,-2.8542,-14.03
9058.6,-3.6084,-11.507
9070.3,-2.3689,-11.067
9082,1.4122,-13.225
9093.8,1.0363,-13.523
9105.5,-1.1668,-11.49
9117.2,-0.28685,-8.9546
9128.9,0.87744,-9.0307
9140.6,0.65147,-9.4653
9152.3,-0.45138,-9.3297
9164.1,-1.9465,-9.2656
9175.8,-1.3841,-11.065
9187.5,-1.215,-13.722
9199.2,-2.1736,-11.23
9210.9,-0.32983,-10.891
9222.7,-1.4936,-13.027
9234.4,0.15456,-13.181
9246.1,0.43919,-11.764
9257.8,0.84807,-11.276
9269.5,1.4875,-10.042
9281.3,1.2957,-11.422
9293,0.1172,-12.102
9304.7,0.65822,-10.615
9316.4,1.0494,-8.79
9328.1,3.5611,-8.8518
9339.8,1.6111,-11.052
9351.6,0.37753,-13.478
9363.3,-3.7812,-9.8589
9375,-0.84376,-9.5992
9386.7,3.6418,-9.4171
9398.4,3.2844,-10.777
9410.2,0.14023,-10.654
9421.9,0.12331,-10.693
9433.6,-0.99434,-10.038
9445.3,-1.868,-8.062
9457,1.0988,-6.3807
9468.8,-0.85733,-7.1291
9480.5,-0.46054,-11.94
9492.2,0.85617,-10.203
9503.9,-1.2972,-11.596
9515.6,-1.3599,-12.57
9527.3,-0.055359,-12.179
9539.1,-0.67335,-10.772
9550.8,-0.082617,-8.9123
9562.5,-0.026177,-9.794
9574.2,0.82775,-9.0505
9585.9,0.44144,-9.8137
9597.7,0.01352,-11.446
9609.4,0.91328,-11.608
9621.1,0.014938,-10.902
9632.8,3.3777,-13.67
9644.5,2.1205,-12.665
9656.3,0.95378,-9.3997
9668,1.8065,-10.439
9679.7,-0.69882,-11.848
9691.4,-2.6352,-10.753
9703.1,1.8364,-11.965
9714.8,-1.0376,-14.786
9726.6,-3.1112,-11.521
9738.3,-0.20443,-12.572
9750,0.71856,-12.048
9761.7,-0.16538,-10.332
9773.4,-0.73094,-8.94
9785.2,-0.96252,-9.474
9796.9,0.25885,-10.715
9808.6,-2.4845,-10.709
9820.3,-0.65634,-10.698
9832,-0.17942,-11.729
9843.8,-0.55593,-13.218
9855.5,-0.96729,-13.729
9867.2,1.1033,-13.154
9878.9,2.1132,-13.331
9890.6,1.0977,-12.78
9902.3,-0.25878,-12.039
9914.1,-2.927,-13.044
9925.8,-0.78999,-9.9659
9937.5,-0.098117,-7.765
9949.2,0.26455,-12.57
9960.9,2.3325,-13.904
9972.7,0.53656,-12.867
9984.4,0.31449,-10.761
9996.1,-2.1044,-11.432
10008,-3.6623,-12.682
10020,-1.9723,-13.021
10031,-5.3059,-14.996
10043,-0.41558,-12.451
10055,2.5769,-10.418
10066,3.1829,-11.021
10078,-2.8419,-13.153
10090,0.23539,-11.889
10102,-1.1054,-13.294
10113,-4.3432,-10.336
10125,-3.775,-9.0155
10137,-1.7612,-12.825
10148,-1.9367,-11.25
10160,1.421,-8.9767
10172,1.8649,-10.689
10184,-0.79196,-9.7798
10195,-0.41975,-12.44
10207,2.4525,-12.131
10219,2.8032,-8.6141
10230,1.012,-9.5957
10242,1.8859,-9.6843
10254,0.96495,-11.028
10266,-1.4765,-11.331
10277,-2.9754,-10.605
10289,-4.3757,-11.442
10301,-3.7199,-14.637
10313,-0.085068,-13.685
10324,0.68462,-12.451
10336,0.7749,-11.194
10348,-0.91251,-10.356
10359,0.57444,-10.92
10371,-1.2918,-12.495
10383,-2.9201,-12.095
10395,1.0008,-11.102
10406,0.63005,-13.945
10418,-0.23823,-12.279
10430,-1.306,-14.626
10441,-1.9944,-14.949
10453,2.0729,-13.685
10465,0.48714,-11.445
10477,-0.27285,-11.015
10488,0.60636,-11.256
10500,-0.39312,-12.928
10512,-1.2225,-13.422
10523,0.31326,-11.654
10535,0.67495,-10.968
10547,-0.34582,-11.01
10559,-0.93386,-13.208
10570,-0.35052,-11.245
10582,-0.87412,-12.986
10594,-4.2561,-10.97
10605,-3.0674,-10.045
10617,1.3416,-12.031
10629,-0.32732,-11.299
10641,0.49374,-9.0047
10652,-0.58577,-11.276
10664,-2.3567,-12.938
10676,-1.638,-11.79
10688,-0.26708,-14.838
10699,0.80252,-12.828
10711,-0.06452,-10.054
10723,0.16077,-9.6042
10734,0.5852,-10.924
10746,1.8201,-12.027
10758,2.056,-10.234
10770,-1.1838,-10.041
10781,-1.9269,-11.015
10793,-1.4646,-11.285
10805,-2.2449,-11.941
10816,-2.8778,-9.3688
10828,-1.5236,-10.537
10840,0.95368,-15.931
10852,0.1523,-12.757
10863,-1.5629,-11.942
10875,-2.7059,-12.52
10887,-0.99898,-12.516
10898,-2.0973,-10.711
10910,-0.6826,-12.704
10922,1.7294,-13.398
10934,-0.71687,-11.981
10945,-2.0547,-10.915
10957,-3.135,-10.346
10969,-0.52931,-10.805
10980,-2.9833,-11.65
10992,-3.0118,-12.631
11004,-4.2384,-13.528
11016,1.555,-11.601
11027,-0.69357,-12.418
11039,-2.3988,-14.029
11051,-3.0819,-12.16
11063,-3.328,-10.511
11074,-4.7469,-11.038
11086,-3.9053,-12.975
11098,-0.68327,-12.475
11109,-0.37371,-11.265
11121,-1.0149,-12.998
11133,0.35514,-11.751
11145,0.92357,-11.578
11156,1.1718,-10.854
11168,-4.5872,-10.271
11180,0.41236,-10.998
11191,-0.0041839,-9.274
11203,0.28502,-9.086
11215,1.0503,-9.4963
11227,-0.849,-11.329
11238,-0.72104,-16.353
11250,-1.7895,-13.09
11262,-3.2737,-14.567
11273,-0.73439,-12.357
11285,1.0534,-10.088
11297,-0.27172,-11.101
11309,-2.8045,-13.121
11320,-4.455,-13.773
11332,0.16493,-12.17
11344,2.324,-14.374
11355,0.1967,-11.765
11367,-2.5852,-9.4906
11379,-0.75139,-9.9155
11391,-0.91808,-13.258
11402,-2.2155,-11.019
11414,-0.53525,-12.816
11426,-0.022433,-13.571
11438,0.39802,-11.52
11449,-2.177,-14.597
11461,-2.8103,-12.263
11473,0.89431,-11.488
11484,0.40819,-12.219
11496,-1.0365,-11.568
11508,-1.5003,-13.995
11520,-3.3357,-16.905
11531,-1.6131,-11.441
11543,1.3119,-12.374
11555,0.16065,-11.924
11566,-0.38866,-13.434
11578,0.29647,-15.851
11590,-1.6284,-13.866
11602,-3.0846,-12.646
11613,-0.0018735,-11.641
11625,-2.4419,-13.969
11637,-1.9814,-15.071
11648,-2.7353,-10.749
11660,-3.3845,-9.4982
11672,-2.4552,-10.901
11684,0.45789,-12.927
11695,1.2862,-11.244
11707,-0.55882,-14.042
11719,-1.7403,-14.384
11730,-2.3292,-16.181
11742,-2.2792,-15.265
11754,-1.2911,-13.485
11766,-1.1077,-15.183
11777,-3.3635,-15.543
11789,-5.5818,-14.416
11801,-4.0352,-13.459
11813,-1.7297,-13.309
11824,0.59157,-13.84
11836,-0.018613,-13.63
11848,-2.3545,-11.32
11859,-3.4144,-9.2711
11871,-3.2587,-10.856
11883,-3.1648,-11.715
11895,-3.196,-13.79
11906,-4.3013,-16.38
11918,-3.8483,-15.379
11930,-1.1492,-14.727
11941,-0.24943,-14.035
11953,-0.17047,-14.016
11965,1.5678,-14.341
11977,0.0053027,-13.422
11988,-1.688,-11.821
12000,-2.6439,-10.487
12012,-2.7787,-10.646
12023,-3.0159,-13.126
12035,-3.2035,-11.825
12047,-3.3549,-11.526
12059,-4.604,-14.435
12070,-3.5132,-15.257
12082,-1.3481,-13.393
12094,-3.3851,-11.982
12105,-2.967,-11.258
12117,-2.52,-15.849
12129,-3.6395,-12.719
12141,-2.8289,-11.593
12152,-2.9906,-11.764
12164,-3.1232,-11.208
12176,-2.3763,-11.376
12188,-1.9809,-12.845
12199,-1.5113,-15.01
12211,0.2135,-14.56
12223,-1.8337,-11.986
12234,-4.9803,-13.085
12246,-5.6707,-16.381
12258,-2.9555,-13.973
12270,0.54284,-11.031
12281,-0.36324,-11.992
12293,-3.1467,-15.351
12305,-5.7549,-14.378
12316,-5.2225,-14.52
12328,-1.1121,-14.457
12340,-1.6164,-12.035
12352,-1.6773,-12.052
12363,-1.0763,-11.209
12375,-2.3379,-11.336
12387,-2.2206,-12.927
12398,-4.1287,-11.749
12410,-4.2868,-13.827
12422,-4.3056,-11.64
12434,-6.3615,-14.853
12445,-3.4066,-13.905
12457,1.2237,-11.996
12469,-0.78059,-12.344
12480,-3.4418,-11.566
12492,-3.8345,-15.743
12504,-4.2072,-13.843
12516,-2.8268,-12.367
12527,-2.1614,-12.934
12539,-1.9694,-11.093
12551,-2.716,-12.085
12563,0.47949,-12.613
12574,-1.2625,-12.985
12586,-5.7604,-12.699
12598,-3.5127,-11.613
12609,-2.9993,-10.748
12621,-5.2497,-13.114
12633,-1.6404,-13.289
12645,-1.6512,-14.305
12656,-1.688,-15.256
12668,0.9261,-11.09
12680,-0.77283,-9.8368
12691,-4.964,-11.166
12703,-8.5684,-13.707
12715,-5.3992,-12.864
12727,-2.4616,-12.221
12738,-2.6472,-14.77
12750,-2.8022,-14.003
12762,-4.7512,-11.052
12773,-3.4653,-12.951
12785,-1.716,-14.994
12797,-3.6151,-11.742
12809,-3.2522,-11.749
12820,-1.9311,-12.354
12832,-5.37,-11.873
12844,-4.629,-13.888
12855,-4.6872,-15.482
12867,-5.5365,-12.995
12879,-7.7217,-14.459
12891,-4.9084,-11.979
12902,-5.0281,-11.877
12914,-2.3575,-15.743
12926,-0.014429,-12.656
12938,-1.0808,-14.758
12949,-4.4731,-12.778
12961,-3.3249,-10.889
12973,-6.6579,-13.785
12984,-4.5367,-11.779
12996,-3.6607,-9.2819
13008,-4.4749,-9.0557
13020,-4.892,-12.568
13031,-5.3907,-13.974
13043,-7.3215,-12.251
13055,-5.5045,-13.019
13066,-2.3191,-15.38
13078,-2.6029,-15.781
13090,-2.0727,-11.777
13102,-2.7315,-15.473
13113,-3.6712,-14.083
13125,-5.9705,-14.97
13137,-6.2359,-13.734
13148,-5.6466,-11.908
13160,-4.5576,-12.176
13172,-4.8584,-11.747
13184,-6.1761,-9.5223
13195,-4.5056,-9.1731
13207,-2.6056,-14.676
13219,-7.079,-13.338
13230,-5.549,-11.384
13242,-1.7918,-12.534
13254,-2.3895,-13.339
13266,-2.7486,-12.69
13277,-6.1161,-14.19
13289,-2.6702,-14.719
13301,-1.0756,-13.711
13313,-3.2076,-11.563
13324,-4.4389,-10.804
13336,-3.1428,-12.7
13348,-3.3453,-14.161
13359,-5.3972,-12.609
13371,-6.948,-12.388
13383,-4.147,-14.052
13395,-2.3968,-15.122
13406,-4.6868,-18.092
13418,-4.8462,-13.177
13430,-7.5601,-12.398
13441,-7.6996,-13.515
13453,-6.5403,-12.983
13465,-6.4677,-14.499
13477,-6.1727,-15.156
13488,-5.7817,-15.283
13500,-3.5737,-15.751
13512,-3.6314,-15.359
13523,-6.4201,-14.636
13535,-7.4898,-14.995
13547,-7.2347,-13.601
13559,-5.6855,-13.684
13570,-5.1475,-17.035
13582,-3.2505,-17.991
13594,-6.7558,-14.569
13605,-3.5527,-14.235
13617,-4.6534,-15.107
13629,-6.1771,-14.484
13641,-5.756,-13.858
13652,-4.4657,-13.504
13664,-4.3164,-11.855
13676,-3.3583,-12.419
13688,-0.45384,-16.157
13699,-2.0394,-15.587
13711,-3.633,-15.085
13723,-6.3297,-15.913
13734,-4.6683,-15.253
13746,-4.4973,-11.295
13758,-4.869,-11.036
13770,-3.5425,-12.502
13781,-6.0774,-14.597
13793,-9.2264,-16.924
13805,-8.1211,-13.204
13816,-6.1275,-11.684
13828,-6.5855,-11.774
13840,-7.8709,-13.135
13852,-8.3496,-13.65
13863,-5.1926,-14.66
13875,-5.8453,-12.576
13887,-5.4184,-13.533
13898,-3.1632,-13.196
13910,-5.2628,-12.44
13922,-0.95857,-14.389
13934,-3.0225,-15.163
13945,-5.1337,-15.571
13957,-6.191,-14.117
13969,-6.8297,-12.897
13980,-6.794,-14.674
13992,-5.9159,-12.147
14004,-4.1473,-13.837
14016,-4.7764,-17.093
14027,-3.2892,-17.028
14039,-5.0716,-15.387
14051,-5.1514,-16.455
14063,-5.8138,-17.464
14074,-3.7414,-16.942
14086,-1.5998,-13.915
14098,-1.2988,-14.35
14109,-1.3223,-14.087
14121,-2.0199,-14.335
14133,-5.5147,-12.376
14145,-6.9059,-10.638
14156,-6.9374,-14.006
14168,-6.4864,-17.856
14180,-6.95,-14.789
14191,-5.4237,-13.616
14203,-7.6391,-16.009
14215,-9.1864,-19.09
14227,-6.6726,-17.201
14238,-4.6905,-16.873
14250,-4.8115,-14
14262,-5.7599,-14.86
14273,-7.1522,-14.992
14285,-8.5494,-13.266
14297,-8.386,-15.594
14309,-4.9512,-16.138
14320,-2.954,-14.054
14332,-4.0361,-15.882
14344,-2.7585,-16.343
14355,-4.909,-14.588
14367,-4.6015,-13.835
14379,-5.5147,-12.751
14391,-2.2796,-11.976
14402,-6.2602,-10.578
14414,-5.7878,-11.51
14426,-5.5439,-16.019
14438,-7.4995,-18.155
14449,-5.8467,-15.027
14461,-5.906,-14.808
14473,-4.2232,-17.704
14484,-2.8787,-17.849
14496,-3.1108,-19.92
14508,-5.0092,-14.114
14520,-3.2934,-14.654
14531,-3.2034,-17.184
14543,-5.2985,-14.41
14555,-5.7605,-14.732
14566,-5.5871,-15.088
14578,-4.1941,-12.31
14590,-6.2573,-14.315
14602,-5.3156,-14.066
14613,-5.3168,-12.598
14625,-6.6374,-10.716
14637,-5.8025,-8.687
14648,-4.4588,-10.965
14660,-6.1007,-14.504
14672,-5.1409,-17.129
14684,-7.3637,-17.139
14695,-7.8004,-16.344
14707,-5.1658,-13.828
14719,-6.5991,-13.24
14730,-8.9211,-16.47
14742,-6.7731,-14.254
14754,-5.2219,-13.205
14766,-6.0207,-13.013
14777,-8.2454,-14.497
14789,-6.7292,-13.965
14801,-8.2756,-15.691
14813,-7.2088,-14.507
14824,-4.3611,-16.529
14836,-4.3525,-15.105
14848,-5.4885,-14.445
14859,-4.6219,-15.149
14871,-4.8894,-13.417
14883,-5.3769,-17.24
14895,-6.7483,-13.847
14906,-5.6817,-14.993
14918,-7.2523,-15.741
14930,-6.3183,-16.097
14941,-6.129,-16.334
14953,-7.4632,-16.893
14965,-7.8715,-16.177
14977,-8.2136,-16.559
14988,-6.4057,-13.725
15000,-4.8157,-12.677
15012,-7.0963,-15.903
15023,-8.7116,-15.117
15035,-11.328,-12.861
15047,-8.4396,-13.309
15059,-4.2654,-12.409
15070,-3.6914,-12.858
15082,-4.6632,-13.375
15094,-5.6494,-14.771
15105,-7.1849,-18.336
15117,-8.3909,-15.046
15129,-5.2713,-13.532
15141,-5.514,-16.185
15152,-7.0541,-14.983
15164,-4.2914,-13.427
15176,-6.1142,-15.68
15188,-5.8204,-17.167
15199,-5.0623,-13.947
15211,-7.2856,-15.92
15223,-9.2957,-15.235
15234,-10.24,-13.735
15246,-7.8856,-13.01
15258,-7.3837,-15.136
15270,-6.728,-13.989
15281,-6.2466,-14.416
15293,-8.3836,-17.425
15305,-7.4191,-16.027
15316,-7.2529,-17.54
15328,-5.482,-15.763
15340,-6.7839,-15.744
15352,-9.4391,-18.156
15363,-7.8742,-16.748
15375,-9.4993,-17.242
15387,-6.899,-19.407
15398,-4.922,-17.024
15410,-5.9147,-15.014
15422,-8.1372,-17.542
15434,-8.3659,-16.825
15445,-7.9578,-16.562
15457,-5.4816,-14.608
15469,-3.3218,-14.813
15480,-4.0796,-13.056
15492,-5.986,-13.826
15504,-7.0016,-15.313
15516,-7.7992,-16.708
15527,-7.387,-16.543
15539,-6.0008,-17.846
15551,-6.3566,-15.851
15563,-4.6199,-16.868
15574,-7.4068,-16.665
15586,-11.417,-13.551
15598,-11.944,-11.205
15609,-10.832,-12.724
15621,-8.1897,-14.713
15633,-9.4236,-14.225
15645,-8.715,-17.584
15656,-6.2658,-18.058
15668,-5.6081,-16.517
15680,-7.7457,-12.44
15691,-10.749,-12.658
15703,-8.8151,-12.447
15715,-8.2692,-12.861
15727,-8.079,-16.352
15738,-7.8955,-16.912
15750,-6.7177,-17.241
15762,-8.7288,-17.073
15773,-11.994,-14.315
15785,-7.7632,-13.714
15797,-4.7648,-14.893
15809,-2.3934,-15.595
15820,-2.0953,-14.945
15832,-3.9312,-17.04
15844,-3.8162,-19.516
15855,-4.8369,-18.849
15867,-5.7497,-15.251
15879,-8.446,-15.699
15891,-10.484,-16.874
15902,-8.2395,-15.862
15914,-6.7914,-15.693
15926,-6.2912,-16.04
15938,-7.1858,-13.707
15949,-8.0133,-14.242
15961,-7.8203,-16.629
15973,-6.8778,-17.406
15984,-6.6814,-19.227
15996,-2.9531,-14.619
16008,-4.6786,-13.901
16020,-5.976,-15.679
16031,-7.828,-15.395
16043,-5.2186,-17.2
16055,-7.5401,-13.466
16066,-7.4633,-15.402
16078,-7.932,-14.02
16090,-8.6169,-14.553
16102,-9.7234,-15.155
16113,-9.2482,-14.824
16125,-7.4379,-15.496
16137,-8.3528,-16.741
16148,-9.9219,-16.081
16160,-6.3738,-14.915
16172,-8.0926,-14.393
16184,-8.5961,-14.055
16195,-9.8811,-19.238
16207,-7.4493,-18.939
16219,-8.2114,-19.821
16230,-10.066,-14.216
16242,-6.8456,-14.081
16254,-7.2466,-17.323
16266,-10.165,-15.454
16277,-9.8871,-13.749
16289,-10.423,-13.678
16301,-10.56,-15.258
16313,-9.4578,-19.359
16324,-8.1935,-19.417
16336,-6.9889,-14.374
16348,-7.6789,-14.931
16359,-9.2319,-15.221
16371,-7.6703,-13.272
16383,-6.3339,-15.338
16395,-8.8128,-16.938
16406,-7.0987,-16.925
16418,-8.7884,-15.438
16430,-10.935,-13.375
16441,-10.406,-17.062
16453,-12.838,-17.138
16465,-7.3888,-16.68
16477,-4.7831,-12.988
16488,-5.5738,-13.534
16500,-7.3303,-17.03
16512,-7.4711,-17.094
16523,-7.496,-16.544
16535,-12.087,-17.068
16547,-7.831,-15.844
16559,-8.3435,-17.155
16570,-10.122,-16.949
16582,-9.3413,-16.763
16594,-7.8073,-18.185
16605,-9.6987,-14.529
16617,-11.579,-12.925
16629,-13.548,-13.887
16641,-11.334,-11.882
16652,-9.3515,-14.891
16664,-8.2712,-17.2
16676,-12.293,-17.037
16688,-8.0893,-18.035
16699,-5.6642,-16.225
16711,-7.8936,-12.708
16723,-9.6009,-11.898
16734,-7.8988,-15.356
16746,-12.931,-16.977
16758,-10.123,-15.956
16770,-8.0105,-18.997
16781,-11.62,-15.758
16793,-10.792,-14.761
16805,-8.1981,-14.565
16816,-8.1198,-16.618
16828,-12.327,-16.357
16840,-9.4058,-16.235
16852,-7.3309,-16.785
16863,-9.8317,-15.774
16875,-5.6272,-18.678
16887,-7.7659,-20.42
16898,-9.7189,-19.479
16910,-7.5397,-15.683
16922,-9.1782,-16.068
16934,-10.404,-18.785
16945,-10.683,-18.844
16957,-10.059,-14.415
16969,-9.2322,-15.363
16980,-8.3107,-15.622
16992,-7.9901,-16.49
17004,-8.9138,-16.116
17016,-8.5378,-18.425
17027,-7.8389,-16.231
17039,-8.7932,-16.991
17051,-7.8612,-17.734
17063,-10.052,-16.74
17074,-11.642,-18.784
17086,-12.026,-18.031
17098,-11.178,-18.202
17109,-10.986,-13.775
17121,-9.3652,-16.561
17133,-8.4903,-18.196
17145,-8.3284,-16.234
17156,-7.3976,-18.924
17168,-9.3704,-16.393
17180,-10.006,-18.768
17191,-10.187,-15.744
17203,-11.403,-15.74
17215,-8.8401,-16.353
17227,-10.129,-15.064
17238,-10.964,-14.277
17250,-11.254,-18.169
17262,-11.457,-18.774
17273,-9.1679,-16.871
17285,-8.1862,-18.06
17297,-9.0881,-16.782
17309,-12.951,-17.611
17320,-12.573,-19.33
17332,-13.322,-16.777
17344,-12.587,-15.281
17355,-10.87,-17.073
17367,-12.085,-17.107
17379,-12.523,-17.011
17391,-11.134,-17.357
17402,-10.267,-17.427
17414,-12.416,-15.955
17426,-8.8168,-17.047
17438,-7.0809,-19.422
17449,-9.8364,-17.454
17461,-13.958,-14.882
17473,-13.451,-17.001
17484,-14.783,-18.277
17496,-16.012,-20.134
17508,-14.108,-15.673
17520,-13.136,-16.46
17531,-15.419,-16.122
17543,-13.835,-19.339
17555,-10.661,-17.954
17566,-11.709,-14.482
17578,-15.269,-15.563
17590,-9.9065,-15.992
17602,-8.0761,-16.483
17613,-10.653,-15.954
17625,-12.98,-17.888
17637,-11.402,-16.332
17648,-14.676,-16.945
17660,-9.9533,-23.338
17672,-11.369,-21.581
17684,-12.21,-17.331
17695,-11.094,-16.15
17707,-9.0628,-17.108
17719,-8.4829,-16.136
17730,-12.733,-15.09
17742,-11.985,-15.571
17754,-9.9599,-16.587
17766,-12.818,-20.085
17777,-7.0299,-19.867
17789,-7.1831,-16.824
17801,-9.6784,-15.322
17813,-10.783,-17.62
17824,-12.635,-18.79
17836,-10.396,-19.076
17848,-10.166,-20.159
17859,-10.353,-20.569
17871,-10.802,-18.858
17883,-11.179,-16.484
17895,-13.623,-15.047
17906,-13.998,-17.068
17918,-12.99,-17.749
17930,-11.7,-17.613
17941,-11.94,-17.316
17953,-13.376,-16.976
17965,-12.496,-16.443
17977,-14.212,-16.521
17988,-13.978,-14.007
18000,-11.142,-12.211
18012,-10.884,-15.46
18023,-9.3018,-17.517
18035,-9.5286,-18.316
18047,-10.113,-19.701
18059,-8.1706,-15.905
18070,-7.4213,-16.711
18082,-9.7607,-16.31
18094,-9.8366,-15.629
18105,-7.5277,-15.537
18117,-9.0325,-13.159
18129,-11.84,-14.044
18141,-11.663,-14.372
18152,-11.99,-17.558
18164,-12.092,-17.362
18176,-10.894,-14.465
18188,-12.846,-15.614
18199,-11.7,-18.567
18211,-12.727,-19.775
18223,-14.969,-16.187
18234,-14.603,-16.115
18246,-14.656,-17.018
18258,-13.848,-16.857
18270,-10.404,-19.155
18281,-9.6135,-17.156
18293,-11.404,-15.406
18305,-10.311,-17.13
18316,-9.7849,-17.196
18328,-9.657,-17.611
18340,-13.645,-18.537
18352,-12.169,-19.369
18363,-11.88,-20.354
18375,-12.25,-20.301
18387,-9.8617,-19.59
18398,-11.856,-18
18410,-12.458,-16.57
18422,-13.716,-19.339
18434,-15.003,-19.034
18445,-12.988,-17.558
18457,-11.551,-19.099
18469,-11.913,-17.045
18480,-11.383,-15.7
18492,-11.281,-15.201
18504,-14.41,-17.344
18516,-9.4482,-16.635
18527,-12.657,-15.735
18539,-11.097,-15.089
18551,-9.0184,-16.669
18563,-9.0633,-19.493
18574,-11.875,-19.676
18586,-14.15,-20.664
18598,-11.267,-21.616
18609,-12.796,-19.738
18621,-13.997,-16.587
18633,-11.587,-15.466
18645,-12.802,-14.506
18656,-10.695,-14.802
18668,-10.93,-16.128
18680,-11.661,-15.892
18691,-11.688,-16.731
18703,-12.476,-19.715
18715,-11.024,-18.945
18727,-14.331,-15.796
18738,-14.495,-17.525
18750,-11.94,-20.282
18762,-10.295,-17.717
18773,-11.256,-18.658
18785,-11.617,-16.427
18797,-13.509,-15.605
18809,-14.17,-17.854
18820,-13.116,-20.633
18832,-14.698,-19.195
18844,-10.815,-15.18
18855,-12.608,-14.467
18867,-13.918,-14.952
18879,-14.01,-16.819
18891,-12.011,-21.105
18902,-10.706,-18.889
18914,-14.465,-18.438
18926,-12.732,-18.551
18938,-11.21,-18.144
18949,-14.262,-16.295
18961,-15.833,-18.209
18973,-14.289,-16.761
18984,-12.57,-17.718
18996,-12.099,-16.386
19008,-11.694,-17.55
19020,-13.397,-17.54
19031,-13.111,-16.296
19043,-10.404,-16.454
19055,-8.6784,-18.997
19066,-10.037,-18.46
19078,-9.1611,-18.379
19090,-11.571,-17.823
19102,-15.466,-17.391
19113,-15.407,-15.87
19125,-14.67,-15.404
19137,-13.863,-17.154
19148,-15.828,-18.117
19160,-15.382,-16.294
19172,-15.56,-16.906
19184,-13.946,-18.86
19195,-11.987,-15.359
19207,-11.036,-15.955
19219,-12.841,-20.475
19230,-10.911,-18.459
19242,-11.15,-16.211
19254,-12.921,-14.001
19266,-14.533,-14.954
19277,-13.957,-17.781
19289,-11.981,-20.235
19301,-11.589,-19.146
19313,-14.984,-17.88
19324,-14.613,-22.805
19336,-14.474,-19.653
19348,-13.279,-16.684
19359,-11.834,-18.672
19371,-13.491,-18.519
19383,-16.082,-18.133
19395,-15.051,-18.499
19406,-13.835,-18.044
19418,-13.322,-21.956
19430,-13.887,-16.891
19441,-12.168,-19.384
19453,-11.364,-18.694
19465,-12.113,-15.699
19477,-14.885,-16.46
19488,-13.585,-18.503
19500,-12.526,-17.852
19512,-13.346,-16.477
19523,-13.818,-17.856
19535,-11.082,-17.076
19547,-12.691,-18.795
19559,-15.933,-18.226
19570,-14.82,-17.405
19582,-16.501,-17.933
19594,-12.865,-18.139
19605,-11.723,-18.66
19617,-13.183,-22.105
19629,-14.485,-18.232
19641,-16.321,-17.646
19652,-15.666,-20.546
19664,-12.741,-15.64
19676,-12.07,-18.095
19688,-14.321,-17.478
19699,-14.363,-17.358
19711,-14.279,-17.66
19723,-15.16,-19.79
19734,-16.857,-21.003
19746,-17.842,-18.429
19758,-13.711,-18.998
19770,-10.831,-15.328
19781,-11.521,-16.941
19793,-16.18,-21.259
19805,-12.577,-19.457
19816,-12.788,-19.366
19828,-11.522,-20.325
19840,-11.267,-18.813
19852,-11.147,-16.631
19863,-11.052,-17.222
19875,-13.015,-17.519
19887,-17.501,-16.065
19898,-14.988,-17.905
19910,-13.652,-21.509
19922,-13.094,-20.103
19934,-17.419,-17.486
19945,-14.069,-18.728
19957,-10.831,-18.379
19969,-10.429,-16.287
19980,-14.153,-20.601
19992,-16.478,-16.774
20004,-12.932,-13.956
20016,-13.925,-14.989
20027,-13.563,-16.311
20039,-12.201,-17.257
20051,-11.383,-20.981
20063,-12.491,-18.259
20074,-14.841,-15.269
20086,-18.072,-15.812
20098,-13.947,-18.289
20109,-13.056,-19.095
20121,-14.255,-18.89
20133,-13.847,-20.023
20145,-14.231,-20.091
20156,-16.686,-16.454
20168,-15.824,-16.318
20180,-14.072,-17.259
20191,-16.482,-16.98
20203,-14.917,-17.801
20215,-13.504,-21.351
20227,-14.748,-19.307
20238,-14.809,-19.11
20250,-14.441,-16.852
20262,-15.613,-16.929
20273,-14.366,-18.073
20285,-13.665,-20.799
20297,-14.373,-23.323
20309,-17.313,-23.518
20320,-17.085,-17.938
20332,-16.785,-17.787
20344,-17.233,-19.394
20355,-14.981,-19.241
20367,-14.488,-20.695
20379,-13.27,-18.108
20391,-13.164,-15.959
20402,-14.226,-19.605
20414,-11.85,-19.171
20426,-14.8,-17.599
20438,-18.198,-16.973
20449,-12.744,-18.125
20461,-11.862,-18.855
20473,-15.434,-17.457
20484,-12.363,-18.417
20496,-12.733,-20.002
20508,-13.961,-24.08
20520,-13.863,-22.108
20531,-15.367,-19.077
20543,-16.066,-19.434
20555,-14.474,-18.525
20566,-15.059,-17.353
20578,-14.052,-19.009
20590,-11.425,-20.839
20602,-11.802,-23.397
20613,-14.591,-21.787
20625,-16.109,-20.485
20637,-11.683,-20.07
20648,-13.045,-20.027
20660,-17.733,-18.328
20672,-15.717,-18.503
20684,-16.859,-17.969
20695,-15.912,-18.996
20707,-13.51,-19.505
20719,-13.595,-18.071
20730,-16.131,-19.709
20742,-18.102,-18.417
20754,-15.287,-16.865
20766,-18.169,-20.105
20777,-14.021,-18.175
20789,-14.143,-18.305
20801,-14.271,-19.431
20813,-12.082,-20.086
20824,-11.839,-17.015
20836,-12.033,-18.746
20848,-11.52,-19.459
20859,-12.962,-20.611
20871,-15.08,-20.228
20883,-14.542,-20.052
20895,-12.451,-17.314
20906,-14.706,-19.078
20918,-15.425,-20.02
20930,-15.046,-18.89
20941,-15.026,-21.094
20953,-17.101,-20.765
20965,-19.937,-19.127
20977,-14.613,-21.76
20988,-13.955,-21.218
21000,-13.898,-17.342
21012,-16.197,-17.454
21023,-19.348,-19.058
21035,-17.484,-21.577
21047,-16.094,-19.366
21059,-15.447,-19.633
21070,-16.36,-18.075
21082,-16.985,-16.133
21094,-17.924,-17.204
21105,-15.777,-18.479
21117,-17.029,-19.879
21129,-13.566,-19.132
21141,-13.433,-20.36
21152,-13.621,-20.047
21164,-14.439,-19.619
21176,-14.745,-22.742
21188,-19.244,-22.716
21199,-16.769,-21.625
21211,-15.101,-21.916
21223,-15.448,-19.971
21234,-16.083,-22.193
21246,-14.183,-21.341
21258,-14.7,-19.921
21270,-17.392,-22.804
21281,-21.654,-19.849
21293,-19.327,-18.416
21305,-18.019,-19.52
21316,-15.157,-21.582
21328,-14.188,-20.718
21340,-15.152,-20.595
21352,-18.627,-20.423
21363,-16.209,-20.777
21375,-14.516,-21.318
21387,-15.728,-18.54
21398,-16.563,-20.039
21410,-15.051,-19.941
21422,-17.388,-19.729
21434,-18.289,-20.339
21445,-16.376,-22.563
21457,-15.641,-21.021
21469,-18.238,-20.353
21480,-18.941,-21.359
21492,-16.727,-20.19
21504,-16.789,-19.302
21516,-12.294,-18.684
21527,-13.882,-18.761
21539,-15.38,-19.428
21551,-15.277,-18.563
21563,-15.853,-17.62
21574,-14.989,-18.004
21586,-16.303,-20.405
21598,-14.974,-18.632
21609,-15.035,-19.614
21621,-18.268,-18.645
21633,-18.877,-18.64
21645,-13.506,-20.81
21656,-13.966,-19.283
21668,-18.405,-15.96
21680,-14.887,-17.592
21691,-16.508,-19.593
21703,-16.92,-22.571
21715,-17.979,-19.956
21727,-17.295,-20.121
21738,-18.457,-21.759
21750,-18.391,-19.984
21762,-17.585,-16.413
21773,-17.286,-19.143
21785,-14.46,-21.727
21797,-16.333,-19.268
21809,-14.446,-20.126
21820,-13.569,-20.136
21832,-14.445,-19.735
21844,-13.437,-19.94
21855,-12.941,-19.248
21867,-11.282,-22.086
21879,-8.8847,-21.114
21891,-11.27,-19.917
21902,-13.651,-21.306
21914,-10.371,-21.507
21926,-12.212,-19.25
21938,-12.75,-21.503
21949,-14.406,-20.326
21961,-17.313,-21.955
21973,-12.223,-19.085
21984,-12.816,-16.924
21996,-13.736,-13.851
22008,-11.417,-15.243
22020,-13.229,-22.075
22031,-11.397,-21.89
22043,-12.475,-19.041
22055,-15.425,-18.654
22066,-14.378,-16.462
22078,-16.181,-17.308
22090,-16.41,-20.693
22102,-15.222,-18.067
22113,-15.356,-16.879
22125,-14.297,-18.399
22137,-15.077,-22.39
22148,-15.607,-19.246
22160,-19.018,-18.894
22172,-18.799,-21.483
22184,-17.296,-20.471
22195,-17.198,-20.022
22207,-16.28,-19.357
22219,-18.391,-21.268
22230,-17.109,-21.03
22242,-16.274,-17.465
22254,-16.234,-19.48
22266,-18.082,-22.618
22277,-16.626,-21.648
22289,-14.16,-20.075
22301,-15.065,-19.436
22313,-16.766,-18.948
22324,-18.412,-17.649
22336,-17.402,-16.648
22348,-13.606,-19.501
22359,-15.293,-21.263
22371,-19.145,-20.243
22383,-19.364,-19.984
22395,-17.632,-18.422
22406,-16.313,-21.182
22418,-14.488,-22.321
22430,-16.117,-24.113
22441,-19.659,-21.181
22453,-18.9,-21.003
22465,-16.524,-21.83
22477,-16.463,-20.202
22488,-13.921,-19.77
22500,-14.791,-17.972
22512,-18.747,-18.989
22523,-20.866,-19.622
22535,-17.847,-18.192
22547,-16.05,-18.268
22559,-18.923,-21.318
22570,-18.771,-22.081
22582,-17.663,-21.846
22594,-20.896,-19.678
22605,-18.084,-18.5
22617,-16.954,-20.835
22629,-15.161,-21.694
22641,-16.05,-22.205
22652,-17.625,-23.188
22664,-16.393,-22.393
22676,-16.545,-20.069
22688,-15.965,-20.293
22699,-17.77,-21.108
22711,-18.862,-23.552
22723,-18.692,-22.978
22734,-18.225,-17.612
22746,-17.583,-16.5
22758,-18.467,-17.265
22770,-18.679,-18.574
22781,-16.28,-19.876
22793,-16.393,-21.032
22805,-18.73,-19.703
22816,-17.461,-21.26
22828,-16.583,-22.648
22840,-18.289,-20.123
22852,-17.566,-19.174
22863,-16.126,-19.876
22875,-15.522,-21.947
22887,-17.579,-20.69
22898,-18.803,-19.915
22910,-19.264,-21.247
22922,-15.53,-23.423
22934,-13.425,-19.602
22945,-15.271,-21.789
22957,-17.483,-22.932
22969,-13.706,-19.428
22980,-16.609,-20.327
22992,-15.397,-17.698
23004,-19.52,-15.339
23016,-19.928,-17.846
23027,-18.3,-17.531
23039,-17.882,-17.675
23051,-19.674,-22.089
23063,-20.213,-21.93
23074,-18.435,-22.848
23086,-16.357,-23.557
23098,-18.414,-21.593
23109,-15.666,-20.555
23121,-14.248,-18.044
23133,-15.147,-18.414
23145,-16.657,-19.667
23156,-18.153,-18.25
23168,-15.601,-15.576
23180,-13.735,-17.031
23191,-14.842,-19.37
23203,-17.943,-20.887
23215,-18.061,-21.548
23227,-16.741,-20.155
23238,-17.701,-18.311
23250,-17.745,-18.261
23262,-17.795,-17.922
23273,-16.889,-18.752
23285,-17.867,-22.345
23297,-18.163,-20.902
23309,-17.772,-19.869
23320,-18.199,-20.973
23332,-18.633,-18.222
23344,-18.718,-18.805
23355,-16.17,-18.595
23367,-16.874,-18.572
23379,-17.702,-21.875
23391,-16.536,-22.041
23402,-17.421,-19
23414,-14.749,-17.794
23426,-17.533,-18.303
23438,-18.805,-18.145
23449,-16.813,-20.26
23461,-17.307,-20.65
23473,-19.665,-21.817
23484,-20.823,-18.845
23496,-16.936,-21.407
23508,-15.931,-22.026
23520,-15.652,-22.347
23531,-16.204,-19.086
23543,-18.071,-17.614
23555,-18.465,-18.623
23566,-15.216,-20.881
23578,-14.949,-18.617
23590,-13.011,-17.721
23602,-11.186,-23.804
23613,-12.602,-22.527
23625,-17.512,-19.228
23637,-20.019,-20.237
23648,-18.291,-20.416
23660,-18.424,-19.105
23672,-18.186,-19.289
23684,-16.444,-20.196
23695,-15.469,-20.499
23707,-15.588,-24.097
23719,-16.845,-24.257
23730,-15.222,-20.766
23742,-16.453,-20.605
23754,-16.766,-21.926
23766,-17.063,-23.768
23777,-20.513,-21.346
23789,-15.313,-18.858
23801,-14.246,-18.92
23813,-15.679,-17.529
23824,-19.438,-18.759
23836,-20.297,-22.715
23848,-19.492,-18.896
23859,-18.22,-18.62
23871,-16.651,-22.142
23883,-16.956,-24.23
23895,-16.679,-23.535
23906,-17.615,-21.099
23918,-17.009,-19.628
23930,-17.761,-23.874
23941,-18.012,-23.454
23953,-17.731,-23.153
23965,-18.782,-21.64
23977,-20.486,-21.811
23988,-15.782,-17.502
