FFT,Power Spectrum
Frequency[Hz],Level-L[dB],Level-R[dB]
11.719,-4.5374,-61.161
23.438,15.231,-53.608
35.156,12.835,-38.045
46.875,19.129,-26.738
58.594,21.125,-26.764
70.313,21.133,-31.428
82.031,25.596,-25.103
93.75,24.032,-24.141
105.47,17.922,-22.877
117.19,17.195,-20.175
128.91,19.377,-18.011
140.63,25.542,-14.898
152.34,22.51,-13.414
164.06,15.244,-16.218
175.78,18.388,-16.769
187.5,22.785,-17.355
199.22,22.932,-18.754
210.94,18.517,-20.943
222.66,18.115,-16.976
234.38,29.456,-14.503
246.09,40.769,-13.542
257.81,39.336,-14.43
269.53,21.652,-15.051
281.25,16.895,-17.834
292.97,17.374,-16.981
304.69,17.245,-13.928
316.41,17.452,-15.484
328.13,18.578,-16.424
339.84,17.967,-15.906
351.56,16.894,-13.031
363.28,17.514,-13.939
375,20.144,-13.433
386.72,17.66,-13.033
398.44,18.63,-14.947
410.16,18.454,-15.558
421.88,17.553,-14.492
433.59,18.078,-12.881
445.31,18.058,-11.844
457.03,16.333,-11.973
468.75,15.176,-13.235
480.47,13.53,-13.388
492.19,11.761,-11.858
503.91,12.608,-13.19
515.63,15.667,-11.382
527.34,15.279,-12.048
539.06,14.014,-14.531
550.78,11.134,-15.713
562.5,17.776,-12.114
574.22,17.862,-12.669
585.94,16.245,-14.792
597.66,14.572,-11.839
609.38,19.549,-9.0192
621.09,20.619,-8.2754
632.81,19.651,-9.7068
644.53,17.384,-8.1524
656.25,15.054,-8.1753
667.97,13.671,-9.8697
679.69,15.945,-11.38
691.41,17.22,-10.895
703.13,18.851,-8.0575
714.84,13.695,-9.4378
726.56,17.384,-10.77
738.28,16.437,-9.382
750,12.536,-9.0239
761.72,15.206,-9.078
773.44,16.13,-9.6995
785.16,13.68,-9.2921
796.88,12.673,-9.5131
808.59,12.571,-10.52
820.31,14.257,-10.085
832.03,16.352,-9.025
843.75,17.395,-9.792
855.47,15.877,-10.629
867.19,13.022,-12.397
878.91,12.086,-8.8082
890.63,11.67,-6.4767
902.34,14.553,-8.3802
914.06,16.474,-8.2097
925.78,15.185,-6.4484
937.5,14.38,-8.0504
949.22,12.903,-5.6811
960.94,13.823,-7.682
972.66,13.564,-9.8871
984.38,11.646,-11.357
996.09,14.62,-10.28
1007.8,15.13,-8.39
1019.5,14.716,-11.395
1031.3,14.585,-9.7612
1043,14.285,-7.7007
1054.7,15.101,-7.7624
1066.4,14.495,-9.506
1078.1,13.001,-8.1692
1089.8,14.847,-7.6768
1101.6,13.324,-7.0215
1113.3,15.498,-7.3687
1125,14.67,-11.865
1136.7,14.892,-11.539
1148.4,14.285,-9.8617
1160.2,14.861,-9.3689
1171.9,15.874,-10.001
1183.6,10.983,-9.4416
1195.3,11.466,-11.999
1207,15.546,-9.9617
1218.8,18.422,-9.9363
1230.5,15.381,-8.2593
1242.2,12.777,-4.8597
1253.9,13.903,-4.4312
1265.6,14.407,-5.9107
1277.3,14.869,-6.657
1289.1,13.425,-8.4432
1300.8,14.51,-9.0597
1312.5,15.271,-8.5579
1324.2,13.08,-6.8061
1335.9,14.471,-6.9608
1347.7,16.853,-7.3231
1359.4,16.789,-9.3252
1371.1,16.704,-7.737
1382.8,17.524,-8.0243
1394.5,16.81,-6.6049
1406.3,17.961,-4.4936
1418,18.812,-4.1379
1429.7,19.992,-5.9054
1441.4,20.117,-10.871
1453.1,14.596,-11.368
1464.8,18.027,-9.24
1476.6,18.9,-9.3085
1488.3,17.027,-9.2009
1500,16.321,-9.5064
1511.7,15.014,-6.8832
1523.4,15.143,-5.5677
1535.2,15.37,-6.1778
1546.9,13.209,-8.4175
1558.6,12.75,-7.7876
1570.3,13.25,-9.0654
1582,10.882,-6.2486
1593.8,12.071,-4.9232
1605.5,11.613,-5.1004
1617.2,13.617,-7.0131
1628.9,11.982,-8.8273
1640.6,13.154,-9.111
1652.3,12.829,-3.8147
1664.1,13.63,-4.3458
1675.8,15.82,-5.596
1687.5,13.641,-8.3447
1699.2,11.592,-9.7274
1710.9,14.048,-8.8775
1722.7,14.22,-7.9256
1734.4,16.047,-9.5063
1746.1,15.117,-10.031
1757.8,11.689,-8.3929
1769.5,12.423,-5.9169
1781.3,15.662,-4.2266
1793,19.171,-5.0553
1804.7,20.176,-6.3004
1816.4,19.753,-5.5946
1828.1,20.158,-9.4276
1839.8,16.263,-8.005
1851.6,13.645,-8.3288
1863.3,12.038,-9.0937
1875,15.035,-7.4469
1886.7,17.104,-8.5144
1898.4,19.666,-10.248
1910.2,17.049,-8.773
1921.9,13.342,-5.9641
1933.6,14.878,-10.776
1945.3,14.804,-11.995
1957,16.459,-8.7886
1968.8,12.492,-7.873
1980.5,11.129,-6.2277
1992.2,12.012,-5.1734
2003.9,9.3466,-6.0045
2015.6,12.532,-4.4257
2027.3,12.918,-5.8417
2039.1,9.9531,-7.6669
2050.8,10.259,-8.8178
2062.5,12.119,-7.479
2074.2,13.992,-6.6262
2085.9,13.757,-7.4838
2097.7,10.02,-7.6547
2109.4,13.35,-6.8635
2121.1,14.323,-6.7717
2132.8,13.708,-8.2419
2144.5,10.371,-8.0037
2156.3,14.449,-6.8975
2168,14.19,-4.6625
2179.7,13.428,-4.0036
2191.4,12.107,-4.4104
2203.1,10.904,-5.771
2214.8,10.904,-8.4571
2226.6,14.223,-8.2651
2238.3,16.658,-8.4127
2250,15.272,-6.3419
2261.7,14.468,-7.3382
2273.4,14.38,-6.1578
2285.2,15.63,-8.5557
2296.9,12.216,-7.6389
2308.6,12.179,-6.8503
2320.3,11.037,-8.3364
2332,10.407,-10.021
2343.8,13.978,-10.113
2355.5,14.073,-13.966
2367.2,13.483,-8.4003
2378.9,13.447,-9.6418
2390.6,17.849,-7.8911
2402.3,17.905,-9.3379
2414.1,12.882,-9.7035
2425.8,14.941,-5.4965
2437.5,14.926,-3.5578
2449.2,12.423,-7.5763
2460.9,9.6335,-4.3714
2472.7,9.9064,-4.9436
2484.4,12.76,-11.06
2496.1,11.185,-6.4818
2507.8,9.8114,-6.3654
2519.5,13.037,-4.9619
2531.3,12.779,-7.7252
2543,11.748,-7.7581
2554.7,14.726,-6.4532
2566.4,12.991,-6.5027
2578.1,10.485,-6.3322
2589.8,13.866,-5.6245
2601.6,16.155,-4.1019
2613.3,14.742,-4.5765
2625,12.334,-6.8231
2636.7,11.859,-7.6723
2648.4,13.913,-6.7709
2660.2,13.846,-5.4524
2671.9,11.795,-7.9959
2683.6,12.607,-6.3391
2695.3,10.119,-4.293
2707,10.228,-5.7838
2718.8,8.8084,-3.6593
2730.5,9.9333,-6.7435
2742.2,14.022,-9.7242
2753.9,12.138,-8.631
2765.6,12.869,-8.9726
2777.3,13.674,-6.6632
2789.1,10.142,-5.5668
2800.8,9.9483,-4.7354
2812.5,9.2571,-6.5252
2824.2,10.899,-9.3843
2835.9,12.248,-6.9425
2847.7,13.669,-7.0696
2859.4,13.651,-6.5406
2871.1,10.955,-8.9817
2882.8,12.233,-9.2211
2894.5,13.112,-7.3949
2906.3,12.282,-8.3932
2918,12.958,-7.6433
2929.7,10.017,-10.241
2941.4,10.366,-5.9109
2953.1,13.526,-5.4809
2964.8,11.532,-7.2145
2976.6,12.897,-6.7635
2988.3,14.134,-4.876
3000,12.417,-5.9904
3011.7,9.9572,-7.8364
3023.4,8.6779,-8.0942
3035.2,10.763,-8.8096
3046.9,12.5,-7.8186
3058.6,11.929,-7.8387
3070.3,11.813,-7.3267
3082,11.381,-8.3318
3093.8,11.88,-11.481
3105.5,10.334,-8.2908
3117.2,12.04,-7.7051
3128.9,12.931,-6.8615
3140.6,15.166,-7.327
3152.3,17.274,-7.9081
3164.1,13.958,-7.5753
3175.8,9.2863,-8.3932
3187.5,11.031,-9.5137
3199.2,11.009,-7.2847
3210.9,8.2177,-5.7311
3222.7,8.9408,-6.8422
3234.4,10.406,-7.5946
3246.1,10.556,-4.0748
3257.8,12.187,-4.3097
3269.5,12.779,-6.6025
3281.3,12.717,-8.7232
3293,10.408,-8.1435
3304.7,10.283,-8.2711
3316.4,9.408,-7.832
3328.1,11.364,-7.153
3339.8,11.274,-9.2175
3351.6,11.249,-9.971
3363.3,12.68,-9.7603
3375,13.064,-8.0787
3386.7,10.734,-7.04
3398.4,10.572,-5.0456
3410.2,14.665,-6.5293
3421.9,12.008,-5.8018
3433.6,9.5537,-8.6871
3445.3,8.3082,-8.8611
3457,8.063,-7.7636
3468.8,9.5017,-7.6426
3480.5,8.5195,-8.1543
3492.2,8.215,-10.675
3503.9,8.1845,-10.205
3515.6,10.142,-10.21
3527.3,11.007,-9.1661
3539.1,9.7733,-7.8012
3550.8,10.111,-8.2958
3562.5,11.973,-7.9413
3574.2,13.098,-6.6885
3585.9,13.364,-5.3149
3597.7,10.253,-4.5435
3609.4,7.6156,-2.6617
3621.1,8.8326,-4.3801
3632.8,7.487,-8.8111
3644.5,8.2799,-7.7675
3656.3,13.189,-7.797
3668,11.793,-10.743
3679.7,9.4935,-11.359
3691.4,11.836,-7.2935
3703.1,9.5982,-5.0828
3714.8,8.7087,-3.4418
3726.6,10.278,-3.358
3738.3,13.273,-6.8184
3750,14.158,-9.5248
3761.7,10.742,-8.387
3773.4,7.6247,-9.1063
3785.2,10.355,-9.1593
3796.9,10.51,-7.6432
3808.6,7.4661,-5.1682
3820.3,8.7219,-6.2245
3832,10.111,-7.7207
3843.8,9.7796,-5.4742
3855.5,9.3533,-7.1095
3867.2,9.88,-9.6618
3878.9,10.595,-11.144
3890.6,10.493,-8.7522
3902.3,9.9648,-8.1496
3914.1,11.328,-5.1807
3925.8,9.739,-6.3485
3937.5,7.7437,-8.4114
3949.2,6.9115,-7.6126
3960.9,10.229,-8.6655
3972.7,9.979,-8.8239
3984.4,7.8077,-8.9495
3996.1,6.8895,-5.4726
4007.8,7.624,-6.391
4019.5,9.7475,-9.7545
4031.3,9.5796,-8.6778
4043,10.999,-8.8975
4054.7,11.519,-9.3658
4066.4,9.094,-7.8908
4078.1,9.1261,-9.1304
4089.8,8.9128,-8.6194
4101.6,10.176,-10.72
4113.3,9.8877,-12.677
4125,11.951,-8.69
4136.7,12.609,-7.4262
4148.4,11.31,-6.639
4160.2,7.3692,-7.404
4171.9,6.6445,-9.4886
4183.6,5.9758,-7.2785
4195.3,8.4422,-8.14
4207,8.292,-8.3633
4218.8,6.8006,-9.0593
4230.5,9.3963,-7.646
4242.2,8.5656,-9.1575
4253.9,6.668,-7.1995
4265.6,6.5412,-8.3368
4277.3,7.6425,-9.8415
4289.1,7.238,-6.0257
4300.8,10.249,-6.215
4312.5,9.4811,-6.0813
4324.2,8.6447,-8.5453
4335.9,8.3457,-9.6772
4347.7,5.7787,-6.7732
4359.4,7.0625,-8.1693
4371.1,7.551,-9.4349
4382.8,4.526,-8.3383
4394.5,5.5929,-8.46
4406.3,7.6872,-10.269
4418,6.9846,-12.199
4429.7,4.9763,-11.893
4441.4,4.0565,-11.852
4453.1,6.7703,-7.4183
4464.8,8.2171,-7.7648
4476.6,8.4762,-8.2259
4488.3,8.7049,-7.9327
4500,7.4982,-10.471
4511.7,9.5823,-11.32
4523.4,8.891,-8.7481
4535.2,7.5892,-10.611
4546.9,6.688,-10.45
4558.6,7.6784,-10.064
4570.3,7.7205,-10.248
4582,3.7413,-9.1309
4593.8,4.6248,-10.853
4605.5,5.2341,-10.745
4617.2,7.6632,-7.1899
4628.9,7.3642,-5.43
4640.6,8.1402,-4.4504
4652.3,8.5683,-6.9821
4664.1,7.1075,-8.3758
4675.8,5.2765,-8.4576
4687.5,3.2104,-9.4773
4699.2,7.0149,-10.283
4710.9,7.394,-7.0643
4722.7,7.7899,-9.196
4734.4,6.6176,-8.9546
4746.1,5.4329,-8.6166
4757.8,6.3337,-8.5943
4769.5,7.7822,-6.2527
4781.3,6.863,-7.5786
4793,6.4046,-6.7123
4804.7,8.6614,-6.9068
4816.4,9.2989,-6.8152
4828.1,9.3928,-5.8528
4839.8,6.0196,-9.4971
4851.6,5.6858,-7.4694
4863.3,6.8295,-7.1498
4875,6.3314,-6.4064
4886.7,6.0068,-7.1059
4898.4,7.6074,-4.7998
4910.2,8.0441,-6.4378
4921.9,5.867,-9.6142
4933.6,5.5896,-7.3214
4945.3,6.4095,-6.8575
4957,4.7193,-9.6849
4968.8,3.8797,-10.977
4980.5,6.7773,-10.406
4992.2,5.6543,-7.7723
5003.9,6.3088,-7.0183
5015.6,6.1565,-8.7704
5027.3,4.7651,-10.22
5039.1,6.3814,-9.4622
5050.8,6.2019,-6.5223
5062.5,5.9068,-5.7141
5074.2,5.4168,-8.0209
5085.9,5.6653,-9.0673
5097.7,7.5688,-11.293
5109.4,7.6854,-11.397
5121.1,7.1763,-9.2737
5132.8,7.5599,-8.5786
5144.5,8.6112,-5.8128
5156.3,7.5089,-7.2715
5168,3.6706,-7.7999
5179.7,1.0838,-8.8617
5191.4,9.6048,-9.1407
5203.1,10.897,-8.9618
5214.8,7.7483,-9.6414
5226.6,8.1163,-9.5667
5238.3,10.29,-6.8794
5250,9.2248,-5.3509
5261.7,5.8791,-9.1628
5273.4,8.2598,-7.2209
5285.2,7.4548,-7.6534
5296.9,7.2963,-10.41
5308.6,5.5321,-7.5423
5320.3,4.5967,-6.4996
5332,6.3035,-8.0325
5343.8,8.2181,-8.4828
5355.5,6.6245,-10.031
5367.2,4.8556,-9.3701
5378.9,5.3107,-7.8106
5390.6,3.8075,-6.8541
5402.3,4.5187,-10.219
5414.1,6.3788,-7.3031
5425.8,8.2863,-7.3101
5437.5,8.5717,-7.698
5449.2,7.0762,-5.931
5460.9,5.835,-7.2654
5472.7,3.4657,-10.881
5484.4,2.2707,-6.7517
5496.1,3.5059,-8.4901
5507.8,6.4454,-9.3308
5519.5,7.5418,-10.88
5531.3,6.2453,-9.1113
5543,5.7242,-5.5828
5554.7,5.7646,-7.6593
5566.4,6.5307,-7.6698
5578.1,7.411,-6.0891
5589.8,6.3646,-7.1532
5601.6,3.2263,-10.419
5613.3,2.624,-10.659
5625,4.7522,-10.459
5636.7,6.5772,-6.3079
5648.4,6.4107,-3.9738
5660.2,6.627,-7.0293
5671.9,6.866,-10.525
5683.6,6.1017,-10.456
5695.3,6.0147,-9.6728
5707,7.9255,-9.2781
5718.8,6.0729,-8.0827
5730.5,7.1801,-5.3602
5742.2,6.5573,-6.7798
5753.9,5.4946,-7.3496
5765.6,6.9152,-5.6265
5777.3,5.7958,-7.3756
5789.1,8.8929,-10.627
5800.8,7.0899,-9.6694
5812.5,4.5226,-8.1066
5824.2,5.613,-6.2665
5835.9,5.4005,-6.437
5847.7,3.886,-11.107
5859.4,4.9959,-7.8202
5871.1,6.1624,-9.128
5882.8,5.5424,-10.877
5894.5,4.9566,-11.109
5906.3,4.5855,-12.388
5918,3.7569,-11.384
5929.7,5.9549,-10.01
5941.4,8.4446,-8.0245
5953.1,8.1339,-8.1777
5964.8,5.7366,-10.115
5976.6,3.3025,-9.6365
5988.3,5.3104,-7.0537
6000,7.2516,-8.1323
6011.7,9.3947,-10.23
6023.4,7.6627,-10.545
6035.2,3.1183,-8.369
6046.9,4.6625,-9.0024
6058.6,6.013,-9.3628
6070.3,5.4028,-11.859
6082,7.6469,-11.09
6093.8,5.9876,-11.465
6105.5,4.7347,-11.728
6117.2,7.6352,-9.7768
6128.9,4.994,-8.6156
6140.6,5.458,-7.7966
6152.3,2.4232,-6.1583
6164.1,6.8906,-9.3
6175.8,7.2109,-8.5744
6187.5,8.2011,-8.6389
6199.2,7.4452,-9.3806
6210.9,4.6626,-10.925
6222.7,5.3396,-8.6196
6234.4,5.8614,-8.2805
6246.1,2.9599,-7.4785
6257.8,3.8685,-11.128
6269.5,5.3296,-9.1721
6281.3,7.6753,-7.7212
6293,5.9513,-8.5477
6304.7,3.8604,-9.9464
6316.4,6.4119,-6.7292
6328.1,8.7058,-7.5246
6339.8,7.0063,-8.4219
6351.6,5.6494,-8.6285
6363.3,3.6432,-7.2993
6375,1.6483,-9.755
6386.7,2.2204,-9.2523
6398.4,2.0107,-6.0973
6410.2,1.9257,-8.2851
6421.9,1.531,-8.6914
6433.6,4.1392,-8.7585
6445.3,5.7968,-8.1295
6457,4.0612,-8.1995
6468.8,0.54667,-8.5849
6480.5,2.1693,-8.449
6492.2,4.7397,-6.9525
6503.9,4.2019,-11.763
6515.6,4.1493,-9.146
6527.3,2.8161,-11.52
6539.1,3.304,-10.915
6550.8,2.2141,-9.9622
6562.5,1.3573,-10.837
6574.2,0.61123,-10.795
6585.9,2.3722,-10.283
6597.7,4.0251,-7.9339
6609.4,4.9392,-6.9798
6621.1,4.515,-10.425
6632.8,4.7126,-10.304
6644.5,3.1139,-11.428
6656.3,2.4365,-11.984
6668,4.1154,-9.5596
6679.7,4.2811,-7.2623
6691.4,4.4043,-9.1816
6703.1,4.2652,-11.286
6714.8,3.4445,-7.0548
6726.6,5.069,-5.7739
6738.3,4.2253,-8.1953
6750,4.498,-8.9388
6761.7,5.951,-10.474
6773.4,5.8427,-8.6773
6785.2,3.6161,-7.3138
6796.9,5.0014,-8.9232
6808.6,4.5787,-12.306
6820.3,2.3922,-11.251
6832,3.9251,-7.748
6843.8,6.0363,-8.5309
6855.5,3.6259,-11.651
6867.2,4.6774,-9.8037
6878.9,4.9452,-9.9666
6890.6,4.287,-11.512
6902.3,1.9453,-9.4312
6914.1,3.8824,-9.2298
6925.8,3.3385,-11.273
6937.5,4.5912,-10.261
6949.2,5.9949,-11.242
6960.9,2.3127,-13.44
6972.7,2.4185,-11.587
6984.4,3.9743,-10.931
6996.1,4.7369,-10.796
7007.8,3.8439,-10.408
7019.5,1.3658,-12.441
7031.3,0.2989,-11.058
7043,3.8471,-10.216
7054.7,3.8515,-9.4059
7066.4,2.7126,-10.574
7078.1,2.709,-9.9543
7089.8,4.2203,-9.5292
7101.6,1.1065,-9.9962
7113.3,3.1332,-9.4716
7125,6.1425,-8.8776
7136.7,6.1404,-9.7964
7148.4,3.3743,-12.282
7160.2,0.86207,-10.493
7171.9,-0.68256,-11.283
7183.6,-0.44403,-9.9586
7195.3,1.6238,-8.499
7207,1.68,-9.7208
7218.8,2.3892,-13.419
7230.5,5.3899,-10.616
7242.2,3.9584,-7.933
7253.9,0.44573,-7.4084
7265.6,-0.10147,-9.6768
7277.3,0.42913,-11.765
7289.1,3.494,-11.395
7300.8,1.4645,-10.396
7312.5,4.3499,-7.5401
7324.2,4.443,-7.678
7335.9,2.1785,-8.5005
7347.7,1.6458,-7.329
7359.4,4.0921,-7.0565
7371.1,4.3465,-8.2911
7382.8,3.2514,-9.5394
7394.5,2.1034,-9.1389
7406.3,5.0784,-7.955
7418,4.001,-6.6329
7429.7,2.7626,-11.426
7441.4,4.4684,-11.634
7453.1,5.5861,-9.7404
7464.8,4.3755,-11.87
7476.6,3.5928,-10.356
7488.3,0.09493,-12.255
7500,1.2251,-11.898
7511.7,2.1707,-9.5657
7523.4,1.351,-9.5953
7535.2,1.4045,-10.806
7546.9,3.2112,-10.271
7558.6,4.1688,-10.28
7570.3,4.693,-10.069
7582,5.2477,-11.062
7593.8,6.1635,-9.9199
7605.5,5.9277,-9.7032
7617.2,3.9578,-11.804
7628.9,4.9991,-12.88
7640.6,3.04,-8.4517
7652.3,1.5969,-8.7885
7664.1,2.908,-9.0619
7675.8,4.5274,-9.7748
7687.5,3.7851,-9.2531
7699.2,5.5556,-8.1461
7710.9,5.9459,-10.641
7722.7,3.5431,-9.5498
7734.4,3.9995,-8.7784
7746.1,4.3387,-8.673
7757.8,0.7803,-8.1428
7769.5,2.05,-9.9603
7781.3,4.8241,-10.664
7793,3.1779,-9.6137
7804.7,2.9871,-8.9166
7816.4,4.2874,-8.6703
7828.1,1.0586,-11.045
7839.8,2.1225,-13.253
7851.6,3.7858,-13.573
7863.3,3.454,-11.667
7875,1.2915,-8.6621
7886.7,3.4754,-6.8437
7898.4,3.0275,-6.6929
7910.2,3.5909,-9.4489
7921.9,0.59863,-11.835
7933.6,1.0256,-11.884
7945.3,0.18924,-10.992
7957,-0.23477,-9.5621
7968.8,1.6383,-12.344
7980.5,3.1797,-10.564
7992.2,2.9332,-9.9733
8003.9,3.7388,-11.678
8015.6,2.8925,-11.879
8027.3,4.3794,-15.085
8039.1,3.3094,-15.377
8050.8,2.2021,-11.165
8062.5,2.0766,-11.314
8074.2,0.64286,-11.408
8085.9,0.95159,-11.149
8097.7,1.7998,-8.6892
8109.4,2.1471,-8.565
8121.1,1.3887,-11.095
8132.8,-2.1288,-14.315
8144.5,-0.91869,-11.148
8156.3,2.3273,-9.546
8168,3.0854,-8.186
8179.7,4.9711,-8.8104
8191.4,4.6758,-9.2214
8203.1,4.278,-10.517
8214.8,3.3696,-11.95
8226.6,2.4989,-10.13
8238.3,1.711,-7.5077
8250,2.7482,-8.5768
8261.7,3.4213,-11.209
8273.4,2.1479,-7.9404
8285.2,1.6274,-8.1928
8296.9,1.8352,-9.5908
8308.6,1.4525,-8.6314
8320.3,1.1611,-11.914
8332,3.7435,-10.36
8343.8,3.2118,-6.7659
8355.5,-0.19,-5.8706
8367.2,-1.3218,-10.448
8378.9,0.2066,-11.238
8390.6,2.2582,-11.284
8402.3,0.9407,-9.1155
8414.1,1.1659,-7.892
8425.8,1.3008,-8.2638
8437.5,-1.2425,-9.4009
8449.2,1.0311,-10.382
8460.9,0.28349,-10.959
8472.7,0.41148,-13.017
8484.4,3.116,-12.505
8496.1,2.2534,-10.137
8507.8,3.5346,-11.224
8519.5,1.7145,-14.387
8531.3,2.91,-13.213
8543,3.6456,-8.3791
8554.7,3.2203,-7.8666
8566.4,3.7073,-9.8127
8578.1,4.1489,-13.463
8589.8,1.6895,-11.229
8601.6,3.5415,-12.081
8613.3,3.0145,-10.472
8625,1.4261,-9.3446
8636.7,0.61508,-9.7391
8648.4,0.70308,-11.1
8660.2,-1.2618,-7.969
8671.9,-0.52925,-10.115
8683.6,1.489,-10.721
8695.3,2.7077,-10.284
8707,1.74,-10.254
8718.8,-1.8091,-11.107
8730.5,3.5838,-12.578
8742.2,3.4064,-8.5319
8753.9,-2.8667,-8.8376
8765.6,-2.1354,-13.556
8777.3,-2.07,-13.637
8789.1,-2.5768,-12.077
8800.8,0.54624,-10.917
8812.5,2.7773,-11.262
8824.2,0.99889,-11.09
8835.9,-2.3376,-10.866
8847.7,0.62164,-10.614
8859.4,2.9362,-10.713
8871.1,0.45896,-11.636
8882.8,0.2197,-10.384
8894.5,2.3104,-10.739
8906.3,1.3075,-12.915
8918,-1.2414,-13.188
8929.7,-0.58244,-12.381
8941.4,0.89654,-9.8028
8953.1,1.5805,-10.443
8964.8,1.1912,-12.655
8976.6,0.25277,-9.3241
8988.3,-1.6388,-8.7216
9000,-0.65363,-10.646
9011.7,-0.6301,-11.919
9023.4,1.6389,-9.9975
9035.2,0.57582,-11.175
9046.9,-1.6545,-9.8593
9058.6,-0.65567,-11.485
9070.3,1.0093,-13.598
9082,0.76655,-15.167
9093.8,-0.036361,-11.692
9105.5,3.7211,-9.1544
9117.2,2.5387,-9.9617
9128.9,-0.51513,-11.791
9140.6,-1.2061,-8.7724
9152.3,-2.7944,-7.9846
9164.1,0.21333,-8.0479
9175.8,1.0072,-9.2418
9187.5,1.6677,-12.005
9199.2,1.4868,-11.024
9210.9,1.1976,-8.5853
9222.7,0.26745,-8.8207
9234.4,0.0067279,-9.9108
9246.1,-2.2642,-9.2748
9257.8,-1.7388,-9.574
9269.5,-0.47677,-8.3742
9281.3,0.13598,-9.9058
9293,-1.5648,-8.445
9304.7,-1.7897,-12.161
9316.4,-0.8678,-10.439
9328.1,-0.15363,-10.355
9339.8,-0.61593,-12.52
9351.6,-0.80727,-15.396
9363.3,0.69964,-13.511
9375,2.7486,-10.274
9386.7,1.9704,-10.595
9398.4,-2.2928,-11.066
9410.2,0.6876,-12.633
9421.9,3.806,-8.5155
9433.6,2.4551,-10.126
9445.3,0.96167,-13.406
9457,0.8658,-11.673
9468.8,0.14227,-10.66
9480.5,0.028932,-11.011
9492.2,-2.2651,-11.259
9503.9,-0.097915,-11.504
9515.6,-1.2248,-11.951
9527.3,-0.26639,-13.926
9539.1,0.38615,-10.356
9550.8,1.6657,-9.2518
9562.5,-1.8588,-9.0264
9574.2,-4.4696,-11.486
9585.9,-3.2864,-11.052
9597.7,-1.6252,-9.415
9609.4,-0.61547,-9.1078
9621.1,-1.6129,-10.251
9632.8,0.4335,-10.96
9644.5,1.6299,-8.8622
9656.3,1.9222,-12.065
9668,0.59428,-12.167
9679.7,-2.6895,-14.104
9691.4,-2.0337,-11.75
9703.1,1.2348,-10.965
9714.8,2.2086,-11.016
9726.6,2.3804,-10.499
9738.3,1.5821,-9.94
9750,-0.79861,-12.11
9761.7,-0.30016,-11.582
9773.4,3.2255,-11.876
9785.2,2.4504,-12.991
9796.9,-2.7087,-11.962
9808.6,0.67335,-8.6717
9820.3,0.63545,-9.9913
9832,0.61783,-12.935
9843.8,-0.075835,-10.396
9855.5,-1.0885,-9.4111
9867.2,-0.73741,-9.0475
9878.9,1.3055,-8.4767
9890.6,0.39613,-11.002
9902.3,-3.7912,-12.388
9914.1,-3.3901,-12.665
9925.8,-0.9781,-12.372
9937.5,-1.0237,-13.861
9949.2,-2.5389,-11.009
9960.9,-4.0617,-10.126
9972.7,-3.9791,-10.479
9984.4,-3.1218,-11.779
9996.1,-1.4969,-11.168
10008,-2.7272,-11.206
10020,-1.5755,-12.253
10031,0.93279,-13.656
10043,-0.1568,-12.364
10055,-0.053481,-10.551
10066,1.5842,-12.6
10078,0.80393,-10.922
10090,-1.8648,-11.298
10102,0.82345,-13.934
10113,-3.8094,-13.124
10125,-0.87862,-11.419
10137,-0.39688,-12.681
10148,-2.9161,-13.494
10160,-4.0317,-13.322
10172,-1.0299,-11.577
10184,2.7989,-8.8682
10195,0.55636,-11.141
10207,0.048565,-11.157
10219,0.80693,-11.496
10230,0.17402,-11.671
10242,-0.83157,-11.996
10254,0.5813,-11.254
10266,0.30533,-10.362
10277,-2.5402,-10.258
10289,-0.64235,-8.4209
10301,-1.5764,-9.704
10313,0.23755,-12.367
10324,0.077663,-10.285
10336,-1.5038,-13.122
10348,2.2406,-13.255
10359,-2.4774,-9.9333
10371,-0.75304,-11.237
10383,-2.431,-10.875
10395,-0.9747,-11.204
10406,-3.6906,-10.528
10418,-0.99968,-8.5154
10430,1.0169,-12.447
10441,-0.23866,-12.456
10453,-0.019611,-10.124
10465,-0.82566,-10.82
10477,0.51734,-10.482
10488,-0.74074,-10.617
10500,0.69741,-13.329
10512,1.9915,-13.159
10523,-1.1625,-13.312
10535,-0.63055,-9.8636
10547,1.5594,-11.751
10559,1.4508,-11.95
10570,1.9653,-12.332
10582,1.063,-12.525
10594,-1.803,-10.715
10605,-4.2636,-12.848
10617,-2.3425,-12.545
10629,-2.0865,-12.923
10641,-3.1405,-9.625
10652,-3.2562,-12.318
10664,-4.0295,-11.512
10676,-3.7877,-8.392
10688,-4.4936,-8.9327
10699,-1.9072,-12.995
10711,0.021573,-13.989
10723,0.44786,-10.053
10734,0.013542,-9.6278
10746,-0.77016,-10.766
10758,2.6326,-11.805
10770,1.1654,-11.894
10781,-0.092314,-12.431
10793,-1.7302,-11.809
10805,-5.1066,-11.532
10816,-3.7899,-10.747
10828,1.0622,-12.612
10840,-1.0162,-11.033
10852,-0.060601,-11.595
10863,1.6912,-8.6759
10875,2.2239,-11.674
10887,-1.4714,-12.904
10898,-0.41923,-10.196
10910,-0.24659,-9.5637
10922,-1.033,-11.846
10934,-2.6201,-12.82
10945,-1.9019,-12.418
10957,-4.2437,-10.511
10969,0.24552,-8.647
10980,-0.35233,-10.875
10992,0.84314,-10.226
11004,-0.8633,-7.7158
11016,-2.5861,-8.2844
11027,-0.56215,-10.096
11039,3.5934,-10.729
11051,1.1753,-11.41
11063,-0.93322,-11.786
11074,0.5159,-12.368
11086,0.35538,-10.42
11098,0.9607,-10.226
11109,0.21139,-11.034
11121,-1.5439,-9.9966
11133,0.2652,-10.249
11145,-1.1724,-14.856
11156,0.33806,-12.555
11168,-1.4745,-10.778
11180,-1.9358,-11.364
11191,-2.3774,-13.724
11203,-1.9562,-13.349
11215,-4.6125,-9.4339
11227,-1.3799,-10.997
11238,-1.8962,-12.021
11250,-2.6303,-10.223
11262,-3.5831,-10.237
11273,-4.315,-12.056
11285,-3.5684,-11.747
11297,-0.64263,-12.684
11309,-2.462,-14.239
11320,-0.89298,-15.778
11332,-1.5619,-12.926
11344,0.23894,-17.225
11355,-0.0085595,-14.105
11367,-1.3187,-12.011
11379,-2.5443,-12.532
11391,-3.3477,-10.164
11402,-4.2324,-10.454
11414,-4.7143,-15.569
11426,-1.1379,-14.61
11438,1.0904,-14.923
11449,0.44924,-12.732
11461,-0.66354,-12.47
11473,-2.9176,-9.9758
11484,-1.914,-9.9264
11496,-3.1955,-11.091
11508,-3.5691,-11.196
11520,-1.3295,-14.47
11531,0.60679,-12.505
11543,-1.4287,-11.408
11555,-3.2358,-13.398
11566,-3.663,-13.399
11578,-3.6255,-14.056
11590,-1.3632,-13.957
11602,-0.40292,-14.976
11613,0.45845,-14.665
11625,-2.895,-13.795
11637,-7.618,-14.536
11648,-3.4284,-14.232
11660,-5.5171,-13.066
11672,-4.3644,-11.635
11684,-2.6463,-9.642
11695,-4.3294,-11.161
11707,-5.4881,-15.82
11719,-5.0322,-12.239
11730,-3.0392,-12.572
11742,-0.99963,-16.506
11754,-2.2061,-14.901
11766,-1.6379,-14.252
11777,-0.60084,-15.226
11789,-1.1678,-14.534
11801,-1.9531,-14.61
11813,-0.76164,-15.261
11824,0.23681,-12.964
11836,-0.98807,-13.714
11848,-2.5744,-11.732
11859,-2.5117,-11.029
11871,-2.5852,-11.93
11883,-2.782,-14.021
11895,-3.1501,-14.299
11906,-5.3654,-15.724
11918,-2.5511,-14.06
11930,-0.44022,-12.632
11941,0.64047,-12.817
11953,-2.218,-15.161
11965,-3.5031,-12.598
11977,-5.8644,-14.511
11988,-4.1848,-16.693
12000,-4.3598,-16.044
12012,-3.671,-15.67
12023,-1.9818,-13.688
12035,-0.59965,-13.758
12047,-0.30443,-13.698
12059,-1.9044,-12.891
12070,-2.9269,-11.741
12082,-1.9057,-12.135
12094,-2.0929,-11.741
12105,-4.7109,-11.615
12117,-4.4071,-11.541
12129,-3.655,-13.673
12141,-4.9889,-17.863
12152,-3.994,-17.546
12164,0.42324,-13.516
12176,0.14137,-11.158
12188,-2.7035,-14.246
12199,-1.2359,-14.424
12211,-2.076,-13.969
12223,-3.1022,-13.028
12234,0.6284,-13.539
12246,0.45017,-15.885
12258,-2.8839,-12.176
12270,-4.3886,-14.057
12281,-5.2883,-15.378
12293,-5.0666,-12.41
12305,-1.7681,-12.392
12316,-2.1438,-13.703
12328,-2.7788,-12.526
12340,-2.4684,-10.45
12352,-3.0041,-11.357
12363,-4.4747,-12.938
12375,-5.5645,-16.344
12387,-3.7398,-15.467
12398,-8.589,-16.439
12410,-6.5194,-14.808
12422,-3.1009,-11.911
12434,-2.5228,-10.526
12445,-3.8102,-15.206
12457,-2.3901,-16.049
12469,-2.4782,-14.991
12480,-2.3747,-12.781
12492,-0.328,-11.574
12504,1.341,-15.153
12516,-0.52801,-13.489
12527,-3.1916,-12.909
12539,-4.0172,-13.2
12551,-2.4878,-12.349
12563,-2.4238,-12.402
12574,-2.4808,-15.37
12586,-4.8731,-13.319
12598,-2.8248,-12.82
12609,1.5222,-14.937
12621,1.6611,-12.665
12633,-2.0546,-11.49
12645,-4.3875,-13.253
12656,-3.2375,-11.868
12668,-2.3096,-13.06
12680,-4.4598,-14.284
12691,-2.261,-14.782
12703,-1.759,-13.039
12715,-1.6769,-12.254
12727,-1.7852,-14.8
12738,-0.87357,-14.717
12750,-5.6588,-13.365
12762,-6.2383,-14.007
12773,-4.2991,-16.548
12785,-4.242,-11.261
12797,-1.3372,-13.886
12809,-0.67214,-14.027
12820,-4.8886,-15.307
12832,-4.7311,-13.487
12844,-7.0102,-12.533
12855,-2.7689,-15.478
12867,-1.4482,-14.783
12879,-2.8878,-13.935
12891,-3.6979,-12.221
12902,-3.9722,-12.953
12914,-4.6132,-16.262
12926,-5.1757,-15.986
12938,-4.9742,-15.738
12949,-2.0946,-14.273
12961,-3.6923,-13.45
12973,-3.7578,-13.806
12984,-3.9738,-12.917
12996,-3.5083,-11.901
13008,-2.6175,-12.288
13020,-3.702,-14.673
13031,-4.844,-14.218
13043,-3.3348,-15.817
13055,-4.8017,-13.543
13066,-4.9607,-13.675
13078,-4.8789,-14.358
13090,-5.5034,-11.026
13102,-3.4936,-8.47
13113,-2.9018,-15.086
13125,-1.2012,-12.646
13137,-3.4161,-11.537
13148,-3.5728,-14.22
13160,-5.6341,-15.389
13172,-4.7938,-13.655
13184,-5.1128,-14.683
13195,-1.6799,-15.796
13207,-2.3568,-13.093
13219,-2.8523,-12.957
13230,-4.7852,-15.189
13242,-7.71,-16.205
13254,-3.69,-13.555
13266,-1.337,-14.384
13277,-3.01,-14.361
13289,-4.1228,-15.74
13301,-3.4887,-15.612
13313,-6.1282,-15.786
13324,-5.883,-15.627
13336,-4.4967,-15.031
13348,-3.2131,-13.853
13359,-0.94086,-12.657
13371,-3.6574,-12.347
13383,-5.0633,-14.491
13395,-6.7182,-16.382
13406,-4.3312,-14.188
13418,-2.2389,-15.062
13430,-2.4848,-14.889
13441,-3.6994,-15.943
13453,-5.3192,-16.215
13465,-6.3232,-16.126
13477,-3.3319,-16.033
13488,-4.9408,-17.958
13500,-7.0372,-16.35
13512,-6.1183,-13.7
13523,-5.9125,-14.286
13535,-7.5931,-15.331
13547,-10.16,-14.204
13559,-6.0609,-15.939
13570,-5.6102,-17.483
13582,-4.3395,-14.844
13594,-4.4207,-13.103
13605,-2.2348,-15.304
13617,-1.7338,-12.623
13629,-4.3593,-13.448
13641,-4.5848,-18.36
13652,-4.5767,-15.007
13664,-4.9613,-14.969
13676,-4.9741,-14.058
13688,-4.1566,-15.367
13699,-3.9261,-16.88
13711,-4.6854,-15.183
13723,-3.4088,-13.334
13734,-2.956,-14.008
13746,-4.2771,-15.767
13758,-5.964,-16.307
13770,-6.0063,-15.921
13781,-3.1395,-18.986
13793,-4.1095,-16.265
13805,-3.8403,-15.127
13816,-2.3651,-14.732
13828,-4.0241,-13.204
13840,-5.8405,-13.422
13852,-6.2641,-14.502
13863,-5.3711,-14.538
13875,-5.838,-14.674
13887,-3.3638,-13.333
13898,-3.3259,-14.905
13910,-5.0675,-11.484
13922,-4.227,-10.699
13934,-5.393,-12.672
13945,-9.9244,-12.489
13957,-7.5533,-14.017
13969,-6.7291,-15.948
13980,-5.3916,-14.567
13992,-4.2639,-12.736
14004,-5.9741,-14.929
14016,-5.9899,-16.608
14027,-5.3562,-15.402
14039,-3.6202,-13.773
14051,-3.3151,-14.311
14063,-4.4425,-16.65
14074,0.21732,-13.676
14086,-1.7437,-14.516
14098,-9.2067,-15.611
14109,-5.7817,-18.678
14121,-3.5052,-14.916
14133,-6.9956,-14.694
14145,-4.9643,-17.294
14156,-4.2603,-15.797
14168,-7.9737,-12.881
14180,-5.5344,-13.515
14191,-4.4539,-14.911
14203,-5.6624,-17.194
14215,-7.022,-17.407
14227,-8.8702,-15.07
14238,-7.131,-14.412
14250,-6.0129,-12.919
14262,-4.4899,-14.057
14273,-3.7872,-15.522
14285,-6.9599,-12.734
14297,-5.1619,-9.4285
14309,-6.4281,-11.167
14320,-5.3649,-15.391
14332,-5.4043,-16.659
14344,-4.6879,-16.384
14355,-3.0057,-13.974
14367,-3.8999,-15.293
14379,-7.8283,-17.014
14391,-4.8591,-15.263
14402,-6.9587,-14.32
14414,-7.3981,-13.772
14426,-4.2918,-14.261
14438,-8.8388,-14.768
14449,-5.3715,-14.577
14461,-5.7271,-15.179
14473,-3.9338,-18.485
14484,-4.4939,-18.511
14496,-5.2908,-16.266
14508,-7.7179,-15.237
14520,-7.8754,-18.221
14531,-8.4735,-19.252
14543,-9.2663,-17.35
14555,-8.8169,-15.608
14566,-4.9096,-14.146
14578,-3.5889,-14.288
14590,-8.0382,-13.766
14602,-5.5295,-12.712
14613,-7.4903,-10.3
14625,-7.0037,-12.738
14637,-4.8467,-17.524
14648,-6.3597,-18.408
14660,-9.5062,-15.044
14672,-10.374,-13.702
14684,-7.7972,-14.269
14695,-7.8444,-14.764
14707,-6.8971,-14.294
14719,-7.0121,-14.336
14730,-7.0857,-16.375
14742,-7.098,-16.11
14754,-6.5879,-16.14
14766,-7.0683,-13.784
14777,-6.1471,-13.432
14789,-5.4173,-15.33
14801,-7.4707,-16.7
14813,-8.236,-18.407
14824,-5.2374,-16.843
14836,-6.1403,-17.674
14848,-7.9581,-17.667
14859,-6.7252,-16.046
14871,-8.2684,-14.412
14883,-7.4327,-14.666
14895,-6.2466,-14.31
14906,-6.5689,-13.557
14918,-8.862,-14.725
14930,-10.217,-15.064
14941,-9.2067,-15.365
14953,-8.06,-13.825
14965,-8.4196,-15.368
14977,-9.4397,-13.399
14988,-6.1385,-14.121
15000,-4.1577,-17.287
15012,-7.0828,-16.998
15023,-9.2198,-16.616
15035,-9.7936,-17.349
15047,-7.5823,-18.966
15059,-9.5818,-18.451
15070,-5.7039,-14.763
15082,-4.9566,-15.31
15094,-4.1136,-19.467
15105,-7.7021,-15.247
15117,-7.346,-12.319
15129,-7.196,-14.834
15141,-2.3122,-17.674
15152,-4.0202,-16.811
15164,-5.3499,-14.936
15176,-6.819,-15.849
15188,-7.5737,-18.076
15199,-4.1196,-16.082
15211,-3.6887,-14.92
15223,-7.6533,-15.016
15234,-7.2887,-17.627
15246,-5.0063,-15.587
15258,-6.496,-15.297
15270,-6.7452,-18.065
15281,-6.2949,-15.058
15293,-7.8579,-14.866
15305,-7.3921,-16.52
15316,-5.9388,-15.357
15328,-5.6668,-15.782
15340,-5.3599,-18.827
15352,-3.6243,-16.88
15363,-4.4333,-16.651
15375,-8.8405,-15.2
15387,-8.7903,-15.31
15398,-12.083,-16.198
15410,-8.9227,-15.352
15422,-6.1552,-14.545
15434,-3.9923,-17.26
15445,-3.1262,-18.77
15457,-4.5056,-16.776
15469,-5.0509,-14.462
15480,-6.2948,-13.644
15492,-7.8191,-14.457
15504,-6.4517,-12.373
15516,-3.8801,-12.837
15527,-2.2968,-14.405
15539,-3.323,-15.412
15551,-6.5828,-14.595
15563,-8.5367,-13.564
15574,-9.583,-12.782
15586,-9.4608,-14.781
15598,-9.468,-12.584
15609,-9.2647,-13.717
15621,-10.11,-14.442
15633,-8.1627,-15.445
15645,-6.8263,-15.868
15656,-4.5735,-16.536
15668,-6.5467,-12.465
15680,-8.5101,-12.796
15691,-6.8348,-18.202
15703,-5.3155,-17.767
15715,-6.4195,-15.63
15727,-11.201,-14.296
15738,-10.199,-13.755
15750,-9.6432,-17.599
15762,-9.8694,-16.575
15773,-11.18,-16.678
15785,-8.973,-19.508
15797,-7.8554,-16.201
15809,-8.945,-11.635
15820,-6.4026,-11.529
15832,-9.0407,-16.21
15844,-6.144,-17.638
15855,-6.0865,-16.067
15867,-6.83,-16.463
15879,-6.9814,-16.61
15891,-7.9601,-15.506
15902,-8.4767,-13.601
15914,-6.0864,-15.221
15926,-6.1983,-14.161
15938,-6.0891,-16.434
15949,-7.6394,-17.189
15961,-11.108,-14.586
15973,-13.627,-14.212
15984,-12.122,-15.359
15996,-9.2309,-14.41
16008,-9.2377,-13.889
16020,-5.9896,-15.49
16031,-6.1377,-18.26
16043,-7.9936,-18.982
16055,-7.3478,-15.662
16066,-7.7751,-12.803
16078,-7.234,-11.909
16090,-6.9628,-14.566
16102,-7.2168,-16.64
16113,-7.9252,-18.757
16125,-8.0188,-16.894
16137,-6.8239,-14.686
16148,-8.8087,-15.325
16160,-9.7138,-15.372
16172,-9.0544,-17.735
16184,-9.452,-17.358
16195,-11.178,-17.058
16207,-10.541,-13.895
16219,-11.636,-13.716
16230,-9.7002,-18.046
16242,-10.349,-19.667
16254,-10.591,-17.11
16266,-11.487,-17.973
16277,-10.422,-22.47
16289,-9.232,-16.068
16301,-8.4985,-15.94
16313,-9.7184,-14.339
16324,-10.062,-15.123
16336,-8.553,-15.978
16348,-8.6012,-12.414
16359,-10.275,-11.75
16371,-8.1228,-12.382
16383,-6.2042,-12.267
16395,-5.7465,-14.15
16406,-6.7426,-17.067
16418,-6.184,-18.435
16430,-6.8265,-17.229
16441,-6.4385,-14.728
16453,-7.3784,-17.636
16465,-8.7224,-16.7
16477,-9.5479,-15.642
16488,-11.132,-16.137
16500,-8.0442,-14.803
16512,-9.9364,-14.488
16523,-10.692,-13.899
16535,-7.634,-16.035
16547,-6.4622,-13.398
16559,-8.4194,-12.756
16570,-6.9588,-13.127
16582,-7.4888,-15.155
16594,-9.844,-15.139
16605,-10.421,-12.529
16617,-9.3492,-12.758
16629,-7.9857,-15.136
16641,-6.825,-17.688
16652,-7.8526,-15.883
16664,-8.1117,-15.573
16676,-8.9735,-15.043
16688,-7.3002,-14.015
16699,-9.0278,-15.025
16711,-12.261,-16.616
16723,-10.304,-13.853
16734,-11.023,-13.122
16746,-11.968,-16.74
16758,-11.299,-17.238
16770,-11.525,-16.861
16781,-11.528,-16.066
16793,-11.763,-15.257
16805,-9.8934,-16.479
16816,-7.8225,-16.151
16828,-9.9199,-17.903
16840,-8.4643,-17.9
16852,-11.106,-17.412
16863,-14.318,-18.797
16875,-12.458,-16.025
16887,-11.007,-15.705
16898,-9.6056,-16.064
16910,-11.434,-16.462
16922,-13.707,-18.373
16934,-12.075,-17.129
16945,-14.732,-16.522
16957,-13.13,-17.598
16969,-9.6709,-17.099
16980,-8.8056,-14.621
16992,-6.8565,-11.394
17004,-9.1199,-10.931
17016,-7.8007,-15.448
17027,-7.0725,-18.045
17039,-8.5794,-19.22
17051,-10.257,-17.721
17063,-13.18,-17.181
17074,-9.6633,-17.758
17086,-8.7424,-16.986
17098,-8.5218,-13.171
17109,-9.4813,-17.398
17121,-12.725,-19.002
17133,-15.232,-17.82
17145,-10.15,-17.671
17156,-9.8263,-17.472
17168,-12.271,-18.341
17180,-11.564,-14.779
17191,-12.513,-14.454
17203,-12.938,-15.722
17215,-11.821,-18.453
17227,-10.665,-18.602
17238,-12.484,-15.675
17250,-7.4651,-17.623
17262,-8.6353,-16.826
17273,-12.73,-18.024
17285,-12.167,-17.76
17297,-9.7655,-14.4
17309,-9.9759,-12.92
17320,-12.124,-14.82
17332,-10.913,-17.946
17344,-11.24,-17.821
17355,-11.42,-15.287
17367,-11.64,-16.317
17379,-10.312,-16.005
17391,-9.5606,-16.474
17402,-10.256,-16.405
17414,-10.359,-15.582
17426,-10.023,-15.283
17438,-10.534,-17.234
17449,-12.843,-18.94
17461,-18.009,-14.57
17473,-14.621,-11.114
17484,-13.068,-12.664
17496,-11.091,-16.173
17508,-11.503,-14.425
17520,-12.309,-16.389
17531,-11.027,-18.008
17543,-8.6613,-16.263
17555,-8.9127,-15.477
17566,-10.74,-16.324
17578,-7.6377,-16.166
17590,-8.8186,-15.832
17602,-10.15,-15.867
17613,-8.4694,-14.855
17625,-8.5144,-14.6
17637,-13.166,-16.062
17648,-14.147,-17.235
17660,-12.466,-19.883
17672,-11.801,-18.948
17684,-12.279,-18.235
17695,-10.514,-16.371
17707,-10.315,-14.713
17719,-10.244,-13.64
17730,-12.025,-12.946
17742,-11.602,-15.866
17754,-12.061,-18.148
17766,-14.499,-17.87
17777,-12.747,-17.232
17789,-13.429,-17.612
17801,-11.993,-18.432
17813,-9.2421,-16.677
17824,-8.6779,-16.252
17836,-10.101,-18.672
17848,-10.368,-18.166
17859,-10.966,-17.133
17871,-10.613,-19.416
17883,-13.762,-15.281
17895,-14.313,-14.551
17906,-9.9648,-14.568
17918,-9.2971,-14.463
17930,-12.206,-16.725
17941,-12.862,-17.496
17953,-14.03,-15.844
17965,-11.267,-15.026
17977,-8.9671,-20.456
17988,-8.4068,-18.047
18000,-11.938,-14.614
18012,-9.7691,-15.996
18023,-9.3712,-16.759
18035,-7.4491,-17.509
18047,-7.6887,-18.055
18059,-13.613,-16.412
18070,-13.448,-17.24
18082,-13.312,-17.763
18094,-10.953,-18.976
18105,-8.3579,-19.572
18117,-10.02,-21.95
18129,-14.738,-20.219
18141,-13.555,-17.526
18152,-9.0329,-16.086
18164,-8.6335,-16.886
18176,-9.8659,-16.382
18188,-9.8326,-18.403
18199,-10.78,-19.748
18211,-8.8028,-18.852
18223,-9.1635,-18.018
18234,-11.597,-18.44
18246,-14.261,-19.519
18258,-15.842,-17.71
18270,-14.205,-17.551
18281,-12.341,-17.581
18293,-10.703,-15.84
18305,-12.444,-15.949
18316,-12.937,-17.77
18328,-14.635,-17.265
18340,-10.654,-17.82
18352,-10.665,-17.689
18363,-11.275,-17.196
18375,-9.5232,-19.379
18387,-10.972,-18.835
18398,-16.421,-17.073
18410,-10.631,-15.553
18422,-7.7577,-19.01
18434,-10.191,-19.324
18445,-12.986,-18.241
18457,-11.943,-19.138
18469,-12.622,-19.739
18480,-11.176,-17.805
18492,-11.41,-16.948
18504,-10.097,-16.627
18516,-10.609,-17.543
18527,-10.628,-17.864
18539,-12.134,-18.067
18551,-13.959,-17.511
18563,-10.028,-16.778
18574,-9.1148,-17.781
18586,-11.75,-18.851
18598,-12.657,-18.631
18609,-13.081,-18.279
18621,-12.209,-14.779
18633,-12.576,-16.939
18645,-12.609,-18.376
18656,-13.083,-16.564
18668,-14.106,-19.431
18680,-14.154,-18.583
18691,-12.905,-19.196
18703,-13.413,-18.128
18715,-13.341,-17.399
18727,-11.939,-16.876
18738,-12.87,-18.218
18750,-13.56,-19.721
18762,-13.761,-15.438
18773,-13.247,-17.816
18785,-14.926,-20.619
18797,-14.759,-19.435
18809,-13.477,-20.556
18820,-8.8836,-19.103
18832,-8.7975,-18.432
18844,-9.667,-17.36
18855,-11.758,-16.041
18867,-13.12,-14.075
18879,-14.705,-13.013
18891,-10.961,-16.902
18902,-12.877,-17.178
18914,-12.621,-15.965
18926,-11.115,-17.539
18938,-11.331,-18.521
18949,-12.501,-17.47
18961,-13.234,-17.016
18973,-13.624,-18.915
18984,-13.249,-17.188
18996,-11.163,-15.26
19008,-10.483,-14.754
19020,-11.57,-15.604
19031,-11.771,-16.128
19043,-13.432,-17.007
19055,-14.346,-19.64
19066,-13.655,-18.789
19078,-11.849,-18.494
19090,-10.036,-17.167
19102,-14.447,-16.593
19113,-14.693,-17.781
19125,-14.133,-16.35
19137,-12.85,-16.863
19148,-12.959,-19.302
19160,-13.461,-18.567
19172,-10.48,-17.85
19184,-10.198,-17.182
19195,-13.348,-15.608
19207,-10.798,-16.196
19219,-10.208,-18.12
19230,-13.341,-18.063
19242,-13.685,-16.509
19254,-14.002,-16.853
19266,-10.892,-18.725
19277,-8.1724,-20.337
19289,-11.332,-19.082
19301,-10.4,-17.785
19313,-10.756,-17.907
19324,-11.382,-16.338
19336,-12.481,-17.247
19348,-15.132,-19.69
19359,-14.255,-17.149
19371,-12.807,-18.677
19383,-12.426,-21.63
19395,-12.507,-20.695
19406,-14.684,-19.522
19418,-14.516,-21.343
19430,-15.238,-21.704
19441,-13.543,-20.012
19453,-10.948,-18.279
19465,-11.428,-21.566
19477,-13.674,-19.495
19488,-14.396,-17.444
19500,-13.69,-18.486
19512,-14.252,-18.286
19523,-12.468,-16.652
19535,-12.503,-18.156
19547,-15.187,-19.832
19559,-17.395,-19.544
19570,-14.33,-20.352
19582,-13.05,-19.835
19594,-12.861,-17.022
19605,-12.908,-15.53
19617,-16.851,-17.382
19629,-16.5,-16.823
19641,-17.516,-17.678
19652,-13.881,-18.078
19664,-12.787,-18.605
19676,-11.317,-17.235
19688,-11.844,-17.039
19699,-15.629,-16.551
19711,-16.66,-17.901
19723,-16.956,-18.496
19734,-14.512,-19.749
19746,-12.661,-20.668
19758,-12.844,-18.875
19770,-15.268,-20.973
19781,-14.033,-19.442
19793,-13.666,-16.825
19805,-14.678,-18.411
19816,-15.839,-22.007
19828,-14.925,-17.609
19840,-13.348,-20.382
19852,-13.153,-17.144
19863,-12.686,-14.397
19875,-13.674,-16.051
19887,-12.481,-16.156
19898,-11.754,-15.543
19910,-11.517,-19.056
19922,-11.075,-18.975
19934,-13.87,-16.967
19945,-11.807,-18.345
19957,-15.117,-20.237
19969,-14.267,-20.297
19980,-14.408,-17.797
19992,-13.538,-16.314
20004,-14.066,-15.418
20016,-15.221,-18.044
20027,-14.234,-17.479
20039,-14.671,-19.021
20051,-18.316,-20.339
20063,-13.847,-20.572
20074,-15.7,-18.058
20086,-14.122,-16.365
20098,-13.418,-16.469
20109,-15.391,-17.018
20121,-14.748,-19.521
20133,-15.293,-20.782
20145,-17.081,-21.493
20156,-15.44,-19.546
20168,-16.486,-19.396
20180,-13.499,-19.047
20191,-12.39,-21.104
20203,-13.633,-22.438
20215,-16.96,-18.884
20227,-14.986,-19.052
20238,-13.575,-16.187
20250,-15.195,-15.303
20262,-16.548,-16.349
20273,-17.366,-17.437
20285,-16.972,-19.004
20297,-16.487,-17.412
20309,-16.995,-18.184
20320,-14.414,-20.736
20332,-15.683,-19.062
20344,-13.854,-18.669
20355,-12.185,-21.474
20367,-12.467,-16.601
20379,-13.682,-16.531
20391,-14.219,-18.684
20402,-14.5,-19.709
20414,-14.885,-16.761
20426,-15.898,-15.598
20438,-14.875,-18.366
20449,-12.614,-17.765
20461,-11.852,-18.677
20473,-16.44,-19.633
20484,-15.504,-17.385
20496,-14.273,-18.986
20508,-14.367,-23.112
20520,-17.728,-21.695
20531,-14.259,-20.389
20543,-12.391,-21.129
20555,-16.538,-21.439
20566,-13.446,-20.856
20578,-13.971,-19.795
20590,-16.124,-20.832
20602,-15.268,-22.96
20613,-13.031,-20.955
20625,-13.635,-17.461
20637,-16.309,-18.511
20648,-12.654,-21.53
20660,-13.022,-18.254
20672,-13.745,-18.348
20684,-10.721,-18.848
20695,-11.54,-17.693
20707,-13.334,-19.385
20719,-12.685,-21.863
20730,-13.401,-21.371
20742,-16.747,-18.83
20754,-16.702,-19.707
20766,-15.874,-21.75
20777,-15.921,-22.158
20789,-14.115,-22.759
20801,-13.452,-21.692
20813,-14.313,-22.231
20824,-14.878,-18.859
20836,-14.919,-15.452
20848,-16.143,-15.794
20859,-14.835,-15.725
20871,-13.113,-17.105
20883,-13.961,-19.952
20895,-14.114,-22.103
20906,-13.482,-19.472
20918,-13.73,-18.043
20930,-14.449,-18.755
20941,-16.627,-18.845
20953,-15.438,-16.192
20965,-13.38,-16.47
20977,-13.297,-16.765
20988,-15.118,-16.091
21000,-16.041,-16.125
21012,-15.804,-19.742
21023,-16.089,-18.36
21035,-14.348,-18.115
21047,-12.614,-18.315
21059,-15.061,-18.067
21070,-16.141,-22.315
21082,-13.823,-22.151
21094,-12.531,-21.257
21105,-14.124,-19.063
21117,-13.973,-21.819
21129,-13.567,-19.993
21141,-15.233,-20.451
21152,-12.673,-19.769
21164,-10.778,-20.962
21176,-14.304,-18.179
21188,-14.166,-17.397
21199,-15.602,-19.112
21211,-18.866,-17.031
21223,-18.385,-16.848
21234,-16.978,-18.391
21246,-16.123,-19.761
21258,-16.68,-24.212
21270,-15.521,-23.36
21281,-15.75,-21.071
21293,-18.818,-20.088
21305,-17.247,-19.183
21316,-15.434,-22.645
21328,-14.086,-21.97
21340,-13.696,-20.278
21352,-14.154,-20.401
21363,-16.083,-20.159
21375,-14.21,-19.208
21387,-12.33,-16.606
21398,-13.34,-14.992
21410,-15.554,-18.304
21422,-18.397,-18.373
21434,-14.362,-19.055
21445,-17.001,-20.265
21457,-16.244,-20.825
21469,-15.935,-16.865
21480,-14.649,-17.578
21492,-16.96,-20.827
21504,-15.101,-20.57
21516,-13.033,-17.801
21527,-11.877,-18.198
21539,-18.06,-18.896
21551,-16.472,-18.354
21563,-15.542,-18.944
21574,-17.72,-19.522
21586,-16.325,-18.997
21598,-17.612,-19.324
21609,-17.538,-19.223
21621,-15.689,-17.59
21633,-16.041,-15.717
21645,-16.077,-20.553
21656,-19.415,-19.01
21668,-16.141,-17.322
21680,-13.231,-19.883
21691,-16.692,-20.003
21703,-17.603,-19.961
21715,-16.434,-19.875
21727,-15.19,-19.394
21738,-18.075,-21.683
21750,-16.283,-19.487
21762,-17.198,-18.79
21773,-17.893,-18.056
21785,-14.699,-18.274
21797,-11.96,-18.917
21809,-16.186,-22.207
21820,-13.009,-19.644
21832,-12.262,-17.601
21844,-16.335,-19.636
21855,-15.892,-18.593
21867,-13.196,-20.968
21879,-11.465,-21.932
21891,-12,-20.485
21902,-13.078,-20.679
21914,-15.732,-21.054
21926,-16.025,-22.919
21938,-15.798,-21.366
21949,-15.946,-21.944
21961,-13.087,-20.792
21973,-11.32,-21.729
21984,-10.955,-20.607
21996,-10.283,-17.61
22008,-10.958,-18.109
22020,-8.33,-18.455
22031,-9.2595,-19.12
22043,-15.731,-18.534
22055,-14.548,-18.789
22066,-17.022,-18.817
22078,-17.747,-18.18
22090,-17.181,-19.46
22102,-13.165,-20.738
22113,-13.031,-22.655
22125,-16.99,-22.262
22137,-17.532,-20.428
22148,-16.135,-18.633
22160,-15.085,-21.9
22172,-15.503,-19.833
22184,-17.182,-20.899
22195,-17.41,-21.548
22207,-17.653,-21.583
22219,-15.531,-21.834
22230,-18.744,-21.594
22242,-19.323,-20.047
22254,-17.149,-21.42
22266,-15.583,-20.906
22277,-15.671,-19.826
22289,-16.088,-20.321
22301,-16.683,-21.748
22313,-13.191,-20.659
22324,-15.666,-20.435
22336,-17.704,-21.368
22348,-18.01,-20.151
22359,-16.504,-20.144
22371,-16.274,-20.051
22383,-16.708,-18.288
22395,-16.225,-16.534
22406,-17.147,-19.142
22418,-17.414,-21.037
22430,-14.098,-18.145
22441,-14.062,-19.814
22453,-18.801,-20.932
22465,-17.69,-18.695
22477,-16.446,-18.155
22488,-20.098,-20.096
22500,-18.564,-19.668
22512,-19.769,-20.987
22523,-17.592,-20.767
22535,-15.537,-17.546
22547,-16.761,-20.981
22559,-18.226,-23.88
22570,-19.13,-19.937
22582,-18.122,-21.955
22594,-17.044,-19.16
22605,-19.621,-17.484
22617,-16.053,-19.345
22629,-14.298,-21.702
22641,-18.292,-18.787
22652,-17.795,-22.319
22664,-16.671,-22.746
22676,-15.678,-21.276
22688,-13.556,-23.791
22699,-16.491,-20.728
22711,-16.093,-18.961
22723,-15.263,-19.449
22734,-15.376,-19.283
22746,-17.336,-19.192
22758,-16.219,-19.175
22770,-17.995,-22.408
22781,-15.243,-18.198
22793,-14.763,-17.753
22805,-17.095,-19.808
22816,-17.65,-19.7
22828,-18.454,-18.963
22840,-13.903,-20.482
22852,-11.711,-20.532
22863,-12.377,-23.462
22875,-17.288,-18.319
22887,-19.852,-19.862
22898,-18.029,-20.998
22910,-16.164,-20.599
22922,-15.381,-21.885
22934,-15.282,-24.201
22945,-16.318,-19.028
22957,-17.594,-18.325
22969,-19.81,-21.4
22980,-16.105,-20.711
22992,-15.842,-21.17
23004,-16.462,-18.464
23016,-15.876,-17.852
23027,-13.914,-19.928
23039,-15.939,-20.656
23051,-14.7,-21.831
23063,-14.563,-22.125
23074,-16.578,-21.567
23086,-18.42,-19.226
23098,-16.946,-17.714
23109,-14.922,-17.565
23121,-15.667,-19.109
23133,-17.623,-22.859
23145,-16.611,-22.485
23156,-14.941,-19.347
23168,-16.461,-19.666
23180,-18.526,-20.543
23191,-19.261,-19.295
23203,-19.778,-19.493
23215,-16.212,-19.251
23227,-14.924,-20.67
23238,-14.871,-19.523
23250,-17.615,-19.4
23262,-20.129,-19.151
23273,-18.36,-18.891
23285,-15.309,-20.251
23297,-17.363,-20.503
23309,-19.172,-21.88
23320,-17.554,-23.29
23332,-17.944,-14.92
23344,-15.203,-14.536
23355,-17.307,-20.919
23367,-20.565,-24.803
23379,-17.246,-23.436
23391,-16.97,-20.862
23402,-22.354,-21.502
23414,-16.625,-20.506
23426,-13.839,-20.083
23438,-15.424,-17.254
23449,-15.798,-17.615
23461,-18.322,-18.498
23473,-20.409,-19.264
23484,-17.13,-19.253
23496,-17.611,-20.826
23508,-19.31,-22.251
23520,-17.618,-19.097
23531,-16.921,-17.673
23543,-19.669,-23.489
23555,-18.204,-21.44
23566,-13.731,-22.017
23578,-12.671,-19.434
23590,-16.075,-19.097
23602,-17.636,-20.092
23613,-16.598,-19.961
23625,-15.378,-20.46
23637,-16.217,-19.307
23648,-16.353,-20.404
23660,-16.064,-21.7
23672,-17.58,-22.092
23684,-16.295,-22.663
23695,-16.667,-22.338
23707,-20.236,-21.675
23719,-18.905,-20.849
23730,-17.812,-20.78
23742,-18.563,-19.466
23754,-17.583,-20.073
23766,-18.53,-20.229
23777,-18.4,-19.345
23789,-17.435,-23.825
23801,-19.39,-21.971
23813,-16.725,-20.811
23824,-18.634,-24.269
23836,-19.159,-24.674
23848,-16.697,-22.511
23859,-18.29,-22.925
23871,-15.698,-23.306
23883,-16.662,-21.276
23895,-15.195,-19.466
23906,-15.862,-21.376
23918,-14.535,-20.294
23930,-13.798,-20.575
23941,-13.563,-22.364
23953,-17.609,-19.917
23965,-19.695,-19.756
23977,-16.706,-22.175
23988,-17.868,-19.548
