FFT,Power Spectrum
Frequency[Hz],Level-L[dB],Level-R[dB]
11.719,-19.249,-22.777
23.438,1.3048,-2.3458
35.156,1.7898,0.090448
46.875,0.051434,3.765
58.594,4.091,6.575
70.313,4.3453,7.6477
82.031,9.5095,8.0917
93.75,10.965,8.4142
105.47,5.3188,6.1128
117.19,8.3594,8.2136
128.91,13.915,11.654
140.63,15.378,12.452
152.34,9.7685,9.03
164.06,3.5291,3.9395
175.78,8.5209,7.6291
187.5,9.6541,7.1063
199.22,9.0964,8.0938
210.94,7.6076,8.6958
222.66,9.5839,9.422
234.38,9.9772,8.1096
246.09,11.903,9.0563
257.81,12.938,9.5731
269.53,12.629,10.1
281.25,9.8517,8.4429
292.97,10.61,5.0881
304.69,12.669,10.702
316.41,9.0239,8.4696
328.13,10.567,5.3362
339.84,13.931,6.0444
351.56,12.432,5.3466
363.28,13.203,7.3138
375,12.186,4.4875
386.72,10.891,7.3911
398.44,10.428,11.084
410.16,13.396,13.476
421.88,16.178,16.186
433.59,16.361,14.629
445.31,16.204,14.704
457.03,15.864,12.427
468.75,14.143,14.098
480.47,10.521,14.187
492.19,9.143,13.91
503.91,9.8929,12.028
515.63,14.27,14.162
527.34,15.048,12.407
539.06,10.478,10.504
550.78,10.947,8.8768
562.5,12.636,10.125
574.22,13.241,10.073
585.94,10.816,6.4046
597.66,10.098,8.7148
609.38,6.4598,5.5279
621.09,3.1796,6.6605
632.81,7.5182,6.1686
644.53,9.0257,5.6829
656.25,8.0497,4.6731
667.97,9.8395,5.6611
679.69,10.395,6.4327
691.41,7.8912,5.5395
703.13,6.3776,4.8622
714.84,7.4992,6.1417
726.56,10.201,5.8835
738.28,9.5736,6.5727
750,10.145,8.4056
761.72,11.989,7.5227
773.44,9.6073,6.8391
785.16,8.4701,7.0697
796.88,8.4392,6.9984
808.59,10.692,4.3806
820.31,8.1352,7.2828
832.03,12.491,5.8848
843.75,7.1581,5.5124
855.47,17.677,8.158
867.19,20.428,7.1524
878.91,26.721,8.7773
890.63,35.587,10.001
902.34,50.379,14.813
914.06,68.962,28.629
925.78,71.163,30.706
937.5,60.645,20.684
949.22,40.305,4.9234
960.94,30.044,5.6617
972.66,23.619,5.2162
984.38,17.603,2.0165
996.09,14.329,3.5018
1007.8,12.017,6.5934
1019.5,13.388,6.1667
1031.3,10.666,7.3141
1043,9.8338,6.7365
1054.7,7.8863,8.0731
1066.4,6.8797,6.0437
1078.1,10.419,6.2366
1089.8,8.143,5.756
1101.6,7.0341,2.4933
1113.3,9.1256,4.7312
1125,7.397,2.4948
1136.7,7.9512,2.8699
1148.4,10.407,5.8061
1160.2,8.9142,8.2663
1171.9,7.9894,7.4688
1183.6,9.208,6.1086
1195.3,8.1018,7.248
1207,9.3609,3.6128
1218.8,8.2349,2.2708
1230.5,8.267,4.5157
1242.2,7.8432,5.6184
1253.9,7.7787,6.4885
1265.6,7.1665,6.3863
1277.3,8.4045,6.2388
1289.1,7.6739,6.8163
1300.8,5.9078,7.3643
1312.5,2.4981,5.5021
1324.2,3.2555,2.5115
1335.9,2.329,4.0931
1347.7,4.4928,1.8788
1359.4,3.9799,1.6229
1371.1,5.9881,3.65
1382.8,6.6883,2.8514
1394.5,4.5011,4.197
1406.3,6.2849,4.2317
1418,3.2782,3.1409
1429.7,3.023,2.4496
1441.4,5.5547,3.6349
1453.1,4.1177,2.7623
1464.8,5.561,2.6345
1476.6,5.9021,6.863
1488.3,4.5828,6.0033
1500,7.7106,6.3939
1511.7,7.7066,5.8444
1523.4,2.7598,3.3544
1535.2,4.2017,3.39
1546.9,3.5053,3.1589
1558.6,2.0236,1.1927
1570.3,6.1239,2.8436
1582,6.9424,5.2679
1593.8,7.6568,5.9386
1605.5,6.6937,3.5907
1617.2,7.8572,5.2727
1628.9,4.6769,1.3606
1640.6,7.1973,0.043448
1652.3,4.5058,0.72547
1664.1,5.8622,6.0096
1675.8,7.362,6.4697
1687.5,5.8838,4.084
1699.2,4.1629,2.5986
1710.9,5.7888,3.417
1722.7,6.667,3.674
1734.4,2.8651,2.4487
1746.1,1.3949,1.3843
1757.8,2.6595,3.6143
1769.5,3.4736,2.3191
1781.3,6.096,2.3033
1793,6.153,4.4812
1804.7,3.3367,3.299
1816.4,5.0883,4.3702
1828.1,4.183,4.6955
1839.8,7.7521,7.1715
1851.6,8.3787,6.8737
1863.3,5.5743,6.6705
1875,6.3582,6.8816
1886.7,6.9936,5.0344
1898.4,6.7607,4.2709
1910.2,4.9995,4.6094
1921.9,4.8491,6.224
1933.6,5.2234,3.6546
1945.3,4.3853,4.0853
1957,0.79816,0.037125
1968.8,1.7949,1.6731
1980.5,1.9784,5.3483
1992.2,4.588,6.4329
2003.9,6.9832,7.1946
2015.6,5.6808,4.7643
2027.3,4.4534,3.7963
2039.1,3.0551,2.5555
2050.8,4.3521,0.8913
2062.5,3.0128,0.75993
2074.2,4.0465,4.7687
2085.9,4.6944,4.8475
2097.7,5.5934,3.5678
2109.4,3.6833,2.2005
2121.1,3.2388,2.5626
2132.8,1.8513,1.5924
2144.5,1.4098,0.22445
2156.3,5.0154,1.8559
2168,5.4239,1.4031
2179.7,2.5522,0.89751
2191.4,0.57645,1.2634
2203.1,1.7125,4.2187
2214.8,5.1353,3.3915
2226.6,5.9632,0.6591
2238.3,3.7635,4.5638
2250,2.0246,4.6699
2261.7,5.4721,2.7187
2273.4,2.5871,0.83011
2285.2,1.0738,1.1951
2296.9,0.094815,1.9792
2308.6,4.2174,2.0409
2320.3,6.7973,4.2302
2332,6.8531,2.8503
2343.8,3.2152,1.8958
2355.5,1.7612,1.6975
2367.2,5.6035,4.2843
2378.9,7.8261,8.4614
2390.6,5.6337,4.4726
2402.3,2.3893,-1.8403
2414.1,1.509,1.9383
2425.8,3.1575,-0.025238
2437.5,4.4613,3.3462
2449.2,5.1183,1.2226
2460.9,0.8315,1.0835
2472.7,2.1774,2.5669
2484.4,2.5385,2.7274
2496.1,3.289,4.1832
2507.8,2.8566,2.4905
2519.5,1.9421,-0.64261
2531.3,5.3395,0.42774
2543,5.1982,1.0017
2554.7,1.1211,3.6474
2566.4,0.26131,3.1909
2578.1,0.70699,4.231
2589.8,-0.6025,4.6925
2601.6,-1.3855,1.098
2613.3,-0.80018,-1.9223
2625,-0.1109,-3.0723
2636.7,-1.5948,0.21687
2648.4,0.73221,3.3975
2660.2,2.5227,2.4405
2671.9,1.0177,2.3987
2683.6,1.5128,0.82373
2695.3,3.583,-1.7398
2707,1.8155,-1.2212
2718.8,1.0578,-0.48584
2730.5,1.5357,-1.5665
2742.2,0.84486,-0.41858
2753.9,3.0039,0.80599
2765.6,4.5617,3.8105
2777.3,2.4424,2.8651
2789.1,2.6907,1.1499
2800.8,1.9918,-0.86742
2812.5,2.117,-0.63897
2824.2,1.0946,0.0954
2835.9,1.6476,-0.35838
2847.7,3.6927,2.8796
2859.4,1.6548,1.9654
2871.1,1.5326,1.1156
2882.8,2.3377,0.84626
2894.5,0.66892,-0.3614
2906.3,1.8089,-0.35349
2918,3.9612,-0.37541
2929.7,-1.2185,-1.6894
2941.4,-1.1961,0.064915
2953.1,0.011204,0.12823
2964.8,0.88192,0.31947
2976.6,3.2592,1.1616
2988.3,3.7308,4.0525
3000,3.2144,1.5571
3011.7,2.339,-0.50401
3023.4,1.229,0.60528
3035.2,0.66913,-3.3991
3046.9,2.1187,-0.89377
3058.6,2.656,0.58739
3070.3,0.0353,1.5827
3082,2.6913,-0.8941
3093.8,1.1529,-0.30678
3105.5,-1.1467,-1.1003
3117.2,1.3125,-2.284
3128.9,1.9474,1.0461
3140.6,1.5958,-0.30153
3152.3,0.9952,1.2399
3164.1,-0.74994,1.191
3175.8,-0.12582,-2.185
3187.5,-0.982,-1.8815
3199.2,0.020684,-2.2377
3210.9,-2.7197,-0.2841
3222.7,-3.8738,-0.79788
3234.4,-2.239,-3.0935
3246.1,-1.052,0.27622
3257.8,-0.57014,0.59364
3269.5,1.4221,-0.30138
3281.3,3.0374,-1.058
3293,1.4868,0.63123
3304.7,0.26657,-3.7807
3316.4,0.29932,-3.707
3328.1,1.2406,-2.1235
3339.8,0.76202,-0.90364
3351.6,-3.0407,-0.30784
3363.3,-1.0483,-1.5403
3375,-3.2009,-2.3577
3386.7,-1.1503,-0.24454
3398.4,1.9011,-1.6288
3410.2,0.71832,-2.2234
3421.9,0.31399,-0.24808
3433.6,-0.94408,0.98395
3445.3,-0.5256,1.1433
3457,-2.1967,-0.06239
3468.8,-1.36,-1.3026
3480.5,-1.6233,0.92276
3492.2,-1.4269,1.8909
3503.9,-2.1434,1.0328
3515.6,-1.9696,-1.2273
3527.3,-0.66761,-0.21326
3539.1,1.2591,0.15763
3550.8,0.30469,-0.68952
3562.5,1.148,0.038743
3574.2,0.58244,2.1211
3585.9,-1.1787,2.128
3597.7,-2.0151,-0.22424
3609.4,-2.1881,-1.0578
3621.1,-1.9213,-1.3278
3632.8,-0.60582,-3.1641
3644.5,0.68683,-3.271
3656.3,-1.3393,-2.8856
3668,-0.60126,-0.51446
3679.7,1.2594,1.6075
3691.4,0.93707,0.78411
3703.1,-1.0774,1.9294
3714.8,-1.2809,-0.054424
3726.6,-2.2382,0.42093
3738.3,-1.1047,2.4327
3750,-0.37057,-2.1305
3761.7,-1.2489,-0.6283
3773.4,-1.2817,0.3258
3785.2,-2.0988,-1.2528
3796.9,-2.7701,-1.337
3808.6,-2.8403,-1.8819
3820.3,-3.3138,0.52148
3832,-4.256,-1.6873
3843.8,-2.9789,-1.8123
3855.5,-1.223,-2.1808
3867.2,0.44545,-2.7782
3878.9,1.2382,-4.3848
3890.6,-1.827,-2.9214
3902.3,0.44033,-0.8414
3914.1,-1.2595,-1.2344
3925.8,-3.166,2.3301
3937.5,-1.4888,2.7622
3949.2,-2.4596,-2.4993
3960.9,-1.7923,-3.8135
3972.7,-2.2679,-3.4577
3984.4,-1.283,-3.4057
3996.1,-1.8843,-2.8178
4007.8,-0.097326,-2.3183
4019.5,0.27206,-0.059107
4031.3,-1.6324,-2.8
4043,-5.8974,-6.0913
4054.7,-7.0383,-0.62873
4066.4,-3.4422,0.81818
4078.1,0.60925,-1.2139
4089.8,1.4868,-2.9157
4101.6,-0.58817,-2.049
4113.3,-1.3512,-3.1602
4125,-1.159,-1.9751
4136.7,-2.1758,-1.8822
4148.4,-2.2765,-0.34668
4160.2,-0.54554,0.34131
4171.9,-2.6112,0.64519
4183.6,-0.93842,0.25019
4195.3,0.028749,-0.43801
4207,-1.1037,-2.316
4218.8,-1.3477,-2.3708
4230.5,-0.90922,-3.7631
4242.2,-1.3104,-4.0973
4253.9,-3.2376,-0.64124
4265.6,-0.87798,-2.2991
4277.3,-1.0086,-3.4272
4289.1,-2.0591,-3.8025
4300.8,-2.3376,-2.0715
4312.5,-1.4334,0.46226
4324.2,0.28517,-0.27602
4335.9,-3.3082,-4.8009
4347.7,-2.9262,-1.4267
4359.4,-1.8195,-0.75489
4371.1,-1.2588,-3.6617
4382.8,-1.2418,-4.6972
4394.5,-1.2949,-4.2343
4406.3,-2.2069,-2.1033
4418,-1.8282,-2.6183
4429.7,-2.3294,-5.2579
4441.4,-3.8155,-5.988
4453.1,-2.0753,-4.2699
4464.8,-3.9518,-4.8663
4476.6,-6.0926,-3.2093
4488.3,-5.5938,-4.2733
4500,-2.5458,-1.0864
4511.7,-4.548,-1.8625
4523.4,-3.8847,-3.2655
4535.2,-2.3537,-2.4221
4546.9,-1.2474,-0.11878
4558.6,-1.872,0.48329
4570.3,-3.2142,-1.3054
4582,-1.8096,-2.8405
4593.8,-1.9815,-2.9486
4605.5,0.43886,-0.29531
4617.2,-0.28345,-0.4474
4628.9,-2.5547,-3.9397
4640.6,-2.2399,-1.7942
4652.3,-4.3778,-1.7312
4664.1,-4.6246,-2.7792
4675.8,-0.9419,0.85874
4687.5,-2.2865,0.67524
4699.2,0.063022,-2.5202
4710.9,-0.70508,-4.1138
4722.7,-2.5858,-2.0629
4734.4,-4.1495,-1.059
4746.1,-5.327,-2.7199
4757.8,-3.9516,-4.677
4769.5,-3.1001,-3.255
4781.3,-1.9504,-6.1011
4793,-1.474,-3.9633
4804.7,-1.8191,-0.1944
4816.4,-6.0022,0.19751
4828.1,-3.9993,-1.1927
4839.8,-1.9418,-3.6199
4851.6,-0.64512,-0.68522
4863.3,0.08021,-4.7412
4875,-1.6652,-2.7655
4886.7,-5.1128,-2.5847
4898.4,-4.3503,-1.5474
4910.2,-2.2628,-2.9575
4921.9,-4.309,-6.2562
4933.6,-2.9762,-3.9539
4945.3,-3.7217,-6.5943
4957,-5.3124,-3.5708
4968.8,-2.2193,-1.1085
4980.5,-3.0559,-2.6486
4992.2,-5.4783,-4.6227
5003.9,-5.7636,-6.3468
5015.6,-5.8853,-2.178
5027.3,-5.7124,-3.7232
5039.1,-3.2108,-6.9377
5050.8,-1.6631,-3.1886
5062.5,-0.95674,-2.11
5074.2,-2.9935,-6.1405
5085.9,-3.3238,-5.2777
5097.7,-1.5777,-6.982
5109.4,-0.80223,-6.6226
5121.1,-3.1082,-5.6819
5132.8,-3.2107,-3.7976
5144.5,-4.2482,-5.2569
5156.3,-4.1813,-3.4807
5168,-1.7023,-2.9208
5179.7,-0.85425,-2.4549
5191.4,-0.54334,-3.7529
5203.1,-0.64621,-3.9771
5214.8,-4.8352,-4.3214
5226.6,-3.5953,-4.5661
5238.3,-3.6751,-3.9124
5250,-4.7718,-2.4008
5261.7,-5.2805,-4.6811
5273.4,-6.6577,-5.4339
5285.2,-7.6178,-3.6874
5296.9,-9.4436,-3.2975
5308.6,-6.4982,-1.6534
5320.3,-2.5483,-1.6905
5332,-2.3501,-1.6144
5343.8,-2.7206,-3.8366
5355.5,-4.4762,-9.752
5367.2,-4.5923,-7.6249
5378.9,-4.5839,-4.576
5390.6,-4.5786,-3.1556
5402.3,-2.2051,-5.2739
5414.1,-2.5533,-4.2634
5425.8,-3.147,-3.2326
5437.5,-5.9872,-1.8045
5449.2,-5.2207,-1.5081
5460.9,-3.7819,-5.899
5472.7,-3.3366,-1.6028
5484.4,-3.2996,-2.6346
5496.1,-3.4337,-4.8303
5507.8,-3.3507,-3.22
5519.5,-5.3959,-1.4947
5531.3,-6.2413,-2.3004
5543,-3.3805,-4.4932
5554.7,-3.1618,-6.6227
5566.4,-2.8252,-8.2195
5578.1,-7.8323,-7.2195
5589.8,-5.3208,-7.1251
5601.6,-3.6006,-4.578
5613.3,-3.3789,-3.9848
5625,-4.2254,-5.8983
5636.7,-3.4382,-7.1014
5648.4,-4.3132,-5.1696
5660.2,-6.3562,-6.89
5671.9,-5.4759,-6.9746
5683.6,-3.4141,-6.1859
5695.3,-4.3683,-8.6305
5707,-7.0346,-5.8443
5718.8,-6.3493,-4.0797
5730.5,-5.3915,-5.514
5742.2,-4.7106,-6.2002
5753.9,-5.1423,-7.7192
5765.6,-5.1868,-6.971
5777.3,-6.4211,-3.1588
5789.1,-5.8568,-3.6323
5800.8,-6.9577,-2.7748
5812.5,-4.178,-2.9435
5824.2,-6.8426,-4.3872
5835.9,-7.2423,-7.7414
5847.7,-4.9457,-10.936
5859.4,-6.8607,-5.7494
5871.1,-7.0336,-2.6605
5882.8,-5.3129,-4.3059
5894.5,-2.2354,-6.3246
5906.3,-2.978,-7.6192
5918,-5.4823,-6.2817
5929.7,-5.5821,-5.7416
5941.4,-5.4693,-6.0565
5953.1,-5.8584,-5.0407
5964.8,-8.1191,-4.4544
5976.6,-3.2776,-4.522
5988.3,-3.7413,-3.8118
6000,-6.0291,-4.1758
6011.7,-3.5761,-5.5306
6023.4,-4.063,-6.0432
6035.2,-7.4706,-5.7811
6046.9,-5.9874,-7.8731
6058.6,-4.7787,-10.167
6070.3,-5.4088,-12.178
6082,-6.941,-8.4254
6093.8,-6.0254,-6.8416
6105.5,-5.1621,-6.5971
6117.2,-4.871,-6.527
6128.9,-7.6634,-4.9412
6140.6,-7.4564,-4.4651
6152.3,-7.4901,-6.1638
6164.1,-9.2657,-5.5478
6175.8,-4.0836,-5.3169
6187.5,-3.6042,-6.4593
6199.2,-8.5704,-6.1875
6210.9,-6.5601,-6.2184
6222.7,-5.3662,-5.3396
6234.4,-8.353,-5.5505
6246.1,-9.0501,-6.5767
6257.8,-8.4647,-5.1251
6269.5,-5.2101,-3.8856
6281.3,-5.6942,-5.0095
6293,-6.7631,-7.7868
6304.7,-6.8403,-4.1865
6316.4,-5.1496,-5.1731
6328.1,-4.883,-7.9331
6339.8,-5.5224,-6.6025
6351.6,-7.7779,-5.0958
6363.3,-5.2759,-6.3139
6375,-3.8746,-9.3034
6386.7,-6.2529,-6.632
6398.4,-7.1887,-3.517
6410.2,-6.1854,-4.2139
6421.9,-5.1479,-4.5405
6433.6,-4.5214,-4.8414
6445.3,-3.9217,-7.4631
6457,-3.6118,-5.9098
6468.8,-5.7024,-5.6531
6480.5,-5.0024,-6.4799
6492.2,-3.4787,-6.1742
6503.9,-4.5244,-7.91
6515.6,-11.251,-7.8351
6527.3,-5.6357,-9.2533
6539.1,-5.974,-7.853
6550.8,-7.9735,-4.6169
6562.5,-8.1095,-4.8324
6574.2,-8.1432,-1.8544
6585.9,-7.9829,-2.5091
6597.7,-6.2502,-7.3528
6609.4,-6.3226,-5.9471
6621.1,-7.7008,-4.2058
6632.8,-7.7936,-4.1171
6644.5,-5.9637,-3.3152
6656.3,-4.8165,-6.6
6668,-7.6829,-8.7451
6679.7,-8.9148,-7.0924
6691.4,-6.9659,-6.6825
6703.1,-6.3173,-4.9517
6714.8,-7.4965,-3.9674
6726.6,-6.8421,-7.6081
6738.3,-10.382,-7.7096
6750,-8.7595,-6.5931
6761.7,-6.2469,-8.7
6773.4,-6.3732,-9.4359
6785.2,-5.7874,-7.0193
6796.9,-9.1563,-5.5459
6808.6,-7.0808,-7.9355
6820.3,-5.8517,-11.332
6832,-7.0284,-8.7415
6843.8,-9.7638,-6.8424
6855.5,-8.7342,-7.2224
6867.2,-7.1422,-6.8705
6878.9,-7.3046,-8.2159
6890.6,-9.2203,-11.89
6902.3,-8.5057,-10.123
6914.1,-4.1712,-7.0276
6925.8,-2.8428,-4.8655
6937.5,-6.9804,-7.0997
6949.2,-7.4857,-8.365
6960.9,-9.5806,-8.6123
6972.7,-7.4353,-9.6969
6984.4,-8.869,-10.07
6996.1,-5.1145,-9.4085
7007.8,-4.8817,-5.3791
7019.5,-6.3486,-6.6643
7031.3,-4.7065,-6.6655
7043,-3.8702,-5.9223
7054.7,-3.5424,-7.3468
7066.4,-5.1964,-7.5956
7078.1,-8.0372,-5.0455
7089.8,-9.2157,-6.7027
7101.6,-8.5876,-6.3214
7113.3,-10.028,-7.8683
7125,-11.092,-12.95
7136.7,-8.2793,-8.4689
7148.4,-6.9154,-7.8226
7160.2,-8.4017,-9.5824
7171.9,-6.9315,-7.5982
7183.6,-7.7782,-6.4376
7195.3,-7.5365,-9.5803
7207,-4.4164,-11.415
7218.8,-4.5204,-10.495
7230.5,-8.6538,-8.0858
7242.2,-6.692,-9.4714
7253.9,-8.3334,-8.5657
7265.6,-5.1414,-8.0145
7277.3,-5.7584,-5.3503
7289.1,-7.7397,-3.5231
7300.8,-3.3261,-8.2489
7312.5,-5.0215,-10.322
7324.2,-6.4283,-4.3131
7335.9,-9.5808,-3.9022
7347.7,-7.8018,-4.07
7359.4,-10.07,-5.1255
7371.1,-11.207,-6.1907
7382.8,-9.3869,-6.5225
7394.5,-6.7462,-6.7491
7406.3,-8.3364,-8.3155
7418,-9.9082,-5.9307
7429.7,-9.0583,-4.1648
7441.4,-10.103,-5.9836
7453.1,-10.762,-10.069
7464.8,-10.164,-10.498
7476.6,-8.8966,-7.3433
7488.3,-8.8457,-9.1089
7500,-6.4423,-6.5736
7511.7,-6.0313,-7.2595
7523.4,-11.026,-6.7484
7535.2,-8.6546,-7.7869
7546.9,-7.2629,-8.1073
7558.6,-9.3126,-9.7487
7570.3,-6.391,-6.9742
7582,-8.1619,-7.9235
7593.8,-8.0833,-10.72
7605.5,-5.8571,-9.574
7617.2,-5.5809,-9.39
7628.9,-8.1353,-9.0234
7640.6,-9.8529,-8.1691
7652.3,-8.063,-9.651
7664.1,-7.69,-11.437
7675.8,-8.9511,-9.6173
7687.5,-8.4126,-9.4676
7699.2,-6.1617,-8.7031
7710.9,-5.0319,-8.8972
7722.7,-5.7392,-9.723
7734.4,-7.7343,-9.5692
7746.1,-10.907,-8.8464
7757.8,-9.8989,-10.842
7769.5,-6.489,-11.374
7781.3,-5.1929,-9.9613
7793,-5.6728,-9.4996
7804.7,-9.5652,-7.3834
7816.4,-9.1281,-6.7637
7828.1,-7.018,-9.2651
7839.8,-8.3036,-10.427
7851.6,-8.176,-8.5127
7863.3,-9.0231,-10.7
7875,-8.0683,-10.768
7886.7,-8.9506,-9.2143
7898.4,-8.2912,-8.8822
7910.2,-7.6245,-6.3169
7921.9,-7.923,-6.4831
7933.6,-7.5965,-9.8459
7945.3,-6.1378,-7.8303
7957,-8.6035,-8.0453
7968.8,-9.9793,-8.5383
7980.5,-7.9854,-8.8557
7992.2,-8.2264,-7.5469
8003.9,-10.435,-8.1087
8015.6,-12.505,-10.394
8027.3,-11.042,-9.4267
8039.1,-7.8435,-9.0352
8050.8,-7.9652,-9.5774
8062.5,-8.0437,-12.286
8074.2,-7.9513,-9.6671
8085.9,-8.0912,-8.9302
8097.7,-9.8004,-8.0408
8109.4,-9.8915,-6.9189
8121.1,-7.633,-8.9045
8132.8,-8.4174,-9.6839
8144.5,-11.828,-10.12
8156.3,-11.561,-11.489
8168,-8.6477,-10.192
8179.7,-8.4694,-9.849
8191.4,-12.935,-11.413
8203.1,-9.4248,-9.6142
8214.8,-8.7941,-5.672
8226.6,-9.0447,-6.04
8238.3,-9.2331,-10.262
8250,-11.63,-11.581
8261.7,-10.297,-9.8331
8273.4,-11.523,-9.0418
8285.2,-11.008,-7.7644
8296.9,-7.4611,-6.5885
8308.6,-9.8678,-9.5231
8320.3,-11.533,-12.988
8332,-11.244,-12.65
8343.8,-10.913,-11.182
8355.5,-10.5,-10.599
8367.2,-11.173,-10.616
8378.9,-11.303,-9.7505
8390.6,-9.6296,-8.296
8402.3,-10.676,-8.396
8414.1,-10.798,-8.8872
8425.8,-10.123,-10.428
8437.5,-11.668,-11.049
8449.2,-9.4634,-12.125
8460.9,-7.4835,-10.446
8472.7,-11.677,-10.172
8484.4,-12.874,-14.763
8496.1,-10.518,-9.6189
8507.8,-9.4054,-8.0154
8519.5,-10.829,-9.1402
8531.3,-6.4679,-10.692
8543,-8.1708,-6.9463
8554.7,-9.4971,-6.6764
8566.4,-10.082,-11.717
8578.1,-11.255,-10.72
8589.8,-11.6,-13.525
8601.6,-9.1313,-9.9327
8613.3,-9.0183,-10.577
8625,-10.307,-10.724
8636.7,-10.293,-8.6516
8648.4,-10.891,-10.221
8660.2,-10.853,-10.605
8671.9,-11.621,-9.8831
8683.6,-9.9583,-9.9964
8695.3,-8.9738,-11.214
8707,-10.454,-10.433
8718.8,-8.6434,-11.265
8730.5,-11.043,-10.069
8742.2,-10.616,-8.6656
8753.9,-8.4649,-10.623
8765.6,-8.4402,-10.591
8777.3,-9.4419,-7.5545
8789.1,-10.421,-7.8358
8800.8,-7.0165,-13.929
8812.5,-7.6807,-14.512
8824.2,-9.6038,-17.056
8835.9,-9.5991,-14.011
8847.7,-8.3242,-11.575
8859.4,-8.9737,-9.263
8871.1,-9.5189,-8.0474
8882.8,-9.2715,-7.294
8894.5,-9.7086,-6.5419
8906.3,-10.074,-7.845
8918,-8.4396,-14.163
8929.7,-8.4978,-10.16
8941.4,-7.7581,-11.232
8953.1,-9.4026,-10.959
8964.8,-11.155,-10.569
8976.6,-8.4548,-10.152
8988.3,-12.485,-7.2001
9000,-8.5387,-8.7014
9011.7,-10.549,-9.7892
9023.4,-9.9668,-12.065
9035.2,-10.908,-9.9437
9046.9,-13.612,-10.718
9058.6,-11.356,-11.559
9070.3,-10.484,-10.747
9082,-10.896,-9.8646
9093.8,-11.775,-10.382
9105.5,-10.008,-10.452
9117.2,-8.5828,-10.639
9128.9,-9.5357,-13.694
9140.6,-9.5739,-12.854
9152.3,-12.729,-11.788
9164.1,-14.584,-11.271
9175.8,-9.9101,-12.025
9187.5,-10.43,-11.624
9199.2,-11.117,-10.522
9210.9,-10.164,-10.957
9222.7,-15.931,-11.426
9234.4,-13.311,-11.454
9246.1,-12.781,-9.8718
9257.8,-10.375,-10.232
9269.5,-10.382,-12.147
9281.3,-10.065,-10.962
9293,-11.654,-8.7565
9304.7,-8.5641,-12.272
9316.4,-9.3955,-9.7407
9328.1,-12.229,-9.8694
9339.8,-14.393,-11.003
9351.6,-14.294,-10.898
9363.3,-10.932,-14.915
9375,-8.568,-10.849
9386.7,-8.3004,-8.816
9398.4,-11.33,-10.33
9410.2,-11.889,-12.955
9421.9,-10.987,-13.896
9433.6,-11.88,-10.702
9445.3,-11.087,-10.387
9457,-9.9791,-11.786
9468.8,-9.4695,-8.8268
9480.5,-9.0426,-11.606
9492.2,-12.518,-12.807
9503.9,-11.487,-14.744
9515.6,-8.9106,-15.1
9527.3,-10.043,-12.403
9539.1,-13.954,-11.656
9550.8,-9.76,-12.156
9562.5,-9.2331,-10.043
9574.2,-9.3499,-11.442
9585.9,-12.493,-11.504
9597.7,-15.243,-10.849
9609.4,-11.165,-11.013
9621.1,-9.8248,-11.234
9632.8,-11.925,-10.823
9644.5,-10.278,-11.732
9656.3,-9.559,-13.105
9668,-12.632,-15.422
9679.7,-13.487,-14.205
9691.4,-15.04,-10.26
9703.1,-8.2843,-8.2585
9714.8,-7.2896,-9.3726
9726.6,-12.374,-10.461
9738.3,-12.632,-13.58
9750,-9.21,-14.087
9761.7,-10.049,-14.101
9773.4,-12.715,-11.512
9785.2,-11.373,-15.265
9796.9,-14.291,-12.422
9808.6,-13.467,-12.812
9820.3,-10.916,-14.164
9832,-10.143,-10.376
9843.8,-9.9593,-11.632
9855.5,-11.518,-13.151
9867.2,-9.7459,-11.945
9878.9,-8.8972,-14.575
9890.6,-10.304,-15.354
9902.3,-13.046,-14.108
9914.1,-12.686,-12.029
9925.8,-13.29,-9.8633
9937.5,-10.654,-9.0307
9949.2,-11.273,-10.679
9960.9,-10.235,-12.414
9972.7,-9.9457,-12.601
9984.4,-10.856,-11.226
9996.1,-9.0725,-11.774
10008,-10.456,-12.489
10020,-11.261,-11.3
10031,-12.274,-13.099
10043,-11.088,-13.327
10055,-11.794,-12.307
10066,-13.499,-13.088
10078,-12.463,-10.625
10090,-10.894,-10.199
10102,-10.42,-15.308
10113,-10.396,-13.795
10125,-10.394,-15.477
10137,-6.1563,-13.991
10148,-4.9307,-15.088
10160,-9.2049,-12.673
10172,-11.972,-11.133
10184,-14.108,-13.683
10195,-14.432,-12.184
10207,-14.203,-12.63
10219,-13.078,-12.561
10230,-9.2654,-12.379
10242,-11.691,-10.309
10254,-11.997,-11.581
10266,-10.727,-13.001
10277,-13.265,-14.642
10289,-13.7,-13.533
10301,-12.041,-13.231
10313,-9.4375,-13.624
10324,-8.0376,-14.271
10336,-8.907,-14.17
10348,-10.423,-16.91
10359,-9.4448,-12.889
10371,-10.158,-12.026
10383,-12.375,-10.83
10395,-11.329,-11.417
10406,-9.8157,-10.983
10418,-10.802,-12.286
10430,-8.4589,-12.957
10441,-7.5221,-11.848
10453,-9.0696,-12.022
10465,-10.366,-15.451
10477,-12.803,-13.625
10488,-11.989,-9.987
10500,-9.1856,-10.858
10512,-9.1169,-12.717
10523,-11.184,-10.726
10535,-13.409,-9.0853
10547,-12.777,-11.279
10559,-10.99,-12.401
10570,-13.632,-11.157
10582,-10.267,-10.97
10594,-10.213,-10.079
10605,-13.196,-9.9764
10617,-14.651,-10.182
10629,-12.122,-12.837
10641,-11.64,-11.742
10652,-10.865,-12.27
10664,-8.1285,-12.69
10676,-9.9153,-15.28
10688,-12.966,-15
10699,-12.04,-14.935
10711,-13.383,-13.26
10723,-10.615,-13.205
10734,-12.636,-14.779
10746,-12.708,-9.7153
10758,-11.428,-10.825
10770,-11.409,-12.759
10781,-11.072,-12.151
10793,-11.285,-12.357
10805,-13.364,-10.459
10816,-13.013,-10.293
10828,-13.466,-11.88
10840,-16.043,-11.73
10852,-12.105,-12.593
10863,-9.179,-11.123
10875,-8.6398,-12.707
10887,-9.4564,-16.023
10898,-13.559,-12.841
10910,-16.298,-10.118
10922,-13.998,-9.8213
10934,-13.674,-13.324
10945,-12.427,-12.833
10957,-10.149,-13.929
10969,-10.674,-11.786
10980,-12.354,-12.687
10992,-12.432,-13.524
11004,-11.207,-13.067
11016,-12.008,-11.567
11027,-12.85,-13.057
11039,-13.75,-14.42
11051,-15.717,-11.962
11063,-11.045,-12.066
11074,-9.6857,-12.884
11086,-10.168,-13.304
11098,-11.411,-12.415
11109,-11.357,-13.306
11121,-9.4773,-14.821
11133,-11.067,-9.9534
11145,-12.608,-11.583
11156,-11.872,-14.276
11168,-10.338,-17.531
11180,-9.6755,-15.133
11191,-9.7412,-13.726
11203,-11.118,-12.471
11215,-13.846,-11.695
11227,-13.082,-12.463
11238,-12.35,-14.873
11250,-11.395,-13.118
11262,-11.263,-13.894
11273,-12.4,-10.125
11285,-10.905,-9.609
11297,-10.716,-10.51
11309,-10.631,-10.803
11320,-10.804,-12.614
11332,-12.598,-17.029
11344,-11.934,-17.394
11355,-11.495,-12.899
11367,-13.185,-13.164
11379,-10.001,-13.968
11391,-10.251,-14.527
11402,-10.238,-15.12
11414,-10.384,-13.59
11426,-12.609,-13.104
11438,-16.683,-12.667
11449,-15.024,-12.922
11461,-12.711,-16.288
11473,-14.623,-13.796
11484,-11.311,-12.849
11496,-10.576,-13.879
11508,-11.795,-13.493
11520,-12.897,-11.892
11531,-12.11,-12.402
11543,-12.471,-15.605
11555,-13.365,-16.194
11566,-13.888,-15.344
11578,-11.458,-14.353
11590,-9.9666,-13.468
11602,-11.015,-14.035
11613,-12.738,-12.978
11625,-14.151,-14.872
11637,-11.386,-14.281
11648,-9.4597,-13.628
11660,-11.448,-13.111
11672,-11.465,-12.611
11684,-9.9704,-14.024
11695,-11.853,-16.582
11707,-13.539,-17.366
11719,-12.351,-14.816
11730,-11.211,-12.841
11742,-13.562,-14.996
11754,-13.016,-14.723
11766,-14.513,-13.052
11777,-14.246,-16.226
11789,-12.153,-14.248
11801,-11.812,-14.377
11813,-9.7216,-15.18
11824,-11.512,-12.654
11836,-17.501,-12.666
11848,-13.425,-14.11
11859,-13.393,-15.635
11871,-13.78,-16.837
11883,-12.114,-14.442
11895,-11.063,-12.099
11906,-14.308,-14.555
11918,-13.471,-15.355
11930,-15.497,-13.843
11941,-14.062,-15.441
11953,-11.688,-14.757
11965,-11.626,-14.433
11977,-12.061,-18.142
11988,-13.179,-15.164
12000,-14.424,-11.84
12012,-14.806,-14.306
12023,-10.458,-16.431
12035,-11.215,-15.894
12047,-13.014,-15.341
12059,-13.079,-15.852
12070,-12.197,-14.882
12082,-12.421,-14.393
12094,-12.163,-16.523
12105,-13.768,-18.096
12117,-13.132,-16.043
12129,-13.732,-14.373
12141,-13.681,-14.353
12152,-13.593,-18.562
12164,-12.988,-18.924
12176,-15.155,-16.935
12188,-14.776,-13.84
12199,-14.623,-12.431
12211,-12.906,-12.651
12223,-12.348,-14.803
12234,-15.559,-15.801
12246,-13.795,-13.929
12258,-12.758,-14.99
12270,-12.271,-16.407
12281,-13.121,-15.375
12293,-12.96,-14.074
12305,-15.462,-15.567
12316,-14.704,-15.442
12328,-15.413,-15.306
12340,-13.256,-11.616
12352,-12.096,-13.208
12363,-12.567,-16.698
12375,-14.869,-16.55
12387,-15.776,-14.731
12398,-13.079,-11.964
12410,-13.238,-13.794
12422,-14.366,-17.826
12434,-13.858,-18.096
12445,-14.348,-17.822
12457,-13.68,-16.999
12469,-12.586,-13.731
12480,-12.619,-14.394
12492,-15.209,-16.288
12504,-12.037,-15.544
12516,-13.065,-12.574
12527,-13.993,-13.74
12539,-13.189,-16.917
12551,-14.507,-14.293
12563,-17.859,-14.625
12574,-17.365,-15.209
12586,-16.111,-14.192
12598,-18.33,-13.569
12609,-16.283,-13.701
12621,-13.823,-14.061
12633,-11.523,-14.15
12645,-8.3054,-15.499
12656,-9.4913,-18.028
12668,-15.202,-16
12680,-13.568,-16.287
12691,-13.41,-16.484
12703,-13.048,-17.003
12715,-11.172,-17.309
12727,-11.129,-14.8
12738,-13.631,-12.994
12750,-15.354,-13.626
12762,-14.407,-14.425
12773,-16.354,-18.627
12785,-13.507,-12.438
12797,-13.076,-11.769
12809,-13.078,-15.502
12820,-13.287,-13.452
12832,-13.601,-12.436
12844,-11.701,-13.812
12855,-15.702,-17.094
12867,-12.675,-19.616
12879,-13.951,-18.708
12891,-16.391,-19.055
12902,-15.639,-15.525
12914,-13.613,-13.832
12926,-13.4,-17.577
12938,-12.778,-15.687
12949,-13.088,-16.234
12961,-12.609,-14.907
12973,-12.228,-20.251
12984,-13.403,-16.626
12996,-12.978,-14.649
13008,-12.443,-15.081
13020,-13.97,-11.727
13031,-18.567,-12.239
13043,-15.891,-14.247
13055,-15.109,-13.263
13066,-17.093,-14.175
13078,-17.821,-16.93
13090,-16.498,-17.033
13102,-17.473,-16.547
13113,-14.028,-15.893
13125,-11.192,-14.56
13137,-12.121,-16.714
13148,-15.512,-17.1
13160,-15.395,-16.641
13172,-13.092,-15.998
13184,-13.477,-16.436
13195,-13.16,-18.269
13207,-15.121,-15.955
13219,-13.196,-14.971
13230,-12.026,-15.567
13242,-16.026,-16.063
13254,-13.421,-19.362
13266,-14.962,-16.794
13277,-16.178,-17.925
13289,-15.562,-16.168
13301,-14.624,-16.891
13313,-12.482,-18.698
13324,-10.306,-18.515
13336,-12.18,-19.981
13348,-14.947,-18.351
13359,-16.505,-17.647
13371,-16.56,-16.449
13383,-16.532,-15.183
13395,-13.314,-15.263
13406,-12.586,-17.912
13418,-18.039,-16.584
13430,-15.609,-18.02
13441,-13.954,-20.01
13453,-15.886,-14.182
13465,-14.095,-17.929
13477,-12.991,-15.949
13488,-17.131,-15.736
13500,-12.918,-19.634
13512,-15.241,-17.392
13523,-13.971,-13.523
13535,-11.753,-16.932
13547,-14.032,-17.06
13559,-13.548,-18.028
13570,-12.487,-18.536
13582,-11.109,-16.553
13594,-12.045,-14.99
13605,-12.925,-17.978
13617,-15.662,-15.713
13629,-14.388,-16.066
13641,-13.957,-16.139
13652,-16.799,-17.527
13664,-17.898,-20.68
13676,-15.113,-18.709
13688,-13.111,-16.008
13699,-12.47,-15.316
13711,-10.942,-13.988
13723,-13.349,-13.912
13734,-14.605,-12.746
13746,-13.366,-13.992
13758,-13.272,-18.014
13770,-14.879,-17.037
13781,-13.287,-15.043
13793,-12.26,-17.556
13805,-14.311,-15.496
13816,-16.483,-15.523
13828,-14.707,-16.616
13840,-12.665,-15.734
13852,-13.087,-16.87
13863,-14.482,-16.496
13875,-16.329,-14.596
13887,-15.665,-14.787
13898,-15.611,-16.426
13910,-13.253,-16.631
13922,-10.999,-17.644
13934,-13.661,-18.315
13945,-14.403,-14.992
13957,-13.876,-16.287
13969,-12.883,-15.573
13980,-13.117,-14.596
13992,-15.889,-16.785
14004,-16.991,-17.599
14016,-17.714,-13.252
14027,-18.267,-12.399
14039,-20.275,-15.291
14051,-14.205,-14.642
14063,-13.657,-15.135
14074,-14.305,-18.913
14086,-13.58,-19.097
14098,-14.815,-14.999
14109,-12.609,-14.958
14121,-12.692,-16.515
14133,-13.473,-18.81
14145,-15.929,-18.908
14156,-14.254,-17.632
14168,-14.35,-18.661
14180,-14.975,-18.676
14191,-14.372,-20.112
14203,-14.889,-17.323
14215,-14.803,-15.517
14227,-15.354,-14.986
14238,-17.718,-14.944
14250,-14.505,-19.906
14262,-15.941,-19.498
14273,-15.367,-16.118
14285,-13.082,-14.595
14297,-14.08,-15.542
14309,-15.622,-16.809
14320,-16.785,-16.518
14332,-14.628,-14.676
14344,-14.926,-13.809
14355,-18.39,-15.765
14367,-19.754,-17.921
14379,-18.472,-20.224
14391,-17.164,-19.704
14402,-13.936,-16.961
14414,-13.265,-16.141
14426,-16.835,-17.872
14438,-18.089,-17.933
14449,-16.541,-18.13
14461,-16.58,-17.147
14473,-18.075,-19.169
14484,-17.482,-16.914
14496,-17.198,-18.466
14508,-16.942,-17.115
14520,-14.702,-18.067
14531,-16.506,-19.374
14543,-17.491,-20.875
14555,-15.199,-17.536
14566,-15.402,-16.826
14578,-15.045,-17.551
14590,-16.273,-20.558
14602,-17.739,-20.304
14613,-18.906,-18.008
14625,-17.867,-15.993
14637,-16.825,-15.691
14648,-18.064,-15.246
14660,-20.068,-17.697
14672,-16.026,-16.33
14684,-16.021,-16.247
14695,-17.801,-20.897
14707,-17.176,-23.771
14719,-14.809,-19.01
14730,-16.683,-19.593
14742,-17.189,-21.3
14754,-20.153,-18.087
14766,-18.465,-14.89
14777,-17.663,-15.353
14789,-19.524,-17.907
14801,-18.147,-17.824
14813,-15.297,-18.516
14824,-16.688,-21.837
14836,-19.334,-17.668
14848,-15.675,-17.273
14859,-16.071,-20.951
14871,-18.615,-23.263
14883,-19.306,-20.108
14895,-20.587,-16.598
14906,-19.565,-18.14
14918,-18.441,-18.216
14930,-15.056,-21.037
14941,-16.164,-17.628
14953,-16.306,-16.663
14965,-15.288,-16.737
14977,-16.069,-18.649
14988,-17.513,-17.689
15000,-16.899,-18.362
15012,-18.84,-21.593
15023,-18.112,-20.247
15035,-16.188,-20.743
15047,-16.404,-19.489
15059,-16.696,-19.644
15070,-17.258,-18.811
15082,-17.49,-18.675
15094,-18.055,-15.274
15105,-17.33,-14.822
15117,-15.983,-16.129
15129,-20.028,-17.732
15141,-19.861,-16.674
15152,-19.326,-16.124
15164,-18.465,-17.054
15176,-22.743,-16.076
15188,-20.398,-16.2
15199,-18.492,-17.772
15211,-21.427,-19.262
15223,-18.846,-21.495
15234,-18.545,-19.287
15246,-18.769,-19.706
15258,-17.214,-19.279
15270,-17.664,-16.588
15281,-16.03,-17.3
15293,-15.836,-17.584
15305,-17.19,-18.607
15316,-20.108,-19.534
15328,-20.202,-16.143
15340,-19.498,-18.782
15352,-19.797,-22.009
15363,-18.109,-19.331
15375,-17.458,-17.253
15387,-17.965,-17.311
15398,-19.842,-17.483
15410,-17.051,-19.596
15422,-16.138,-19.985
15434,-18.936,-22.607
15445,-18.593,-19.359
15457,-18.503,-18.647
15469,-19.759,-18.041
15480,-20.337,-17.488
15492,-19.472,-19.676
15504,-21.428,-19.875
15516,-16.074,-17.451
15527,-16.694,-18.316
15539,-19.961,-19.919
15551,-18.305,-18.612
15563,-17.083,-19.945
15574,-17.034,-17.851
15586,-16.938,-17.544
15598,-17.294,-19.436
15609,-17.671,-18.648
15621,-17.601,-18.798
15633,-15.988,-17.375
15645,-16.713,-17.078
15656,-17.739,-19.541
15668,-18.681,-19.396
15680,-20.582,-21.809
15691,-20.967,-19.137
15703,-20.151,-18.973
15715,-20.48,-20.183
15727,-22.686,-21.212
15738,-20.833,-19.946
15750,-18.333,-18.718
15762,-19.564,-18.502
15773,-20.432,-20.517
15785,-20.456,-17.136
15797,-20.013,-18.344
15809,-19.666,-17.668
15820,-19.097,-17.704
15832,-18.625,-19.125
15844,-18.534,-20.005
15855,-19.332,-20.295
15867,-21.517,-18.342
15879,-23.085,-18.054
15891,-22.09,-18.951
15902,-19.734,-20.537
15914,-19.774,-21.771
15926,-22.373,-20.82
15938,-18.866,-21.249
15949,-19.253,-19.884
15961,-22.608,-20.293
15973,-22.634,-20.132
15984,-18.861,-20.974
15996,-15.735,-22.765
16008,-17.113,-20.032
16020,-19.736,-19.942
16031,-20.976,-20.211
16043,-20.286,-20.827
16055,-20.82,-21.202
16066,-20.165,-17.622
16078,-17.79,-18.674
16090,-16.148,-21.314
16102,-20.404,-21.965
16113,-20.539,-19.134
16125,-22.52,-18.19
16137,-21.665,-19.7
16148,-18.199,-20.437
16160,-17.717,-21.59
16172,-19.092,-24.076
16184,-18.788,-24.792
16195,-18.022,-20.995
16207,-18.995,-19.699
16219,-21.703,-18.852
16230,-19.791,-19.648
16242,-20.278,-21.555
16254,-22.979,-22.38
16266,-22.062,-18.59
16277,-19.16,-17.787
16289,-20.724,-20.252
16301,-20.927,-19.752
16313,-19.65,-19.17
16324,-20.034,-19.239
16336,-22.522,-19.35
16348,-19.649,-23.002
16359,-18.113,-24.327
16371,-18.931,-23.923
16383,-20.524,-23.135
16395,-20.347,-22.346
16406,-19.588,-22
16418,-21.162,-23.741
16430,-21.01,-20.138
16441,-20.974,-19.883
16453,-20.613,-19.377
16465,-19.936,-20.193
16477,-20.778,-20.779
16488,-20.698,-20.935
16500,-22.554,-19.515
16512,-23.699,-18.416
16523,-23.233,-21.599
16535,-21.631,-23.676
16547,-19.361,-23.798
16559,-19.766,-20.8
16570,-22.395,-19.209
16582,-21.288,-20.736
16594,-19.864,-22.15
16605,-20.436,-23.672
16617,-22.432,-21.31
16629,-19.952,-21.239
16641,-18.653,-19.678
16652,-21.057,-20.636
16664,-23.058,-21.567
16676,-23.572,-20.955
16688,-19.908,-22.158
16699,-20.871,-19.109
16711,-19.545,-21.427
16723,-20.719,-22.743
16734,-22.937,-21.205
16746,-21.679,-21.079
16758,-22.18,-23.612
16770,-21.456,-22.41
16781,-20.416,-21.99
16793,-19.254,-25.717
16805,-19.195,-21.152
16816,-21.742,-19.325
16828,-23.667,-19.33
16840,-20.643,-21.886
16852,-20.786,-22.653
16863,-20.616,-21.726
16875,-20.641,-22.233
16887,-23.05,-22.068
16898,-22.301,-22.251
16910,-20.529,-22.676
16922,-19.279,-22.371
16934,-20.936,-21.471
16945,-19.826,-18.397
16957,-16.053,-20.025
16969,-18.307,-22.233
16980,-22.991,-21.944
16992,-20.827,-21.858
17004,-19.897,-22.26
17016,-21.81,-22.557
17027,-19.108,-22.438
17039,-19.05,-21.099
17051,-17.48,-19.236
17063,-18.364,-18.099
17074,-18.67,-19.172
17086,-19.233,-22.316
17098,-18.653,-21.946
17109,-18.222,-21.763
17121,-21.727,-20.116
17133,-23.432,-20.518
17145,-23.113,-21.356
17156,-24.972,-23.711
17168,-23.664,-23.125
17180,-22.138,-23.474
17191,-19.83,-24.247
17203,-20.219,-22.976
17215,-21.3,-22.503
17227,-21.652,-23.987
17238,-24.092,-27.226
17250,-22.927,-23.167
17262,-20.909,-20.867
17273,-19.271,-17.899
17285,-21.028,-17.404
17297,-21.531,-20.956
17309,-20.609,-22.375
17320,-21.215,-27.194
17332,-23.933,-26.468
17344,-23.466,-22.151
17355,-23.589,-20.994
17367,-21.649,-23.782
17379,-20.199,-24.224
17391,-21.17,-23.627
17402,-23.107,-19.425
17414,-23.31,-22.009
17426,-23.434,-22.554
17438,-22.972,-23.272
17449,-22.922,-23.697
17461,-21.035,-26.547
17473,-23.305,-24.602
17484,-23.76,-22.094
17496,-23.573,-22.418
17508,-21.262,-22.913
17520,-22.203,-22.909
17531,-24.176,-22.6
17543,-22.722,-25.097
17555,-23.507,-23.3
17566,-23.562,-23.108
17578,-19.547,-22.842
17590,-22.492,-20.622
17602,-19.547,-20.298
17613,-21.152,-20.926
17625,-21.216,-22.229
17637,-20.44,-25.5
17648,-22.127,-24.866
17660,-18.054,-21.89
17672,-20.833,-21.098
17684,-23.019,-23.526
17695,-18.896,-23.689
17707,-18.473,-27.111
17719,-17.884,-26.264
17730,-19.604,-20.67
17742,-20.662,-19.222
17754,-19.893,-23.809
17766,-18.405,-22.245
17777,-17.79,-22.439
17789,-20.121,-22.475
17801,-23.341,-25.546
17813,-23.221,-24.151
17824,-21.294,-21.728
17836,-19.111,-21.78
17848,-20.741,-24.005
17859,-19.347,-23.804
17871,-20.311,-21.705
17883,-22.915,-19.162
17895,-22.899,-21.233
17906,-23.019,-23.61
17918,-21.244,-23.277
17930,-20.98,-22.62
17941,-21.758,-22.917
17953,-23.26,-26.126
17965,-23.748,-24.476
17977,-19.67,-23.204
17988,-20.404,-25.385
18000,-26.535,-23.59
18012,-25.912,-22.385
18023,-24.173,-23.201
18035,-23.086,-26.328
18047,-26.002,-22.748
18059,-25.139,-21.631
18070,-21.031,-22.508
18082,-22.265,-25.25
18094,-20.571,-24.333
18105,-19.775,-24.511
18117,-22.615,-22.407
18129,-23.963,-25.626
18141,-24.346,-25.632
18152,-25.771,-22.376
18164,-24.516,-23.96
18176,-22.626,-26.14
18188,-21.374,-23.905
18199,-21.011,-23.855
18211,-21.235,-25.485
18223,-20.069,-23.409
18234,-23.355,-25.385
18246,-21.984,-24.012
18258,-21.77,-24.452
18270,-21.669,-22.584
18281,-20.747,-20.952
18293,-22.898,-22.601
18305,-25.038,-25.8
18316,-22.385,-26.36
18328,-23.117,-24.475
18340,-24.576,-23.941
18352,-25.887,-19.304
18363,-24.595,-21.213
18375,-25.355,-22.165
18387,-24.481,-22.184
18398,-21.291,-20.737
18410,-22.251,-25.183
18422,-23.479,-24.677
18434,-24.515,-23.924
18445,-22.202,-22.459
18457,-19.153,-23.819
18469,-21.403,-26.33
18480,-23.888,-24.055
18492,-21.829,-22.432
18504,-20.002,-23.575
18516,-21.444,-27.57
18527,-21.932,-26.551
18539,-23.892,-26.211
18551,-23.669,-28.775
18563,-22.82,-26.584
18574,-24.596,-25.881
18586,-25.062,-22.83
18598,-20.565,-23.317
18609,-21.393,-25.988
18621,-24.661,-24.843
18633,-26.223,-23.243
18645,-26.335,-23.54
18656,-24.674,-25.217
18668,-23.621,-23.434
18680,-26.196,-24.258
18691,-22.354,-24.435
18703,-26.092,-25.621
18715,-25.089,-25.417
18727,-24.662,-26.327
18738,-23.2,-26.225
18750,-23.113,-21.943
18762,-25.871,-22.932
18773,-25.295,-24.573
18785,-26.791,-20.887
18797,-25.276,-23.86
18809,-23.844,-25.559
18820,-24.403,-24.52
18832,-23.666,-25.785
18844,-22.402,-25.003
18855,-23.315,-24.547
18867,-23.301,-23.324
18879,-26.329,-24.737
18891,-25.846,-26.691
18902,-27.463,-26.154
18914,-25.708,-25.002
18926,-22.156,-24.516
18938,-21.663,-24.312
18949,-25.216,-23.063
18961,-24.715,-23.175
18973,-24.858,-23.924
18984,-22.787,-24.415
18996,-22.294,-19.239
19008,-25.316,-23.864
19020,-26.316,-25.511
19031,-26.175,-23.898
19043,-23.026,-25.316
19055,-22.382,-26.444
19066,-24.883,-26.897
19078,-24.382,-25.939
19090,-22.651,-25.186
19102,-23.277,-27.194
19113,-25.643,-25.574
19125,-27.541,-24.828
19137,-23.288,-23.723
19148,-21.64,-24.312
19160,-23.291,-25.266
19172,-24.648,-25.057
19184,-26.718,-23.336
19195,-27.747,-23.573
19207,-23.082,-23.267
19219,-26.201,-23.412
19230,-26.435,-22.635
19242,-25.496,-23.263
19254,-26.302,-22.472
19266,-22.474,-24.894
19277,-20.942,-28.337
19289,-24.511,-28.403
19301,-23.611,-23.403
19313,-25.731,-20.814
19324,-28.128,-22.938
19336,-25.346,-23.547
19348,-21.478,-25.53
19359,-21,-24.469
19371,-22.079,-22.951
19383,-24.38,-25.356
19395,-23.83,-26.944
19406,-23.631,-24.699
19418,-23.414,-22.477
19430,-25.922,-24.46
19441,-27.802,-26.962
19453,-27.977,-24.256
19465,-26.772,-24.049
19477,-25.778,-24.871
19488,-26.433,-24.567
19500,-26.535,-23.109
19512,-25.84,-26.252
19523,-26.047,-27.474
19535,-27.22,-26.552
19547,-28.565,-22.759
19559,-27.699,-24.04
19570,-24.668,-26.032
19582,-24.405,-23.692
19594,-20.686,-24.134
19605,-21.395,-24.402
19617,-23.367,-24.827
19629,-21.946,-23.072
19641,-20.806,-28.638
19652,-22.062,-26.631
19664,-24.723,-25.183
19676,-24.546,-24.008
19688,-24.047,-24.383
19699,-24.634,-26.691
19711,-24.457,-27.461
19723,-22.818,-26.523
19734,-23.453,-27.115
19746,-24.806,-27.361
19758,-24.541,-26.627
19770,-24.17,-27.69
19781,-23.83,-28.265
19793,-23.41,-26.491
19805,-23.884,-25.595
19816,-24.8,-25.94
19828,-25.585,-25.141
19840,-26.221,-24.274
19852,-24.083,-24.418
19863,-24.097,-27.463
19875,-23.431,-23.393
19887,-24.996,-23.251
19898,-22.449,-26.537
19910,-21.322,-27.503
19922,-24.044,-24.18
19934,-25.402,-25.661
19945,-24.548,-28.196
19957,-25.064,-28.284
19969,-27.103,-28.298
19980,-24.423,-26.338
19992,-22.436,-24.615
20004,-20.868,-24.408
20016,-22.624,-26.923
20027,-25.668,-26.313
20039,-29.519,-24.64
20051,-24.262,-23.856
20063,-23.544,-24.365
20074,-23.849,-25.361
20086,-23.296,-24.161
20098,-24.075,-23.693
20109,-24.506,-26.297
20121,-26.973,-25.368
20133,-26.029,-26.819
20145,-25.718,-27.378
20156,-23.788,-26.088
20168,-25.148,-24.327
20180,-25.194,-24.655
20191,-23.026,-25.539
20203,-24.022,-21.684
20215,-24.535,-23.602
20227,-21.601,-26.332
20238,-22.717,-27.142
20250,-28.747,-26.607
20262,-30.389,-24.654
20273,-25.122,-24.765
20285,-22.945,-24.197
20297,-24.073,-23.6
20309,-26.049,-24.243
20320,-29.422,-25.874
20332,-26.546,-26.444
20344,-23.478,-21.516
20355,-26.682,-23.703
20367,-27.924,-26.584
20379,-24.118,-25.406
20391,-26.195,-26.413
20402,-27.273,-27.613
20414,-30.869,-28.411
20426,-27.882,-25.849
20438,-24.542,-24.031
20449,-25.745,-24.604
20461,-23.879,-24.727
20473,-24.542,-24.274
20484,-27.044,-26.871
20496,-25.894,-30.237
20508,-26.13,-27.706
20520,-26.191,-25.856
20531,-26.165,-27.531
20543,-26.712,-31.765
20555,-24.734,-30.911
20566,-22.449,-27.268
20578,-23.847,-24.873
20590,-26.033,-28.561
20602,-27.495,-26.425
20613,-26.548,-26.792
20625,-26.006,-26.372
20637,-24.388,-26.374
20648,-22.795,-26.912
20660,-24.573,-27.366
20672,-26.425,-27.45
20684,-26.371,-24.164
20695,-26.546,-23.483
20707,-27.345,-26.533
20719,-29.825,-26.875
20730,-25.45,-28.551
20742,-24.83,-28.35
20754,-23.515,-28.708
20766,-23.647,-26.561
20777,-27.6,-26.692
20789,-27.268,-22.976
20801,-26.188,-25.582
20813,-25.875,-28.765
20824,-28.462,-28.612
20836,-32.242,-26.703
20848,-29.951,-27.49
20859,-27.179,-26.288
20871,-29.22,-27.538
20883,-26.309,-29.531
20895,-26.493,-27.417
20906,-26.869,-27.344
20918,-25.913,-25.639
20930,-22.125,-26.397
20941,-21.262,-26.302
20953,-23.863,-25.38
20965,-28.538,-23.951
20977,-27.303,-26.744
20988,-26.614,-26.488
21000,-25.418,-23.146
21012,-27.783,-25.701
21023,-29.968,-31.121
21035,-28.618,-27.703
21047,-26.831,-25.548
21059,-24.647,-25.405
21070,-24.489,-24.702
21082,-24.152,-23.845
21094,-24.363,-24.003
21105,-25.334,-25.501
21117,-25.229,-27.439
21129,-25.725,-25.288
21141,-29.28,-27.307
21152,-27.487,-31.298
21164,-25.609,-26.445
21176,-24.754,-27.163
21188,-22.048,-31.271
21199,-24.311,-29.118
21211,-25.949,-24.861
21223,-24.396,-23.928
21234,-27.625,-26.451
21246,-24.817,-27.867
21258,-25.422,-26.374
21270,-26.988,-26.369
21281,-25.384,-28.489
21293,-27.176,-27.057
21305,-28.465,-24.595
21316,-28.707,-26.961
21328,-27.923,-29.296
21340,-24.502,-24.874
21352,-23.243,-26.557
21363,-25.924,-30.02
21375,-29.271,-28.535
21387,-30.441,-28.06
21398,-26.473,-28.003
21410,-24.884,-26.594
21422,-26.221,-24.812
21434,-26.757,-24.705
21445,-26.103,-25.598
21457,-25.598,-28.206
21469,-24.788,-28.896
21480,-24.015,-26.479
21492,-23.817,-25.168
21504,-26.928,-27.245
21516,-30.007,-27.803
21527,-28.472,-27.757
21539,-27.945,-28.512
21551,-26.639,-27.861
21563,-25.209,-28.414
21574,-26.753,-28.066
21586,-24.581,-27.979
21598,-24.152,-28.426
21609,-24.883,-27.343
21621,-26.056,-26.086
21633,-27.021,-27.646
21645,-25.605,-29.896
21656,-27.264,-26.007
21668,-28.257,-25.96
21680,-28.441,-29.568
21691,-29.272,-27.958
21703,-26.118,-27.38
21715,-26.263,-27.29
21727,-27.032,-26.316
21738,-29.817,-26.732
21750,-28.781,-28.298
21762,-28.148,-28.57
21773,-24.973,-27.198
21785,-27.821,-27.75
21797,-26.7,-26.381
21809,-24.886,-26.511
21820,-26.632,-30.214
21832,-28.451,-26.784
21844,-28.058,-24.208
21855,-26.648,-24.058
21867,-27.354,-26.16
21879,-27.176,-26.389
21891,-27.079,-27.519
21902,-26.38,-30.145
21914,-28.981,-28.081
21926,-26.624,-29.66
21938,-25.34,-26.011
21949,-25.395,-25.692
21961,-27.261,-25.114
21973,-27.41,-26.943
21984,-28.626,-30.086
21996,-30.165,-27.661
22008,-30.046,-24.19
22020,-26.818,-24.936
22031,-25.911,-26.759
22043,-29.145,-28.52
22055,-28.421,-27.377
22066,-25.528,-26.884
22078,-28.164,-26.884
22090,-27.544,-26.762
22102,-29.827,-26.827
22113,-28.316,-28.377
22125,-25.467,-28.292
22137,-26.499,-30.718
22148,-25.314,-31.154
22160,-25.781,-27.732
22172,-22.675,-27.243
22184,-24.329,-27.988
22195,-27.171,-27.565
22207,-26.387,-27.318
22219,-26.253,-28.092
22230,-27.967,-27.151
22242,-28.329,-28.096
22254,-28.099,-27.205
22266,-26.327,-28.908
22277,-26.274,-29.954
22289,-26.635,-30.076
22301,-26.694,-26.896
22313,-27.763,-24.187
22324,-28.071,-25.333
22336,-28.899,-29.134
22348,-30.585,-29.24
22359,-30.323,-26.212
22371,-25.893,-25.744
22383,-27.966,-25.658
22395,-29.982,-25.183
22406,-26.308,-24.755
22418,-26.486,-26.951
22430,-27.627,-26.508
22441,-30.202,-27.276
22453,-26.577,-28.811
22465,-24.391,-25.634
22477,-26.108,-27.871
22488,-27.572,-26.92
22500,-28.841,-27.137
22512,-28.66,-28.013
22523,-27.233,-30.984
22535,-25.236,-26.192
22547,-26.332,-24.329
22559,-27.948,-26.445
22570,-26.609,-28.392
22582,-28.545,-29.455
22594,-28.937,-31.938
22605,-29.136,-30.196
22617,-28.661,-33.132
22629,-26.279,-29.52
22641,-27.549,-26.738
22652,-27.856,-29.026
22664,-28.462,-29.171
22676,-27.036,-33.191
22688,-26.811,-26.411
22699,-28.373,-25.838
22711,-24.792,-25.381
22723,-24.672,-25.838
22734,-27.58,-28.259
22746,-29.28,-27.115
22758,-27.527,-27.812
22770,-25.306,-27.171
22781,-26.238,-27.735
22793,-27.027,-25.788
22805,-23.856,-26.265
22816,-25.953,-27.861
22828,-27.878,-28.844
22840,-27.485,-28.709
22852,-28.376,-29.077
22863,-27.072,-27.468
22875,-25.748,-27.579
22887,-26.242,-29.652
22898,-26.308,-28.421
22910,-24.008,-28.174
22922,-24.068,-27.455
22934,-28.51,-26.525
22945,-29.447,-27.8
22957,-28.722,-29.361
22969,-26.622,-27.951
22980,-25.813,-27.446
22992,-30.915,-27.815
23004,-28.995,-29.223
23016,-26.921,-29.65
23027,-27.527,-28.342
23039,-31.047,-26.765
23051,-32.447,-29.535
23063,-28.876,-31.65
23074,-26.986,-28.732
23086,-27.862,-27.024
23098,-29.467,-27.324
23109,-27.289,-28.445
23121,-24.458,-27.438
23133,-25.999,-26.132
23145,-29.104,-28.161
23156,-30.027,-25.864
23168,-27.643,-27.716
23180,-26.108,-28.578
23191,-26.28,-28.938
23203,-26.362,-29.445
23215,-26.519,-26.77
23227,-29.804,-26.01
23238,-31.093,-28.214
23250,-29.812,-30.334
23262,-27.163,-28.671
23273,-27.245,-27.518
23285,-29.689,-27.946
23297,-27.991,-28.36
23309,-28.976,-27.573
23320,-28.456,-27.914
23332,-29.013,-28.683
23344,-28.798,-28.968
23355,-26.788,-28.005
23367,-25.073,-26.275
23379,-26.934,-29.126
23391,-30.555,-28.482
23402,-28.206,-28.039
23414,-25.632,-28.976
23426,-26.571,-30.71
23438,-28.901,-31.529
23449,-28.485,-27.177
23461,-29.012,-25.462
23473,-31.43,-29.286
23484,-28.897,-29.578
23496,-28.121,-27.746
23508,-29.722,-28.086
23520,-30.211,-30.412
23531,-27.373,-25.803
23543,-27.415,-25.578
23555,-27.148,-29.243
23566,-30.151,-27.997
23578,-28.751,-29.019
23590,-30.52,-29.667
23602,-30.885,-32.559
23613,-27.777,-32.047
23625,-27.208,-29.483
23637,-27.657,-30.201
23648,-27.677,-27.531
23660,-28.006,-28.253
23672,-28.396,-29.303
23684,-26.383,-27.927
23695,-28.021,-27.476
23707,-29.947,-28.59
23719,-29.073,-31.268
23730,-28.311,-33.089
23742,-27.946,-29.156
23754,-26.511,-25.851
23766,-26.212,-27.156
23777,-27.097,-30.753
23789,-29.311,-29.279
23801,-29.714,-28.003
23813,-29.864,-27.278
23824,-27.94,-29.186
23836,-28.465,-29.642
23848,-29.532,-26.71
23859,-28.968,-26.603
23871,-27.75,-27.928
23883,-27.778,-31.126
23895,-26.565,-28.89
23906,-26.567,-29.533
23918,-29.557,-30.282
23930,-28.102,-30.828
23941,-26.616,-32.8
23953,-27.829,-29.609
23965,-27.169,-29.912
23977,-27.348,-32.147
23988,-29.203,-31.322
