FFT,Power Spectrum
Frequency[Hz],Level-L[dB],Level-R[dB]
11.719,-25.211,-27.942
23.438,-5.0661,-7.9428
35.156,-0.69343,-1.0237
46.875,7.2034,4.4937
58.594,7.369,5.1109
70.313,5.5465,7.1768
82.031,6.1761,7.3951
93.75,7.8489,8.4912
105.47,7.9142,9.7291
117.19,7.7298,6.6038
128.91,11.839,10.939
140.63,13.998,13.282
152.34,12.038,9.3605
164.06,9.7371,7.5864
175.78,9.2973,5.6611
187.5,10.517,5.4444
199.22,11.162,8.1087
210.94,10.253,10.54
222.66,9.169,9.3466
234.38,9.1001,7.8692
246.09,9.2348,6.337
257.81,12.859,11.265
269.53,10.554,9.7375
281.25,9.3545,7.6979
292.97,11.911,9.1613
304.69,11.35,9.0832
316.41,8.2022,7.9918
328.13,7.4958,5.92
339.84,9.4437,7.2133
351.56,13.678,8.1515
363.28,15.941,9.109
375,13.427,7.6869
386.72,8.4903,6.6291
398.44,9.0476,9.5992
410.16,13.265,12.79
421.88,13.984,13.222
433.59,15.339,12.998
445.31,14.987,11.984
457.03,13.84,11.058
468.75,11.474,11.707
480.47,10.003,13.648
492.19,9.0042,13.151
503.91,9.6525,10.439
515.63,9.9285,6.7056
527.34,12.643,7.5086
539.06,11.799,8.2199
550.78,12.834,9.4317
562.5,13.421,10.051
574.22,12.719,9.9881
585.94,10.006,8.6912
597.66,7.7713,7.9061
609.38,7.377,6.7379
621.09,7.8561,8.0813
632.81,7.7706,7.4901
644.53,4.8751,5.3635
656.25,6.0846,3.1585
667.97,7.6674,5.6346
679.69,5.2648,8.1851
691.41,6.4156,9.8413
703.13,5.0253,7.2309
714.84,8.5481,6.8897
726.56,11.405,8.0498
738.28,11.836,10.138
750,12.267,9.5672
761.72,11.925,3.852
773.44,8.9273,8.0999
785.16,8.0546,9.3105
796.88,6.1338,5.0579
808.59,7.656,3.1297
820.31,7.9273,7.4439
832.03,9.0188,6.2552
843.75,8.5776,6.759
855.47,9.887,9.3801
867.19,11.355,11.573
878.91,12.854,12.746
890.63,13.957,12.661
902.34,14.815,11.77
914.06,15.25,11.017
925.78,15.548,10.652
937.5,14.383,12.111
949.22,11.535,13.014
960.94,7.3874,12.183
972.66,10.13,9.0606
984.38,11.321,6.5576
996.09,11.573,6.7532
1007.8,12.73,7.6433
1019.5,12.13,6.5019
1031.3,9.9362,4.3646
1043,8.5962,3.6154
1054.7,8.5191,5.1361
1066.4,9.7314,8.922
1078.1,11.313,7.7792
1089.8,12.272,6.338
1101.6,12.416,5.1573
1113.3,12.196,4.1588
1125,12.671,5.4585
1136.7,12.567,8.6029
1148.4,11.894,9.2705
1160.2,9.3612,11.631
1171.9,9.9843,12.135
1183.6,12.728,11.242
1195.3,14.039,8.9293
1207,13.635,6.9741
1218.8,12.418,6.9692
1230.5,9.5044,6.4101
1242.2,8.0261,3.9965
1253.9,7.6244,3.658
1265.6,8.5869,4.6817
1277.3,9.4978,5.9161
1289.1,9.1959,4.4056
1300.8,5.8573,6.0459
1312.5,5.4639,4.3619
1324.2,5.695,3.9676
1335.9,5.9321,2.7102
1347.7,4.2344,2.5681
1359.4,4.8051,1.4277
1371.1,9.8375,4.7032
1382.8,10.862,8.085
1394.5,10.224,8.0645
1406.3,9.5894,4.9087
1418,8.6614,3.579
1429.7,6.5916,2.1648
1441.4,5.8662,1.4866
1453.1,5.3449,2.8718
1464.8,7.0155,3.259
1476.6,9.3291,3.8535
1488.3,9.2581,7.2624
1500,6.186,6.0578
1511.7,4.4514,3.8582
1523.4,4.1084,7.4607
1535.2,4.7506,6.4527
1546.9,5.2616,4.2621
1558.6,8.8198,6.7062
1570.3,13.215,9.5834
1582,14.091,7.649
1593.8,14.799,6.1445
1605.5,15.048,4.8531
1617.2,14.267,4.8598
1628.9,13.65,5.7016
1640.6,11.341,4.8828
1652.3,7.9194,3.9266
1664.1,7.2308,1.9398
1675.8,8.3005,4.9562
1687.5,7.1243,7.5751
1699.2,5.709,7.2069
1710.9,4.0112,3.7081
1722.7,6.7811,5.8886
1734.4,7.8636,4.681
1746.1,1.6682,5.9738
1757.8,3.2205,5.1878
1769.5,4.7484,4.9663
1781.3,5.2206,4.2484
1793,7.3424,7.0952
1804.7,6.5114,7.5869
1816.4,2.8224,6.1417
1828.1,6.5491,3.5263
1839.8,8.8787,5.5977
1851.6,6.9774,7.1711
1863.3,2.8989,5.9965
1875,3.9831,4.3961
1886.7,6.7616,3.4001
1898.4,8.1275,3.7355
1910.2,9.4064,5.421
1921.9,7.1423,5.596
1933.6,5.8269,3.0639
1945.3,6.0555,3.5636
1957,3.8248,5.3778
1968.8,4.5187,5.2216
1980.5,5.3468,-0.055751
1992.2,6.2597,2.226
2003.9,5.349,2.4917
2015.6,3.6207,2.8871
2027.3,4.0239,3.2258
2039.1,1.5174,1.5808
2050.8,1.9702,3.0952
2062.5,2.4252,5.9776
2074.2,6.8803,6.0656
2085.9,7.3877,4.1568
2097.7,4.8956,4.4624
2109.4,4.2456,2.6973
2121.1,5.6667,0.21032
2132.8,6.7341,2.4521
2144.5,2.9186,2.7604
2156.3,3.968,1.6176
2168,5.603,2.0054
2179.7,3.004,1.6743
2191.4,3.8936,1.9527
2203.1,4.5126,-0.12046
2214.8,5.2801,1.6052
2226.6,6.7737,4.3223
2238.3,7.2242,2.5387
2250,6.037,0.21194
2261.7,4.3469,1.351
2273.4,0.16299,2.029
2285.2,1.2313,3.9701
2296.9,3.1754,2.5592
2308.6,6.6092,3.2568
2320.3,8.4044,4.2334
2332,8.6632,1.6093
2343.8,5.6874,0.407
2355.5,4.4708,3.2114
2367.2,2.5435,3.5679
2378.9,3.4552,3.6777
2390.6,5.8367,1.9545
2402.3,9.3688,2.0299
2414.1,8.6227,0.52811
2425.8,5.0048,1.4378
2437.5,2.3246,3.2926
2449.2,-0.27155,2.9644
2460.9,1.9845,-0.93669
2472.7,0.56423,3.1128
2484.4,-0.95936,4.6089
2496.1,0.65341,3.687
2507.8,0.87721,1.865
2519.5,3.0932,1.5594
2531.3,3.1233,2.939
2543,2.2987,2.6463
2554.7,3.9899,4.5989
2566.4,3.6839,3.8348
2578.1,2.5785,1.9828
2589.8,0.095535,3.721
2601.6,4.0263,2.4044
2613.3,-0.26506,1.7192
2625,-1.7687,3.0925
2636.7,1.095,-0.14474
2648.4,1.9259,1.7952
2660.2,2.3831,0.82621
2671.9,2.4511,1.3638
2683.6,2.1853,1.1628
2695.3,3.3319,1.3234
2707,4.18,2.8623
2718.8,4.9563,3.1464
2730.5,3.1559,1.1185
2742.2,1.6514,4.0329
2753.9,5.1522,6.2925
2765.6,7.0755,2.8061
2777.3,4.8502,2.845
2789.1,3.2735,2.9404
2800.8,1.3549,1.2985
2812.5,0.90938,0.78577
2824.2,0.8134,1.1491
2835.9,2.8781,1.6107
2847.7,2.1649,1.566
2859.4,2.4402,-0.86553
2871.1,3.8691,-2.3246
2882.8,3.6472,-1.4226
2894.5,-1.2819,-0.096627
2906.3,-2.1769,-1.1981
2918,2.69,1.1422
2929.7,2.2472,0.73342
2941.4,1.5798,1.1975
2953.1,2.1845,2.1915
2964.8,1.5149,0.59044
2976.6,2.3807,2.6563
2988.3,1.8307,3.0609
3000,1.2251,3.3319
3011.7,2.1833,2.3005
3023.4,0.37946,0.98546
3035.2,-1.5941,3.8817
3046.9,0.62496,3.458
3058.6,0.80423,0.80339
3070.3,2.48,-0.70185
3082,0.96504,-0.055818
3093.8,-1.651,-0.5969
3105.5,1.5003,-0.080169
3117.2,1.2933,-0.36278
3128.9,-0.89368,0.66522
3140.6,4.4178,0.26479
3152.3,2.1257,2.4933
3164.1,6.5059,0.29466
3175.8,0.23176,-0.45019
3187.5,3.4252,1.3172
3199.2,3.4345,-0.68889
3210.9,2.8879,2.1922
3222.7,1.5978,3.8974
3234.4,4.0801,3.6813
3246.1,4.6169,1.6968
3257.8,3.5249,0.96764
3269.5,1.398,0.033339
3281.3,0.79774,-1.8051
3293,4.0815,1.2021
3304.7,0.19656,-0.43934
3316.4,-0.86068,1.4272
3328.1,0.73017,-0.96471
3339.8,-0.32387,-1.2184
3351.6,2.0807,-0.072168
3363.3,0.38923,-3.5074
3375,0.51242,0.1724
3386.7,-0.63122,0.1697
3398.4,-1.3802,0.50401
3410.2,-2.6701,-2.7946
3421.9,-0.57298,-1.5767
3433.6,1.6854,-1.7855
3445.3,-1.3037,-1.6576
3457,-1.6914,-1.3139
3468.8,-4.922,0.50135
3480.5,-0.93275,2.0499
3492.2,-0.31112,0.74841
3503.9,-1.0988,0.42582
3515.6,0.19938,-0.70321
3527.3,1.6327,-3.3512
3539.1,1.387,0.30913
3550.8,-0.33963,3.0333
3562.5,-1.9092,0.99986
3574.2,-1.8674,0.83469
3585.9,-1.4647,0.81018
3597.7,-3.0904,0.90812
3609.4,-4.2578,3.2433
3621.1,-1.8787,2.0702
3632.8,-3.5367,-0.77555
3644.5,-1.3492,-2.3166
3656.3,-0.58918,-0.15965
3668,2.2003,-3.2599
3679.7,3.2404,-1.2641
3691.4,-0.097799,-1.8856
3703.1,-2.004,-2.5302
3714.8,-1.3203,-2.009
3726.6,0.031782,0.18948
3738.3,0.26518,0.91415
3750,-2.2762,1.8071
3761.7,-1.0753,0.30814
3773.4,-4.0049,-0.44708
3785.2,-1.9102,-0.34276
3796.9,-1.8393,0.12737
3808.6,-3.5145,0.23415
3820.3,-2.5079,-1.0166
3832,0.091771,-1.8507
3843.8,0.34198,0.029103
3855.5,-0.58224,1.394
3867.2,-0.51193,-0.41196
3878.9,-4.4952,-1.3609
3890.6,-4.0244,-2.5607
3902.3,-1.9847,-1.1808
3914.1,-1.1731,1.8294
3925.8,0.40904,0.48037
3937.5,0.3367,0.85525
3949.2,0.76359,-1.594
3960.9,0.73315,-1.4549
3972.7,-2.4329,-3.022
3984.4,-1.384,-5.1013
3996.1,1.0293,-4.4835
4007.8,-0.14528,-2.9527
4019.5,-1.2683,-1.1021
4031.3,-2.3054,-0.52204
4043,-1.8656,-0.042434
4054.7,-0.66544,-0.94973
4066.4,0.32728,-2.7922
4078.1,1.0424,-4.8497
4089.8,-1.2459,-2.0585
4101.6,-2.3747,0.63954
4113.3,1.3568,1.22
4125,3.5711,-0.028032
4136.7,3.5401,-0.97004
4148.4,-1.0115,-2.3441
4160.2,-2.5836,0.93767
4171.9,-3.8604,0.23473
4183.6,-2.0346,-3.6558
4195.3,-3.0771,-0.88888
4207,-0.4401,-1.9456
4218.8,-1.58,-3.1713
4230.5,-0.2021,-1.3929
4242.2,-2.0484,-2.2634
4253.9,-4.4705,-1.9535
4265.6,-5.7513,1.6208
4277.3,-3.9694,-0.34021
4289.1,-4.3986,-2.1663
4300.8,-7.3306,1.2728
4312.5,-5.2398,-2.9262
4324.2,-3.0376,-5.906
4335.9,-1.0388,-3.9867
4347.7,-1.3946,-3.4172
4359.4,-1.8316,-2.3757
4371.1,-3.9142,-2.4368
4382.8,-3.5862,-2.3512
4394.5,-2.9948,-0.046915
4406.3,-4.5104,0.91516
4418,-2.6499,-2.5691
4429.7,-2.6208,-4.3744
4441.4,-1.6904,-3.4388
4453.1,-1.9279,-3.6955
4464.8,-4.5238,-3.4697
4476.6,-5.7955,-1.8893
4488.3,-4.2571,-4.4957
4500,-2.1356,-1.9678
4511.7,-1.4547,-4.0493
4523.4,-0.99452,-4.3928
4535.2,0.75128,-4.7402
4546.9,0.49968,-4.0935
4558.6,-3.4039,-4.7571
4570.3,-6.4258,-3.1495
4582,-0.72153,-1.9004
4593.8,0.39138,-1.7462
4605.5,0.68826,-2.0769
4617.2,-0.37263,-3.2637
4628.9,-4.5034,-4.1972
4640.6,-1.6609,-3.6831
4652.3,-3.5725,-2.9048
4664.1,-6.8107,-4.7523
4675.8,-4.0886,-6.1191
4687.5,-4.406,-5.185
4699.2,-3.5327,-7.0965
4710.9,-0.85162,-1.9125
4722.7,-0.92077,-1.1643
4734.4,0.31733,-5.0254
4746.1,0.15033,-3.5757
4757.8,-0.9959,-5.2839
4769.5,-1.6166,-6.3539
4781.3,-4.5791,-4.6312
4793,-2.9062,-4.2589
4804.7,-2.6622,-6.7664
4816.4,-5.8493,-4.5466
4828.1,-5.5319,-5.8039
4839.8,-5.6949,-2.3518
4851.6,-4.1758,-1.129
4863.3,-8.0282,-3.8651
4875,-6.1744,-4.2735
4886.7,-3.1102,-0.65985
4898.4,-2.1204,-0.20901
4910.2,-3.1608,-1.1597
4921.9,-3.3471,-0.4263
4933.6,-3.6123,-3.1911
4945.3,-3.2267,-5.0058
4957,-3.5364,-4.6339
4968.8,-3.9501,-6.1302
4980.5,-3.1853,-4.1051
4992.2,-9.5153,-1.0605
5003.9,-4.5692,-1.7358
5015.6,-3.5914,-4.1884
5027.3,-3.579,-6.002
5039.1,-2.2275,-4.3657
5050.8,-3.3248,-4.6891
5062.5,-4.9408,-4.0536
5074.2,-3.1121,-4.1692
5085.9,-3.9359,-4.0964
5097.7,-5.4215,-5.2317
5109.4,-3.1075,-8.2031
5121.1,-1.0168,-5.7513
5132.8,-1.7134,-6.1774
5144.5,-3.1607,-5.8299
5156.3,-3.7297,-3.827
5168,-4.2187,-5.051
5179.7,-4.9506,-5.0872
5191.4,-5.023,-6.1987
5203.1,-5.0251,-5.8574
5214.8,-3.5986,-2.4095
5226.6,-3.4906,-3.8233
5238.3,-4.996,-4.3725
5250,-1.8195,-4.9613
5261.7,-4.269,-5.1908
5273.4,-3.5958,-4.7615
5285.2,-3.2312,-6.3645
5296.9,-3.2574,-4.8552
5308.6,-6.0905,-3.8296
5320.3,-7.6312,-6.6479
5332,-3.5576,-4.8946
5343.8,-3.5528,-5.152
5355.5,-3.7446,-7.1799
5367.2,-3.4142,-4.3221
5378.9,-1.901,-3.3787
5390.6,-4.0144,-5.7777
5402.3,-4.9559,-7.7721
5414.1,-5.6396,-5.7678
5425.8,-5.4462,-3.7632
5437.5,-1.7266,-5.666
5449.2,-5.3358,-5.6083
5460.9,-5.336,-7.5621
5472.7,-2.5359,-7.0414
5484.4,-5.192,-3.5842
5496.1,-6.9718,-3.089
5507.8,-4.4586,-3.6556
5519.5,-3.4243,-3.5055
5531.3,-4.5342,-1.0847
5543,-7.5351,-2.5305
5554.7,-2.8362,-4.4265
5566.4,-6.8359,-3.1499
5578.1,-8.0006,-4.6515
5589.8,-6.6491,-4.7513
5601.6,-5.7424,-4.3095
5613.3,-4.4157,-4.2747
5625,-5.9356,-4.2055
5636.7,-7.0298,-4.9837
5648.4,-5.4939,-4.5494
5660.2,-2.149,-4.7956
5671.9,-2.3868,-3.6769
5683.6,-7.6173,-3.3716
5695.3,-4.1465,-5.923
5707,-3.9276,-5.4337
5718.8,-4.8172,-4.2161
5730.5,-4.5312,-6.9252
5742.2,-4.4422,-6.3096
5753.9,-7.9473,-7.147
5765.6,-4.9046,-4.512
5777.3,-4.5205,-1.8621
5789.1,-3.9416,-3.7122
5800.8,-3.323,-6.2121
5812.5,-7.4729,-3.6739
5824.2,-6.6911,-6.3378
5835.9,-2.4972,-6.9638
5847.7,-3.0612,-6.5386
5859.4,-4.0185,-6.5325
5871.1,-8.154,-8.1399
5882.8,-6.6483,-5.1434
5894.5,-4.0571,-4.3584
5906.3,-2.7044,-6.5397
5918,-3.7857,-4.7465
5929.7,-3.8998,-3.5057
5941.4,-9.5072,-3.6734
5953.1,-8.9414,-3.475
5964.8,-7.9762,-2.273
5976.6,-7.9744,-6.1496
5988.3,-7.2085,-4.7876
6000,-5.7376,-2.303
6011.7,-6.7608,-4.941
6023.4,-6.9999,-7.9716
6035.2,-6.3605,-5.3413
6046.9,-1.8303,-5.6487
6058.6,-2.0323,-9.1813
6070.3,-4.4713,-4.2999
6082,-8.7793,-5.5122
6093.8,-8.215,-5.1481
6105.5,-5.8058,-4.7045
6117.2,-4.3394,-8.4412
6128.9,-6.2247,-8.9005
6140.6,-7.0452,-7.926
6152.3,-5.6901,-7.3954
6164.1,-4.935,-7.3311
6175.8,-4.8946,-4.6054
6187.5,-4.6914,-3.9753
6199.2,-4.4889,-4.584
6210.9,-4.3096,-6.0691
6222.7,-5.1226,-7.3868
6234.4,-5.9046,-8.0391
6246.1,-4.9057,-4.3946
6257.8,-5.4318,-3.1564
6269.5,-4.1698,-4.3616
6281.3,-5.1349,-6.283
6293,-7.5525,-9.6887
6304.7,-3.9911,-9.3668
6316.4,-6.0817,-7.2171
6328.1,-6.668,-6.5021
6339.8,-6.1146,-7.2155
6351.6,-5.708,-5.9059
6363.3,-4.746,-4.938
6375,-5.0837,-7.0705
6386.7,-3.8597,-6.869
6398.4,-4.752,-5.8269
6410.2,-5.4507,-7.6062
6421.9,-6.9052,-5.1873
6433.6,-7.3839,-5.5949
6445.3,-5.9398,-6.6642
6457,-4.4478,-8.8218
6468.8,-5.4917,-6.6913
6480.5,-6.4217,-4.0295
6492.2,-5.2344,-4.6015
6503.9,-6.0913,-4.4746
6515.6,-9.1541,-4.3587
6527.3,-6.3271,-4.9123
6539.1,-6.7416,-5.0249
6550.8,-4.9283,-6.9873
6562.5,-6.2333,-7.5426
6574.2,-5.684,-5.5608
6585.9,-7.787,-4.8063
6597.7,-7.0092,-7.3389
6609.4,-5.1719,-6.6645
6621.1,-5.9227,-8.5124
6632.8,-8.8761,-10.211
6644.5,-5.6592,-10.008
6656.3,-6.0729,-5.8341
6668,-6.462,-5.0637
6679.7,-8.2424,-8.5175
6691.4,-9.5515,-11.014
6703.1,-8.0382,-8.6371
6714.8,-6.9769,-8.2367
6726.6,-7.9823,-9.1721
6738.3,-6.953,-7.6557
6750,-5.9227,-4.6647
6761.7,-9.2483,-4.4473
6773.4,-7.9335,-5.7988
6785.2,-9.7721,-6.6122
6796.9,-4.8958,-7.3838
6808.6,-5.4202,-8.6807
6820.3,-5.4492,-5.0701
6832,-4.9709,-3.4233
6843.8,-4.8063,-3.5599
6855.5,-4.2254,-4.0001
6867.2,-5.7552,-6.185
6878.9,-8.2954,-9.0057
6890.6,-6.5766,-9.1019
6902.3,-6.6802,-8.9882
6914.1,-6.4667,-6.4965
6925.8,-6.2255,-5.8715
6937.5,-7.0979,-5.7467
6949.2,-7.3007,-5.9456
6960.9,-5.459,-5.5134
6972.7,-5.3158,-4.2424
6984.4,-5.8363,-6.4359
6996.1,-6.4921,-6.2696
7007.8,-4.7863,-5.5541
7019.5,-4.2308,-4.8254
7031.3,-4.8359,-5.4164
7043,-8.0596,-10.545
7054.7,-7.3093,-6.9009
7066.4,-5.8907,-8.2378
7078.1,-6.5939,-11.186
7089.8,-6.5987,-9.1584
7101.6,-7.2174,-4.2171
7113.3,-4.014,-6.2732
7125,-3.9021,-9.5142
7136.7,-5.2545,-9.3437
7148.4,-5.5057,-9.1855
7160.2,-5.9103,-10.763
7171.9,-4.4577,-9.0145
7183.6,-4.4615,-7.1851
7195.3,-4.3688,-9.3678
7207,-2.9508,-11.19
7218.8,-2.8751,-5.1833
7230.5,-2.0208,-6.0446
7242.2,-2.8457,-9.4352
7253.9,-3.4456,-7.7195
7265.6,-2.4159,-7.2501
7277.3,-3.23,-6.3892
7289.1,0.93711,-9.8699
7300.8,2.8292,-10.75
7312.5,0.33008,-5.3672
7324.2,-1.4904,-3.9869
7335.9,-2.0426,-7.7235
7347.7,-0.68923,-8.7372
7359.4,-0.43441,-7.1441
7371.1,0.14888,-7.0403
7382.8,2.3117,-7.5152
7394.5,3.8316,-8.2938
7406.3,4.3106,-8.6216
7418,5.0929,-10.038
7429.7,7.3066,-8.5936
7441.4,10.277,-9.7195
7453.1,13.715,-7.6552
7464.8,15.66,-5.2232
7476.6,17.761,-5.8793
7488.3,28.712,-5.2023
7500,42.473,2.4782
7511.7,56.067,15.476
7523.4,56.659,16.104
7535.2,44.888,4.8047
7546.9,29.16,-8.2107
7558.6,19.728,-7.0371
7570.3,14.646,-7.395
7582,13.52,-9.483
7593.8,10.276,-11.498
7605.5,4.2625,-8.0141
7617.2,5.4893,-6.2731
7628.9,2.9936,-9.882
7640.6,0.21162,-9.7588
7652.3,0.132,-7.6015
7664.1,-0.024798,-8.5796
7675.8,-1.3387,-9.8378
7687.5,-2.2274,-9.786
7699.2,-3.5538,-9.7797
7710.9,-4.1822,-7.9479
7722.7,-5.7861,-8.9503
7734.4,-0.56231,-8.1521
7746.1,-1.6155,-6.2475
7757.8,-3.9518,-5.7407
7769.5,-3.2665,-7.2316
7781.3,-5.9851,-10.447
7793,-6.9423,-11.185
7804.7,-5.7509,-9.7515
7816.4,-6.574,-7.4188
7828.1,-6.0144,-4.7195
7839.8,-5.4053,-7.4081
7851.6,-5.9837,-9.5364
7863.3,-9.8928,-6.2131
7875,-6.771,-8.5663
7886.7,-8.599,-10.111
7898.4,-7.3747,-7.8537
7910.2,-8.4417,-6.5102
7921.9,-8.6771,-8.6561
7933.6,-4.1886,-9.8901
7945.3,-7.3457,-6.5184
7957,-8.8191,-7.1318
7968.8,-8.3793,-9.466
7980.5,-8.8713,-10.723
7992.2,-8.1969,-8.4243
8003.9,-10.345,-7.2594
8015.6,-8.4652,-9.927
8027.3,-6.0727,-11.473
8039.1,-6.1479,-8.1507
8050.8,-8.1201,-5.9906
8062.5,-7.2597,-6.2735
8074.2,-8.0157,-9.8993
8085.9,-7.8544,-9.7305
8097.7,-8.8855,-12.204
8109.4,-9.3849,-11.828
8121.1,-7.3483,-9.7693
8132.8,-9.4949,-10.984
8144.5,-7.3076,-13.862
8156.3,-5.9121,-10.998
8168,-6.2958,-7.7125
8179.7,-7.1667,-9.3973
8191.4,-8.6703,-9.6762
8203.1,-10.655,-9.4961
8214.8,-9.6255,-10.529
8226.6,-9.8865,-9.0496
8238.3,-10.839,-10.66
8250,-9.8328,-12.626
8261.7,-5.8716,-11.479
8273.4,-5.3153,-10.695
8285.2,-7.6189,-9.0782
8296.9,-9.3689,-11.786
8308.6,-15.126,-12.465
8320.3,-11.004,-12.303
8332,-11.277,-10.707
8343.8,-7.5152,-9.2298
8355.5,-8.285,-10.84
8367.2,-8.2092,-12.502
8378.9,-11.087,-11.861
8390.6,-10.938,-11.124
8402.3,-9.7337,-12.136
8414.1,-9.3659,-10.392
8425.8,-7.7497,-10.531
8437.5,-7.3085,-11.758
8449.2,-9.4511,-11.105
8460.9,-10.782,-8.9443
8472.7,-7.7662,-7.969
8484.4,-6.7458,-8.4851
8496.1,-8.4898,-10.206
8507.8,-5.8851,-8.0136
8519.5,-6.4816,-8.5628
8531.3,-7.9683,-10.591
8543,-9.1107,-9.6663
8554.7,-10.256,-8.9429
8566.4,-12,-11.453
8578.1,-12.088,-10.286
8589.8,-10.947,-9.259
8601.6,-9.8199,-11.666
8613.3,-11.075,-14.861
8625,-8.8525,-14.258
8636.7,-5.4373,-8.8569
8648.4,-5.8426,-8.0426
8660.2,-6.7243,-8.7634
8671.9,-10.562,-8.4361
8683.6,-8.9222,-7.3143
8695.3,-9.4952,-7.3193
8707,-10.178,-7.4313
8718.8,-10.988,-9.1858
8730.5,-10.66,-10.707
8742.2,-11.743,-9.8124
8753.9,-10.011,-10.954
8765.6,-12.218,-11.015
8777.3,-10.968,-12.04
8789.1,-9.7281,-9.3143
8800.8,-8.1615,-10.858
8812.5,-11.358,-11.868
8824.2,-10.862,-10.696
8835.9,-11.088,-8.7012
8847.7,-10.198,-5.534
8859.4,-11.071,-6.0081
8871.1,-10.753,-7.337
8882.8,-10.986,-12.93
8894.5,-10.224,-12.473
8906.3,-12.911,-8.2034
8918,-12.109,-8.7058
8929.7,-10.142,-9.5437
8941.4,-10.429,-10.075
8953.1,-12.933,-10.665
8964.8,-9.9901,-10.403
8976.6,-7.0977,-9.2848
8988.3,-7.3145,-11.903
9000,-9.598,-13.549
9011.7,-10.975,-13.387
9023.4,-9.8759,-10.847
9035.2,-6.5891,-11.816
9046.9,-5.7508,-9.1509
9058.6,-6.5859,-11.783
9070.3,-6.1484,-13.221
9082,-6.3625,-11.961
9093.8,-8.2303,-11.363
9105.5,-6.4095,-10.044
9117.2,-7.0234,-10.064
9128.9,-9.0828,-9.728
9140.6,-10.196,-9.5189
9152.3,-11.012,-12.056
9164.1,-10.471,-8.6966
9175.8,-11.07,-10.702
9187.5,-9.2693,-10.804
9199.2,-8.148,-10.747
9210.9,-7.152,-9.2587
9222.7,-7.7384,-8.6687
9234.4,-9.8759,-11.901
9246.1,-11.503,-12.146
9257.8,-13.823,-11.269
9269.5,-13.909,-12.087
9281.3,-10.02,-13.224
9293,-8.9101,-11.724
9304.7,-10.992,-11.103
9316.4,-9.769,-13.741
9328.1,-9.0512,-13.914
9339.8,-13.535,-14.287
9351.6,-16.841,-12.045
9363.3,-15.182,-10.207
9375,-10.966,-9.5233
9386.7,-11.01,-9.1243
9398.4,-10.366,-11.282
9410.2,-11.622,-12.609
9421.9,-14.231,-12.739
9433.6,-12.461,-12.292
9445.3,-11.058,-11.398
9457,-8.2459,-10.993
9468.8,-9.2672,-9.0756
9480.5,-9.741,-12.664
9492.2,-11.074,-15.08
9503.9,-11.327,-15.757
9515.6,-11.23,-14.105
9527.3,-9.5988,-12.122
9539.1,-10.479,-12.187
9550.8,-9.9954,-13.685
9562.5,-9.7426,-11.257
9574.2,-10.242,-15.995
9585.9,-8.7118,-13.368
9597.7,-9.0961,-13.044
9609.4,-10.469,-11.285
9621.1,-10.239,-10.115
9632.8,-9.8733,-12.788
9644.5,-11.095,-11.307
9656.3,-8.1883,-12.541
9668,-9.4173,-11.729
9679.7,-12.638,-9.5443
9691.4,-12.539,-10.668
9703.1,-8.2491,-12.983
9714.8,-10.488,-13.963
9726.6,-13.73,-13.061
9738.3,-12.644,-11.688
9750,-10.478,-12.27
9761.7,-9.9543,-10.891
9773.4,-12.925,-11.267
9785.2,-13.714,-9.426
9796.9,-17.115,-9.562
9808.6,-12.977,-9.3263
9820.3,-13.078,-10.238
9832,-9.8361,-10.418
9843.8,-8.8091,-10.487
9855.5,-13.559,-12.547
9867.2,-11.474,-12.641
9878.9,-9.8111,-13.176
9890.6,-10.694,-10.924
9902.3,-11.006,-12.775
9914.1,-11.322,-14.21
9925.8,-11.235,-13.573
9937.5,-11.148,-12.02
9949.2,-10.356,-10.396
9960.9,-11.432,-9.4502
9972.7,-9.7836,-10.533
9984.4,-10.1,-11.129
9996.1,-11.735,-11.838
10008,-11.64,-12.765
10020,-13.435,-13.815
10031,-9.8612,-12.763
10043,-7.8057,-11.751
10055,-8.1005,-11.121
10066,-10.506,-11.129
10078,-11.121,-10.627
10090,-11.135,-11.631
10102,-13.63,-12.676
10113,-11.667,-13.039
10125,-8.6351,-10.705
10137,-10.039,-11.487
10148,-11.59,-16.313
10160,-12.434,-11.445
10172,-13.288,-11.279
10184,-13.746,-11.918
10195,-13.618,-11.381
10207,-14.284,-9.7831
10219,-11.88,-10.492
10230,-13.844,-13.551
10242,-16.462,-11.068
10254,-14.574,-11.193
10266,-12.98,-12.864
10277,-12.699,-13.872
10289,-9.644,-13.263
10301,-7.9237,-14.051
10313,-9.8028,-16.008
10324,-12.373,-16.6
10336,-8.6331,-13.736
10348,-10.622,-12.775
10359,-14.672,-11.026
10371,-13.546,-10.019
10383,-9.7799,-12.423
10395,-9.9679,-10.884
10406,-11.272,-8.2176
10418,-10.113,-10.748
10430,-9.2944,-12.12
10441,-10.295,-12.547
10453,-11.733,-12.21
10465,-9.0868,-12.696
10477,-10.215,-16.685
10488,-12.87,-14.698
10500,-12.966,-11.85
10512,-12.368,-12.011
10523,-12.438,-14.357
10535,-9.0098,-11.068
10547,-9.993,-13.637
10559,-8.6121,-14.603
10570,-8.9904,-13.477
10582,-8.4229,-13.073
10594,-9.6994,-11.536
10605,-12.249,-10.456
10617,-11.806,-13.03
10629,-8.22,-10.154
10641,-10.084,-11.51
10652,-13.045,-13.509
10664,-12.851,-15.781
10676,-11.631,-13.668
10688,-13.107,-13.994
10699,-14.826,-12.162
10711,-15.631,-9.9678
10723,-13.354,-11.475
10734,-9.997,-12.694
10746,-9.8607,-14.564
10758,-11.037,-13.524
10770,-13.044,-12.577
10781,-13.152,-13.91
10793,-12.981,-14.229
10805,-12.803,-15.693
10816,-13.692,-13.149
10828,-11.351,-14.17
10840,-9.9022,-12.316
10852,-11.378,-11.377
10863,-11.581,-9.5385
10875,-9.4209,-10.784
10887,-11.204,-13.406
10898,-12.019,-13.398
10910,-12.835,-13.541
10922,-13.737,-15.417
10934,-12.183,-13.384
10945,-11.401,-13.615
10957,-11.133,-11.812
10969,-11.14,-12.157
10980,-13.208,-12.415
10992,-14.619,-11.773
11004,-12.947,-16.519
11016,-9.9996,-12.362
11027,-9.0337,-11.907
11039,-13.506,-14.091
11051,-14.532,-13.888
11063,-14.264,-13.873
11074,-13.128,-14.051
11086,-12.467,-14.884
11098,-9.9327,-14.055
11109,-11.015,-15.496
11121,-11.56,-15.084
11133,-12.056,-16.969
11145,-11.03,-15.439
11156,-10.604,-13.567
11168,-12.794,-14.052
11180,-11.589,-16.207
11191,-12.266,-18.366
11203,-13.196,-17.476
11215,-12.285,-16.14
11227,-12.895,-16.092
11238,-14.703,-12.228
11250,-15.098,-15.288
11262,-11.666,-13.095
11273,-10.888,-11.031
11285,-11.412,-13.855
11297,-12.784,-11.906
11309,-12.894,-14.058
11320,-14.565,-13.308
11332,-16.043,-15.124
11344,-9.9863,-14.996
11355,-10.006,-14.468
11367,-11.597,-14.113
11379,-11.454,-15.303
11391,-11.036,-13.928
11402,-12.872,-14.978
11414,-15.106,-14.504
11426,-13.331,-14.453
11438,-12.028,-14.257
11449,-12.946,-14.297
11461,-10.356,-11.986
11473,-11.201,-14.757
11484,-12.029,-16.429
11496,-12.986,-13.296
11508,-12.801,-9.8051
11520,-12.961,-11.169
11531,-13.988,-16.266
11543,-13.625,-15.582
11555,-14.38,-14.616
11566,-12.707,-16.832
11578,-12.891,-14.702
11590,-15.472,-13.975
11602,-11.722,-14.3
11613,-11.141,-12.907
11625,-13.162,-12.276
11637,-14.913,-18.465
11648,-12.468,-14.545
11660,-12.959,-15.123
11672,-12.866,-18.62
11684,-11.651,-17.546
11695,-12.148,-15.177
11707,-12.866,-11.404
11719,-13.955,-11.05
11730,-13.889,-11.966
11742,-14.014,-14.49
11754,-13.867,-12.366
11766,-11.489,-11.553
11777,-10.908,-13.774
11789,-13.401,-10.873
11801,-11.518,-8.8334
11813,-11.856,-13.432
11824,-14.314,-16.161
11836,-12.888,-15.157
11848,-11.058,-12.884
11859,-12.881,-11.341
11871,-13.359,-12.157
11883,-12.409,-13.52
11895,-11.239,-14.047
11906,-12.485,-17.451
11918,-12.581,-16.44
11930,-11.947,-14.136
11941,-15.281,-20.012
11953,-15.46,-15.596
11965,-12.989,-13.984
11977,-12.66,-13.297
11988,-13.215,-10.89
12000,-10.576,-11.863
12012,-13.169,-16.306
12023,-13.69,-12.271
12035,-15.771,-13.377
12047,-13.236,-14.495
12059,-11.551,-11.534
12070,-13.267,-13.368
12082,-13.064,-14.269
12094,-13.328,-14.149
12105,-13.382,-13.904
12117,-13.903,-10.498
12129,-14.229,-14.213
12141,-12.124,-15.484
12152,-12.513,-16.432
12164,-13.448,-12.992
12176,-13.694,-13.636
12188,-14.329,-15.373
12199,-13.606,-15.4
12211,-11.52,-14.06
12223,-11.144,-14.942
12234,-12.512,-16.427
12246,-14.124,-14.872
12258,-14.989,-15.782
12270,-11.396,-14.404
12281,-9.4709,-14.656
12293,-11.408,-15.859
12305,-11.128,-17.667
12316,-10.572,-14.097
12328,-12.553,-13.19
12340,-16.361,-12.902
12352,-16.541,-11.306
12363,-17.648,-10.998
12375,-14.845,-12.685
12387,-14.248,-15.191
12398,-14.113,-16.944
12410,-11.797,-16.539
12422,-12.15,-15.406
12434,-12.399,-14.139
12445,-14.841,-17.397
12457,-13.446,-16.071
12469,-9.7755,-13.407
12480,-14.74,-14.345
12492,-12.405,-18.842
12504,-13.144,-15.952
12516,-16.006,-13.881
12527,-15.992,-11.101
12539,-16.121,-14.435
12551,-13.765,-14.04
12563,-15.845,-14.671
12574,-15.386,-16.505
12586,-11.974,-15.09
12598,-11.07,-15.663
12609,-12.073,-15.97
12621,-13.865,-16.145
12633,-15.275,-14.59
12645,-15.391,-14.973
12656,-12.575,-18.236
12668,-9.9372,-19.256
12680,-9.3668,-16.496
12691,-11.052,-13.336
12703,-11.069,-13.538
12715,-10.752,-15.174
12727,-12.971,-16.201
12738,-13.604,-14.175
12750,-11.679,-18.479
12762,-14.505,-17.38
12773,-12.526,-17.552
12785,-11.214,-15.841
12797,-14.92,-15.624
12809,-15.215,-16.493
12820,-13.09,-14.775
12832,-13.507,-14.781
12844,-13.709,-16.481
12855,-14.202,-17.66
12867,-13.362,-14.524
12879,-14.517,-13.219
12891,-14.573,-17.034
12902,-12.15,-15.098
12914,-12.443,-15.84
12926,-15.263,-16.416
12938,-14.195,-13.491
12949,-14.757,-15.048
12961,-18.609,-15.776
12973,-12.88,-17.055
12984,-13.355,-16.393
12996,-12.603,-15.392
13008,-11.189,-17.842
13020,-13.905,-15.009
13031,-14.404,-14.35
13043,-12.115,-16.149
13055,-13.423,-16.943
13066,-12.395,-15.958
13078,-12.664,-17.105
13090,-13.153,-17.137
13102,-14.8,-16.215
13113,-14.298,-13.129
13125,-12.148,-14.68
13137,-15.44,-17.035
13148,-12.289,-18.848
13160,-13.869,-17.808
13172,-14.27,-14.894
13184,-13.68,-18.178
13195,-16.006,-15.046
13207,-16.953,-17.383
13219,-16.813,-20.948
13230,-15.955,-18.226
13242,-15.066,-16.136
13254,-13.296,-15.396
13266,-12.183,-15.68
13277,-13.93,-16.356
13289,-13.598,-14.889
13301,-14.838,-16.387
13313,-13.279,-16.18
13324,-10.605,-14.944
13336,-13.911,-15.825
13348,-12.825,-17.814
13359,-13.25,-16.923
13371,-15.797,-12.775
13383,-16.107,-11.921
13395,-13.471,-12.94
13406,-11.253,-16.573
13418,-11.898,-14.108
13430,-13.112,-15.074
13441,-14.523,-15.194
13453,-12.97,-15.052
13465,-14.74,-15.955
13477,-14.855,-17.15
13488,-12.44,-14.453
13500,-15.274,-13.016
13512,-14.31,-11.204
13523,-12.356,-13.59
13535,-12.432,-16.358
13547,-15.876,-17.679
13559,-15.055,-17.638
13570,-15.564,-17.375
13582,-14.402,-17.653
13594,-13.137,-15.225
13605,-13.519,-16.752
13617,-15.942,-17.558
13629,-16.326,-14.235
13641,-16.083,-14.494
13652,-14.685,-16.166
13664,-17.041,-15.155
13676,-16.903,-15.323
13688,-16.581,-17.026
13699,-15.383,-18.538
13711,-14.542,-17.998
13723,-17.062,-16.784
13734,-16.656,-18.198
13746,-12.317,-16.686
13758,-11.512,-16.919
13770,-13.451,-15.027
13781,-15.193,-15.296
13793,-16.561,-17.032
13805,-16.962,-18.808
13816,-14.886,-19.021
13828,-13.587,-18.402
13840,-9.1494,-14.72
13852,-11.077,-14.966
13863,-14.414,-14.207
13875,-12.267,-16.171
13887,-12.012,-16.862
13898,-16.301,-17.79
13910,-16.7,-19.487
13922,-15.592,-16.718
13934,-15.147,-17.343
13945,-15.265,-14.485
13957,-14.468,-15.825
13969,-14.651,-15.813
13980,-13.221,-16.625
13992,-15.665,-16.255
14004,-14.583,-16.453
14016,-12.892,-17.821
14027,-14.524,-20.349
14039,-17.153,-19.847
14051,-13.979,-16.806
14063,-15.263,-15.593
14074,-14.52,-15.871
14086,-15.764,-17.941
14098,-16.543,-19.92
14109,-16.595,-17.551
14121,-17.961,-17.077
14133,-14.601,-14.515
14145,-14.019,-14.817
14156,-14.606,-17.854
14168,-16.221,-19.146
14180,-15.977,-19.065
14191,-12.924,-15.727
14203,-12.951,-15.322
14215,-14.666,-17.189
14227,-14.393,-18.56
14238,-13.868,-17.492
14250,-16.588,-16.531
14262,-16.438,-18.001
14273,-15.562,-18.369
14285,-13.802,-17.551
14297,-13.972,-19.591
14309,-15.991,-19.514
14320,-15.21,-15.131
14332,-14.5,-11.807
14344,-15.523,-15.209
14355,-17.067,-19.331
14367,-18.528,-17.665
14379,-15.671,-18.766
14391,-13.963,-16.515
14402,-14.695,-16.122
14414,-16.987,-16.545
14426,-17.018,-17.526
14438,-15.581,-16.962
14449,-15.871,-15.196
14461,-16.183,-15.264
14473,-14.075,-20.043
14484,-15.202,-16.186
14496,-14.007,-14.18
14508,-20.721,-18.402
14520,-17.077,-21.057
14531,-16.624,-20.679
14543,-14.179,-18.161
14555,-14.597,-18.349
14566,-16.72,-20.33
14578,-17.793,-16.099
14590,-19.203,-18.358
14602,-18.964,-18.787
14613,-18.342,-17.927
14625,-16.394,-19.655
14637,-16.929,-21.105
14648,-16.057,-19.361
14660,-14.942,-19.787
14672,-16.08,-17.854
14684,-14.168,-14.537
14695,-16.162,-15.781
14707,-16.06,-16.713
14719,-17.266,-18.19
14730,-15.18,-19.871
14742,-16.104,-19.643
14754,-17.546,-19.138
14766,-18.297,-17.366
14777,-19.308,-17.971
14789,-18.895,-16.183
14801,-16.073,-14.163
14813,-16.498,-14.439
14824,-15.263,-15.059
14836,-15.831,-16.374
14848,-15.444,-15.768
14859,-15.01,-19.442
14871,-14.39,-17.554
14883,-15.316,-17.632
14895,-14.929,-17.327
14906,-14.099,-17.544
14918,-18.417,-18.4
14930,-18.099,-18.908
14941,-16.937,-18.124
14953,-17.738,-18.155
14965,-19.397,-18.358
14977,-18.328,-15.126
14988,-18.082,-17.321
15000,-19.182,-17.45
15012,-18.66,-16.493
15023,-16.678,-16.29
15035,-15.793,-16.965
15047,-17.199,-16.448
15059,-17.148,-15.876
15070,-18.505,-16.286
15082,-16.961,-18.052
15094,-19.073,-17.53
15105,-18.566,-15.962
15117,-16.365,-18.381
15129,-16.516,-16.627
15141,-16.969,-17.961
15152,-17.059,-15.221
15164,-16.112,-16.193
15176,-15.582,-18.076
15188,-14.387,-19.068
15199,-16.986,-18.591
15211,-18.039,-15.518
15223,-18.276,-14.596
15234,-18.596,-15.986
15246,-17.634,-15.99
15258,-18.283,-17.574
15270,-19.988,-15.697
15281,-18.959,-20.647
15293,-19.545,-20.197
15305,-20.583,-19.098
15316,-17.141,-20.783
15328,-18.889,-21.258
15340,-19.9,-17.569
15352,-19.62,-15.268
15363,-16.783,-16.919
15375,-17.334,-18.168
15387,-19.832,-18.871
15398,-19.611,-16.839
15410,-15.946,-18.593
15422,-15.769,-20.562
15434,-16.509,-20.785
15445,-18.697,-20.364
15457,-18.76,-19.642
15469,-20.247,-18.383
15480,-16.977,-19.068
15492,-15.269,-21.677
15504,-17.576,-20.465
15516,-20.083,-18.203
15527,-18.847,-18.345
15539,-17.688,-16.536
15551,-17.794,-16.955
15563,-16.887,-20.192
15574,-18.182,-19.556
15586,-21.465,-19.774
15598,-22.364,-20.325
15609,-19.253,-19.125
15621,-19.9,-20.634
15633,-19.437,-22.388
15645,-18.73,-20.943
15656,-17.985,-20.617
15668,-18.57,-18.23
15680,-18.78,-18.497
15691,-17.865,-19.766
15703,-20.076,-18.294
15715,-21.753,-18.531
15727,-20.169,-19.629
15738,-18.867,-18.998
15750,-18.489,-16.482
15762,-16.714,-19.718
15773,-17.85,-20.62
15785,-22.48,-20.762
15797,-21.219,-20.456
15809,-20.202,-17.402
15820,-21.964,-18.124
15832,-24.01,-19.832
15844,-24.456,-19.403
15855,-21.958,-18.666
15867,-18.347,-20.806
15879,-15.448,-20.624
15891,-15.542,-20.258
15902,-15.521,-20.065
15914,-16.483,-18.132
15926,-19.048,-18.692
15938,-18.769,-20.567
15949,-20.354,-20.74
15961,-21.929,-18.664
15973,-19.249,-20.828
15984,-19.245,-22.948
15996,-21.158,-20.718
16008,-19.375,-20.656
16020,-19.712,-22.05
16031,-16.64,-20.751
16043,-16.692,-21.747
16055,-20.019,-19.766
16066,-19.121,-22.905
16078,-16.905,-19.028
16090,-17.933,-15.196
16102,-21.43,-16.661
16113,-21.943,-21.237
16125,-20.317,-21.277
16137,-19.606,-22.359
16148,-18.696,-23.707
16160,-18.049,-21.562
16172,-18.208,-20.169
16184,-20.136,-20.581
16195,-18.459,-21.184
16207,-17.044,-20.756
16219,-18.833,-21.199
16230,-19.915,-22.423
16242,-22.444,-22.908
16254,-22.63,-21.485
16266,-21.9,-19.194
16277,-20.807,-18.315
16289,-20.517,-17.125
16301,-20.457,-17.343
16313,-19.312,-18.915
16324,-19.542,-18.99
16336,-22.489,-19.375
16348,-20.372,-24.247
16359,-21.613,-23.238
16371,-20.981,-22.35
16383,-20.319,-19.612
16395,-19.059,-19.446
16406,-18.081,-19.259
16418,-16.153,-19.676
16430,-19.515,-21.653
16441,-22.369,-22.489
16453,-21.653,-21.634
16465,-17.875,-23.055
16477,-16.802,-22.727
16488,-19.422,-19.765
16500,-20.606,-22.437
16512,-21.533,-22.661
16523,-20.748,-20.161
16535,-22.496,-19.97
16547,-19.403,-21.169
16559,-16.017,-23.768
16570,-17.38,-23.787
16582,-18.627,-25.473
16594,-18.529,-26.354
16605,-18.238,-23.786
16617,-19.656,-19.658
16629,-22.74,-16.849
16641,-20.505,-16.93
16652,-20.209,-22.344
16664,-23.331,-23.083
16676,-21.202,-21.569
16688,-19.162,-19.196
16699,-24.718,-19.517
16711,-20.359,-21.762
16723,-19.351,-21.305
16734,-20.537,-24.015
16746,-21.064,-24.346
16758,-21.666,-23.654
16770,-17.93,-19.65
16781,-19.706,-18.59
16793,-20.708,-22.098
16805,-21.48,-26.675
16816,-23.086,-22.616
16828,-21.159,-23.064
16840,-18.229,-23.394
16852,-19.123,-22.917
16863,-23.444,-19.65
16875,-21,-18.333
16887,-22.283,-21.795
16898,-22.992,-21.243
16910,-21.948,-20.757
16922,-21.185,-21.676
16934,-22.568,-20.825
16945,-22.55,-20.274
16957,-21.031,-19.965
16969,-22.424,-22.068
16980,-23.747,-21.893
16992,-19.32,-20.961
17004,-20.137,-20.643
17016,-20.473,-18.679
17027,-20.263,-19.447
17039,-20.921,-22.597
17051,-19.893,-18.736
17063,-17.931,-22.521
17074,-19.797,-22.687
17086,-21.476,-22.085
17098,-23.035,-21.361
17109,-21.104,-23.996
17121,-16.815,-21.546
17133,-17.232,-20.642
17145,-19.207,-20.826
17156,-19.412,-20.967
17168,-21.019,-20.172
17180,-23.422,-19.084
17191,-24.195,-20.68
17203,-22.231,-23.263
17215,-21.334,-25.488
17227,-20.979,-23.443
17238,-21.959,-22.444
17250,-19.116,-24.773
17262,-19.294,-22.342
17273,-25.154,-22.205
17285,-23.312,-25.383
17297,-21.678,-24.525
17309,-19.227,-23.359
17320,-20.588,-23.014
17332,-24.294,-23.077
17344,-23.555,-21.774
17355,-20.55,-22.052
17367,-18.658,-23.534
17379,-20.89,-22.487
17391,-21.026,-21.121
17402,-22.753,-22.654
17414,-24.796,-22.413
17426,-23.168,-21.657
17438,-24.72,-21.458
17449,-19.574,-21.866
17461,-20.813,-22.08
17473,-21.937,-22.012
17484,-22.139,-23.411
17496,-21.857,-25.525
17508,-18.293,-23.559
17520,-19.799,-20.465
17531,-20.721,-19.659
17543,-20.786,-21.034
17555,-23.008,-21.386
17566,-26.026,-22.191
17578,-23.352,-22.38
17590,-22.795,-22.847
17602,-22.685,-24.907
17613,-21.86,-21.501
17625,-25.151,-23.299
17637,-23.191,-22.137
17648,-21.477,-21.231
17660,-19.733,-19.553
17672,-22.382,-18.265
17684,-23.747,-18.198
17695,-21.511,-18.241
17707,-21.87,-19.794
17719,-23.053,-23.364
17730,-22.798,-22.175
17742,-21.547,-20.842
17754,-22.676,-21.65
17766,-21.721,-21.264
17777,-21.978,-20.593
17789,-21.358,-21.373
17801,-21.037,-23.275
17813,-20.674,-24.114
17824,-22.637,-22.529
17836,-22.205,-22.05
17848,-22.886,-24.23
17859,-24.223,-26.288
17871,-19.94,-23.922
17883,-18.66,-21.242
17895,-19.79,-24.067
17906,-21.175,-24.025
17918,-19.058,-24.906
17930,-18.409,-22.433
17941,-19.959,-24.262
17953,-23.856,-26.179
17965,-21.988,-25.24
17977,-23.996,-22.994
17988,-23.373,-22.804
18000,-20.106,-20.852
18012,-21.574,-19.85
18023,-22.619,-20.917
18035,-22.656,-21.721
18047,-23.745,-23.799
18059,-25.089,-23.566
18070,-23.611,-23.402
18082,-23.402,-20.587
18094,-22.628,-20.824
18105,-22.175,-22.428
18117,-23.519,-21.966
18129,-26.153,-20.363
18141,-23.127,-20.915
18152,-21.875,-23.246
18164,-21.134,-25.096
18176,-20.518,-22.865
18188,-20.601,-23.133
18199,-21.639,-24.568
18211,-20.448,-22.848
18223,-19.68,-20.862
18234,-22.884,-21.422
18246,-24.726,-23.295
18258,-21.46,-21.842
18270,-23.745,-23.673
18281,-26.198,-26.58
18293,-23.208,-25.988
18305,-23.843,-22.712
18316,-24.725,-21.552
18328,-25.844,-24.292
18340,-26.285,-24.573
18352,-25.451,-26.223
18363,-25.44,-25.953
18375,-25.044,-23.391
18387,-25.163,-22.74
18398,-21.891,-26.479
18410,-21.546,-28.078
18422,-24.137,-23.948
18434,-26.792,-23.916
18445,-26.597,-25.435
18457,-26.806,-23.62
18469,-24.068,-23.14
18480,-22.202,-25.452
18492,-24.772,-27.272
18504,-25.857,-25.07
18516,-22.277,-23.001
18527,-22.748,-22.42
18539,-25.438,-25.213
18551,-25.969,-26.832
18563,-21.09,-23.641
18574,-19.325,-22.312
18586,-22.171,-22.285
18598,-25.737,-24.847
18609,-29.395,-24.821
18621,-26.621,-23.569
18633,-22.25,-24.409
18645,-21.104,-24.751
18656,-20.732,-25.29
18668,-20.461,-25.683
18680,-22.436,-25.457
18691,-23.868,-24.502
18703,-24.579,-26.446
18715,-23.532,-25.676
18727,-22.267,-21.358
18738,-24.576,-21.653
18750,-25.537,-23.966
18762,-27.756,-27.602
18773,-25.217,-26.449
18785,-22.854,-27.673
18797,-21.492,-24.056
18809,-23.142,-25.171
18820,-24.879,-24.535
18832,-23.904,-21.376
18844,-24.639,-20.239
18855,-24.376,-22.43
18867,-23.791,-23.746
18879,-23.026,-23.64
18891,-24.516,-24.924
18902,-22.24,-25.034
18914,-20.341,-23.746
18926,-21.756,-24.701
18938,-23.754,-22.684
18949,-26.312,-24.678
18961,-23.817,-24.446
18973,-24.627,-25.173
18984,-21.232,-22.301
18996,-21.612,-22.141
19008,-24.352,-23.617
19020,-25.639,-24.902
19031,-25.878,-22.948
19043,-25.595,-23.018
19055,-25.223,-23.978
19066,-23.084,-22.999
19078,-23.165,-22.822
19090,-24.246,-22.599
19102,-23.614,-23.968
19113,-22.171,-21.813
19125,-21.514,-21.778
19137,-23.12,-22.865
19148,-21.476,-23.702
19160,-21.519,-25.766
19172,-23.985,-25.407
19184,-24.387,-25.26
19195,-24.27,-24.889
19207,-25.961,-23.014
19219,-24.737,-24.019
19230,-25.509,-25.023
19242,-25.734,-22.386
19254,-22.742,-21.896
19266,-24.593,-24.161
19277,-27.953,-24.694
19289,-28.297,-23.59
19301,-26.43,-19.35
19313,-26.427,-24.162
19324,-25.576,-23.529
19336,-22.26,-25.85
19348,-23.78,-27.029
19359,-28.594,-23.996
19371,-24.021,-25.489
19383,-24.157,-23.272
19395,-23.209,-21.333
19406,-22.709,-25.446
19418,-25.568,-25.493
19430,-23.213,-25.738
19441,-21.43,-28.415
19453,-24.846,-26.089
19465,-24.764,-25.47
19477,-24.101,-24.75
19488,-21.754,-24.694
19500,-22.008,-25.656
19512,-24.002,-23.829
19523,-26.205,-26.446
19535,-24.749,-25.711
19547,-25.896,-23.097
19559,-25.482,-23.837
19570,-22.021,-24.848
19582,-23.142,-24.745
19594,-25.454,-25.282
19605,-28.156,-27.024
19617,-26.331,-24.713
19629,-25.383,-22.749
19641,-24.741,-22.203
19652,-23.608,-21.965
19664,-26.852,-23.601
19676,-26.68,-22.391
19688,-25.53,-23.179
19699,-27.051,-25.346
19711,-28.993,-24.669
19723,-26.638,-27.701
19734,-26.555,-25.628
19746,-28.275,-22.615
19758,-26.839,-23.558
19770,-24.053,-26.16
19781,-26.112,-27.11
19793,-24.89,-26.912
19805,-22.279,-23.876
19816,-25.859,-24.124
19828,-24.912,-25.386
19840,-23.182,-24.501
19852,-26.117,-25.987
19863,-26.11,-28.248
19875,-25.13,-29.238
19887,-27.396,-29.604
19898,-25.545,-26.78
19910,-26.391,-26.519
19922,-25.165,-25.536
19934,-25.066,-26.385
19945,-24.518,-27.418
19957,-23.036,-26.111
19969,-25.509,-23.83
19980,-24.649,-24.937
19992,-26.012,-25.21
20004,-28.963,-27.896
20016,-24.697,-24.452
20027,-21.796,-23.361
20039,-22.589,-24.273
20051,-25.18,-24.27
20063,-24.297,-24.114
20074,-23.95,-25.184
20086,-25.091,-23.206
20098,-26.101,-25.018
20109,-27.619,-26.998
20121,-27.078,-25.772
20133,-24.948,-26.949
20145,-24.138,-28.878
20156,-24.726,-28.686
20168,-25.917,-25.691
20180,-25.548,-23.129
20191,-23.473,-23.325
20203,-26.83,-25.093
20215,-25.568,-25.745
20227,-23.731,-28.967
20238,-23.54,-27.75
20250,-27.722,-29.549
20262,-26.775,-25.307
20273,-26.505,-23.932
20285,-25.842,-27.1
20297,-26.554,-27.518
20309,-28.435,-23.074
20320,-28.347,-23.921
20332,-27.122,-28.48
20344,-25.105,-27.217
20355,-24.41,-27.327
20367,-25.418,-29.243
20379,-27.021,-27.506
20391,-25.039,-26.906
20402,-26.3,-25.812
20414,-23.888,-22.995
20426,-23.405,-24.126
20438,-25.987,-24.1
20449,-23.387,-24.103
20461,-23.325,-23.078
20473,-24.678,-26.079
20484,-25.162,-25.353
20496,-24.492,-22.683
20508,-25.625,-28.957
20520,-25.015,-28.041
20531,-24.819,-28.442
20543,-25.296,-29.188
20555,-27.025,-29.156
20566,-27.186,-28.065
20578,-26.401,-29.87
20590,-27.047,-28.098
20602,-27.388,-27.821
20613,-27.598,-25.241
20625,-27.065,-25.466
20637,-25.341,-25.401
20648,-26.188,-23.337
20660,-25.903,-26.389
20672,-26.969,-28.07
20684,-25.289,-27.035
20695,-27.8,-24.752
20707,-26.817,-29.614
20719,-24.048,-28.52
20730,-22.439,-23.459
20742,-24.298,-24.86
20754,-28.092,-25.522
20766,-24.507,-25.759
20777,-22.563,-27.785
20789,-25.54,-27.512
20801,-27.614,-27.093
20813,-26.667,-27.974
20824,-24.815,-27.957
20836,-25.258,-25.997
20848,-26.146,-22.823
20859,-26.959,-23.647
20871,-26.677,-26.168
20883,-28.647,-26.848
20895,-26.967,-25.507
20906,-24.921,-26.949
20918,-26.729,-28.58
20930,-28.854,-27.515
20941,-27.85,-23.946
20953,-22.747,-26.482
20965,-24.799,-27.509
20977,-28.784,-26.736
20988,-29.722,-27.795
21000,-26.861,-27.274
21012,-30.896,-27.096
21023,-27.285,-27.757
21035,-24.883,-27.797
21047,-27.149,-28.137
21059,-27.417,-26.638
21070,-28.561,-25.476
21082,-27.014,-25.412
21094,-29.619,-29.288
21105,-28.029,-27.512
21117,-27.276,-26.479
21129,-25.141,-28.816
21141,-25.512,-27.106
21152,-27.522,-26.67
21164,-25.719,-29.572
21176,-25.17,-28.157
21188,-26.099,-26.36
21199,-25.331,-25.621
21211,-23.908,-28.468
21223,-25.765,-26.352
21234,-28.046,-26.158
21246,-27.547,-26.05
21258,-26.218,-25.841
21270,-25.849,-26.644
21281,-28.353,-26.362
21293,-26.326,-27.946
21305,-27.258,-28.593
21316,-25.617,-27.358
21328,-24.649,-28.164
21340,-27.391,-28.091
21352,-27.339,-25.436
21363,-26.955,-25.293
21375,-26.004,-28.441
21387,-26.803,-28.024
21398,-28.804,-25.989
21410,-29.048,-25.419
21422,-27.793,-25.752
21434,-27.103,-27.377
21445,-27.689,-28.353
21457,-28.185,-27.776
21469,-28.27,-28.296
21480,-27.613,-27.22
21492,-26.678,-25.797
21504,-26.465,-26.759
21516,-28.028,-28.159
21527,-27.119,-29.604
21539,-27.687,-26.922
21551,-29.827,-27.054
21563,-27.463,-27.962
21574,-25.08,-26.587
21586,-26.208,-26.566
21598,-26.692,-26.786
21609,-22.821,-25.036
21621,-24.586,-26.621
21633,-25.044,-28.075
21645,-25.82,-29.385
21656,-25.148,-28.955
21668,-27.449,-24.258
21680,-27.095,-24.176
21691,-28.964,-27.943
21703,-27.375,-29.271
21715,-25.214,-28.983
21727,-28.004,-30.363
21738,-26.066,-30.1
21750,-24.972,-27.397
21762,-26.822,-25.602
21773,-26.041,-23.6
21785,-24.675,-23.68
21797,-25.037,-26.217
21809,-25.363,-30.216
21820,-25.626,-30.515
21832,-25.737,-28.548
21844,-27.681,-27.868
21855,-30.509,-26.881
21867,-28.163,-30.789
21879,-26.022,-26.717
21891,-24.687,-25.116
21902,-24.822,-26.034
21914,-25.05,-26.311
21926,-25.469,-25.944
21938,-25.751,-25.735
21949,-30.205,-27.372
21961,-27.832,-28.282
21973,-26.439,-28.368
21984,-29.714,-25.873
21996,-28.418,-25.304
22008,-26.419,-26.655
22020,-25.212,-25.075
22031,-26.957,-26.978
22043,-27.338,-27.73
22055,-25.219,-26.084
22066,-27.592,-26.054
22078,-25.97,-27.102
22090,-26.486,-27.868
22102,-26.027,-26.604
22113,-25.516,-25.783
22125,-26.859,-25.713
22137,-28.587,-24.608
22148,-28.09,-29.015
22160,-27.359,-26.94
22172,-28.051,-27.9
22184,-26.44,-29.473
22195,-28.812,-27.284
22207,-27.771,-26.938
22219,-26.613,-27.938
22230,-27.334,-26.486
22242,-26.558,-26.346
22254,-26.467,-25.517
22266,-28.531,-29.337
22277,-27.79,-32.385
22289,-30.09,-28.962
22301,-27.785,-29.249
22313,-28.206,-29.336
22324,-29.377,-25.856
22336,-30.163,-26.649
22348,-29.178,-29.216
22359,-28.28,-27.318
22371,-26.416,-26.313
22383,-26.019,-26.925
22395,-27.125,-26.984
22406,-28.32,-27.834
22418,-29.003,-29.126
22430,-27.601,-31.715
22441,-26.311,-29.898
22453,-28.866,-30.036
22465,-29.603,-29.88
22477,-27.266,-28.467
22488,-26.749,-29.997
22500,-25.062,-25.586
22512,-26.384,-27.456
22523,-27.693,-30.252
22535,-26.229,-27.86
22547,-26.006,-25.354
22559,-23.84,-24.392
22570,-24.888,-27.411
22582,-26.788,-27.806
22594,-27.206,-32.106
22605,-27.664,-29.198
22617,-29.455,-29.073
22629,-32.109,-29.083
22641,-30.933,-32.158
22652,-25.443,-29.202
22664,-25.995,-26.044
22676,-29.054,-25.175
22688,-28.448,-25.347
22699,-30.958,-27.271
22711,-27.36,-30.295
22723,-24.992,-28.754
22734,-26.561,-27.887
22746,-25.949,-27.382
22758,-28.569,-30.893
22770,-29.802,-34.461
22781,-28.315,-30.356
22793,-29.655,-28.825
22805,-30.398,-29.675
22816,-30.978,-25.934
22828,-30.07,-26.44
22840,-30.445,-29.264
22852,-29.726,-32.289
22863,-26.172,-28.145
22875,-25.89,-26.955
22887,-24.706,-28.032
22898,-24.179,-27.671
22910,-27.842,-27.069
22922,-28.943,-29.773
22934,-30.13,-30.928
22945,-30.275,-29.344
22957,-27.881,-30.342
22969,-29.023,-26.385
22980,-25.481,-25.792
22992,-27.852,-26.838
23004,-23.778,-25.585
23016,-22.125,-26.323
23027,-25.562,-25.815
23039,-29.783,-27.269
23051,-27.07,-29.395
23063,-27.804,-27.429
23074,-29.335,-27.846
23086,-27.833,-26.975
23098,-28.37,-28.254
23109,-27.702,-31.48
23121,-25.598,-28.277
23133,-27.784,-26.449
23145,-32.254,-26.074
23156,-30.366,-26.419
23168,-28.998,-28.322
23180,-30.773,-28.83
23191,-26.337,-29.203
23203,-26.472,-28.382
23215,-28.178,-30.429
23227,-28.54,-28.107
23238,-27.724,-25.476
23250,-27.48,-28.362
23262,-25.407,-29.096
23273,-24.195,-28.4
23285,-25.72,-30.432
23297,-29.109,-31.455
23309,-30.562,-28.356
23320,-26.963,-27.871
23332,-26.814,-29.082
23344,-28.13,-30.495
23355,-28.456,-30.316
23367,-29.365,-29.242
23379,-30.202,-30.2
23391,-28.487,-29.613
23402,-27.617,-28.388
23414,-27.388,-29.34
23426,-32.634,-28.26
23438,-27.213,-29.476
23449,-26.364,-32.819
23461,-29.742,-31.841
23473,-26.659,-30.877
23484,-25.58,-28.275
23496,-26.463,-27.562
23508,-28.489,-26.635
23520,-26.286,-25.255
23531,-25.302,-26.788
23543,-25.928,-26.459
23555,-25.543,-27.588
23566,-26.568,-31.106
23578,-27.988,-30.132
23590,-28.922,-27.556
23602,-26.893,-27.782
23613,-28.249,-28.099
23625,-28.458,-27.872
23637,-26.619,-26.977
23648,-25.715,-27.334
23660,-24.316,-28.897
23672,-27.254,-29.543
23684,-29.893,-29.93
23695,-28.585,-33.047
23707,-27.089,-31.97
23719,-29.42,-29.301
23730,-31.216,-30.858
23742,-28.27,-27.383
23754,-27.148,-25.983
23766,-28.196,-26.557
23777,-28.494,-28.854
23789,-30.274,-29.285
23801,-29.063,-32.694
23813,-30.444,-29.476
23824,-28.699,-27.834
23836,-27.162,-28.299
23848,-27.517,-28.814
23859,-29.324,-30.773
23871,-31.855,-30.35
23883,-29.167,-26.261
23895,-27.87,-26.78
23906,-29.414,-29.037
23918,-30.441,-31.009
23930,-29.419,-30.476
23941,-30.923,-29.991
23953,-27.803,-29.066
23965,-26.737,-29.208
23977,-25.091,-27.913
23988,-27.202,-29.367
