FFT,Power Spectrum
Frequency[Hz],Level-L[dB],Level-R[dB]
11.719,-22.831,-25.783
23.438,-2.5454,-5.2691
35.156,-7.3122,-3.1727
46.875,1.682,0.5347
58.594,-0.13603,0.8172
70.313,6.1772,3.9582
82.031,9.2009,7.0212
93.75,10.188,7.4792
105.47,9.3353,5.8181
117.19,9.7858,8.0965
128.91,10.964,8.5186
140.63,13.197,8.1895
152.34,10.152,6.9787
164.06,-1.0627,2.4337
175.78,8.4663,6.6782
187.5,14.114,11.863
199.22,13.466,11.781
210.94,9.0794,7.2366
222.66,10.194,6.3262
234.38,9.6575,5.3039
246.09,8.4838,2.8905
257.81,7.4616,4.4157
269.53,7.6474,5.36
281.25,8.4901,6.1118
292.97,7.6525,7.1453
304.69,6.4797,6.9137
316.41,4.3716,6.9946
328.13,6.6478,6.4647
339.84,6.7798,5.8908
351.56,7.2745,5.8365
363.28,7.2131,6.2404
375,5.914,8.4668
386.72,7.7261,8.9379
398.44,7.6204,6.8494
410.16,4.9939,1.7762
421.88,2.5309,5.0355
433.59,3.0577,4.6916
445.31,6.2421,0.64179
457.03,13.772,1.6027
468.75,10.916,2.3928
480.47,5.31,4.2316
492.19,8.2199,6.3408
503.91,4.9685,5.7519
515.63,3.4795,5.5126
527.34,5.7043,7.1574
539.06,4.1972,4.3801
550.78,5.5293,3.3688
562.5,7.6682,3.3111
574.22,6.0583,1.9232
585.94,6.6784,3.5225
597.66,7.742,1.5809
609.38,8.4979,3.3876
621.09,9.2238,4.7824
632.81,6.8776,4.7703
644.53,7.9716,5.8948
656.25,9.328,4.5837
667.97,5.1901,6.0155
679.69,7.1283,6.3009
691.41,6.7161,3.0943
703.13,3.7446,1.1771
714.84,3.1167,3.3577
726.56,4.3784,3.0556
738.28,4.9134,3.6385
750,5.3899,5.01
761.72,4.6776,4.0099
773.44,7.312,5.6677
785.16,9.0872,8.8
796.88,8.7143,6.7794
808.59,10.714,7.2523
820.31,8.7845,5.2588
832.03,8.2271,4.4673
843.75,10.735,9.4807
855.47,12.018,10.67
867.19,6.5294,6.5992
878.91,5.9259,6.6627
890.63,10.658,5.2414
902.34,13.115,5.7416
914.06,10.777,8.065
925.78,8.3104,7.2112
937.5,6.8674,5.8695
949.22,6.9004,6.6951
960.94,7.7479,3.4628
972.66,8.7327,2.5012
984.38,4.5669,3.4149
996.09,3.5997,3.0146
1007.8,0.59559,4.1391
1019.5,3.071,4.5936
1031.3,0.5651,3.4654
1043,4.0395,1.4993
1054.7,6.1572,4.4183
1066.4,3.3675,2.898
1078.1,1.3973,1.3455
1089.8,4.1407,5.2051
1101.6,4.6261,6.0915
1113.3,6.5856,5.0384
1125,7.0707,5.2545
1136.7,8.1275,3.7252
1148.4,7.9955,1.7449
1160.2,4.5089,-2.0472
1171.9,5.965,4.0552
1183.6,6.2869,3.1047
1195.3,6.5794,0.27972
1207,9.8647,0.97993
1218.8,11.08,1.426
1230.5,10.779,3.5704
1242.2,7.0229,3.5749
1253.9,-1.1735,4.3102
1265.6,0.69416,3.2033
1277.3,1.8422,2.7113
1289.1,6.1716,3.6633
1300.8,5.0323,2.3477
1312.5,3.8199,2.8118
1324.2,3.7226,2.933
1335.9,1.9392,1.5561
1347.7,1.275,1.5875
1359.4,3.6728,2.7223
1371.1,4.4599,6.0275
1382.8,2.7159,6.6703
1394.5,2.8998,6.891
1406.3,4.8584,5.8849
1418,4.4532,4.7458
1429.7,6.0687,5.5069
1441.4,4.5689,4.1089
1453.1,3.194,2.3175
1464.8,3.8521,2.0685
1476.6,2.3485,0.96707
1488.3,5.4848,-1.2998
1500,6.9505,0.39328
1511.7,4.3584,3.3701
1523.4,2.2675,2.1468
1535.2,3.5567,1.4098
1546.9,6.6974,6.0822
1558.6,8.0423,7.5616
1570.3,5.1889,6.8112
1582,3.0688,2.7948
1593.8,1.6442,0.98359
1605.5,1.6146,1.4595
1617.2,1.4168,1.6099
1628.9,3.9507,3.1108
1640.6,2.6736,6.081
1652.3,2.4678,7.2532
1664.1,0.81368,5.1315
1675.8,3.6576,3.8167
1687.5,5.4013,1.0751
1699.2,5.4587,3.3364
1710.9,4.4766,2.2854
1722.7,3.0238,2.2323
1734.4,2.7299,3.7395
1746.1,6.4716,0.72003
1757.8,6.2665,2.7778
1769.5,4.5818,4.7296
1781.3,0.95977,3.454
1793,4.0907,2.0553
1804.7,4.8287,3.6489
1816.4,3.6493,2.3551
1828.1,1.8363,2.7273
1839.8,0.97875,2.0079
1851.6,5.0356,0.56
1863.3,6.1205,3.4841
1875,8.6186,7.0993
1886.7,7.4713,6.7482
1898.4,4.4043,5.3768
1910.2,-1.0834,1.5333
1921.9,1.5893,2.5903
1933.6,3.8558,2.8485
1945.3,3.322,3.9084
1957,0.85048,5.0285
1968.8,2.9527,2.0751
1980.5,5.6499,0.46591
1992.2,4.0911,0.95883
2003.9,3.3583,3.0845
2015.6,3.9139,2.6861
2027.3,1.7486,5.6032
2039.1,2.9845,4.4682
2050.8,4.2279,2.5143
2062.5,1.4438,2.0983
2074.2,0.84118,-0.62445
2085.9,2.1172,-1.1322
2097.7,3.2361,3.8624
2109.4,4.2754,5.3293
2121.1,4.8589,3.7708
2132.8,3.6341,0.57745
2144.5,2.4008,1.383
2156.3,3.9846,0.40818
2168,4.6482,2.2556
2179.7,5.3524,-0.2701
2191.4,3.8758,0.25587
2203.1,2.0354,1.1775
2214.8,0.52057,0.38886
2226.6,2.1667,-1.2544
2238.3,3.2041,2.5678
2250,3.2835,2.4768
2261.7,3.8339,0.064342
2273.4,3.9505,-0.56252
2285.2,3.531,2.0827
2296.9,2.742,5.0759
2308.6,-0.036388,3.3068
2320.3,3.5926,0.56322
2332,2.3196,-0.019117
2343.8,0.11875,-0.71194
2355.5,-0.57426,1.225
2367.2,-0.97792,0.21864
2378.9,0.35089,-1.5499
2390.6,0.60503,-1.2192
2402.3,0.58445,0.17682
2414.1,5.3969,0.4084
2425.8,4.5473,1.6618
2437.5,0.23028,3.0874
2449.2,2.0997,2.8082
2460.9,0.63131,2.411
2472.7,-1.2985,3.3023
2484.4,-0.85349,3.1258
2496.1,-1.0791,-0.30453
2507.8,1.7839,1.8984
2519.5,1.6269,1.3141
2531.3,-3.9703,-1.0319
2543,0.10202,-2.4462
2554.7,2.5499,0.25904
2566.4,2.8164,0.074351
2578.1,1.7763,0.62558
2589.8,1.9901,2.0578
2601.6,0.40528,-1.4093
2613.3,1.1893,-0.91655
2625,-0.057986,-0.32075
2636.7,-1.0255,0.72416
2648.4,-0.82876,-0.46695
2660.2,2.3443,-0.55479
2671.9,1.919,0.22783
2683.6,0.060635,-0.37514
2695.3,1.341,2.2358
2707,-0.26916,2.7732
2718.8,-0.69549,3.2181
2730.5,0.59584,1.6066
2742.2,-0.44765,2.7325
2753.9,0.62707,3.0747
2765.6,1.84,0.23219
2777.3,-0.051275,0.5106
2789.1,1.6859,0.62713
2800.8,2.8912,1.93
2812.5,3.8606,1.5315
2824.2,4.8913,-0.77315
2835.9,1.4693,0.036384
2847.7,-0.52127,3.6784
2859.4,-4.4535,0.54592
2871.1,-1.7313,-2.6725
2882.8,-0.33557,-3.9392
2894.5,0.88591,-0.72822
2906.3,1.1853,4.3024
2918,0.23946,4.6149
2929.7,-0.85023,1.6134
2941.4,-2.1034,-3.3288
2953.1,-1.784,1.4497
2964.8,-1.3074,0.50909
2976.6,-0.099002,1.8612
2988.3,-0.072607,2.4385
3000,-1.9297,0.36652
3011.7,-3.7044,-1.0878
3023.4,-2.3247,-2.5311
3035.2,-1.4766,-1.7385
3046.9,1.0966,-1.5492
3058.6,1.2679,0.015539
3070.3,-2.3164,1.6135
3082,-3.7276,3.0184
3093.8,-2.0141,3.3293
3105.5,-1.2392,0.019379
3117.2,-2.5363,-3.4669
3128.9,-0.15498,-3.0153
3140.6,1.8011,-0.68059
3152.3,2.061,-0.67938
3164.1,-1.3724,-0.034365
3175.8,0.40687,-1.8152
3187.5,-1.1704,-0.18233
3199.2,-0.23254,1.4951
3210.9,1.6803,-0.19149
3222.7,2.8965,-0.1259
3234.4,1.5107,-1.4177
3246.1,0.19711,-0.58565
3257.8,-1.4485,0.68414
3269.5,-0.34972,0.028134
3281.3,-1.4677,-1.6763
3293,-0.34589,-2.526
3304.7,-0.37772,-3.5272
3316.4,-1.6059,-1.6601
3328.1,-2.3102,-2.085
3339.8,-1.7562,-2.2132
3351.6,-2.04,0.47308
3363.3,-0.54329,1.7971
3375,-0.17405,-0.59705
3386.7,-2.2364,-1.655
3398.4,-3.7564,-0.51447
3410.2,-2.4126,-1.0909
3421.9,0.52693,-0.71571
3433.6,-0.99158,-0.95502
3445.3,-0.65258,-1.3156
3457,-1.5025,-2.8827
3468.8,-2.3277,-2.4166
3480.5,-3.165,0.074941
3492.2,-2.5908,0.20655
3503.9,-2.3638,-1.3696
3515.6,-1.7782,-1.1827
3527.3,-1.575,-2.7914
3539.1,0.77342,-1.3788
3550.8,0.76796,-2.4867
3562.5,-3.3465,-1.3953
3574.2,-4.5303,-4.9145
3585.9,-0.60158,-1.2499
3597.7,0.26092,0.20674
3609.4,-2.1793,-0.64135
3621.1,-5.3932,-1.7955
3632.8,-4.9364,-2.1195
3644.5,-5.2701,-0.059421
3656.3,-4.1078,-0.72506
3668,-4.768,-5.4851
3679.7,-1.7398,0.043305
3691.4,-0.69477,1.2353
3703.1,-3.7159,-1.0115
3714.8,-4.8423,-2.4812
3726.6,-0.3634,-4.526
3738.3,2.2367,-1.744
3750,2.2194,-4.9912
3761.7,-0.48708,-4.0307
3773.4,-3.9028,-2.5012
3785.2,-2.4842,-0.50864
3796.9,-1.6442,-0.73173
3808.6,-0.69571,-1.3924
3820.3,-2.1786,-1.4955
3832,-2.9064,-2.8587
3843.8,-0.86361,0.33096
3855.5,-0.93186,1.077
3867.2,-4.5164,-1.9512
3878.9,-4.9622,-1.4383
3890.6,-0.25346,1.0052
3902.3,-0.66906,1.3269
3914.1,-4.6907,-0.70004
3925.8,-8.1012,-1.9938
3937.5,-8.3065,-2.9949
3949.2,-3.9414,-0.21933
3960.9,-2.5617,0.080032
3972.7,0.14521,-3.475
3984.4,-2.622,-1.9145
3996.1,-4.3309,-5.6622
4007.8,-4.2545,-6.4085
4019.5,-3.3249,-6.0134
4031.3,-2.8867,0.96
4043,-2.3711,0.54762
4054.7,-2.2381,-0.33549
4066.4,-2.4161,0.76615
4078.1,-0.97102,0.49319
4089.8,-0.59033,-0.68286
4101.6,-1.2225,-3.1597
4113.3,-4.3836,-6.5004
4125,-2.1324,-4.1396
4136.7,-0.078921,-2.4706
4148.4,-1.0763,-3.412
4160.2,-5.1399,-8.2362
4171.9,-5.9757,-3.4705
4183.6,-4.7399,-3.0836
4195.3,-3.363,-5.6016
4207,-1.5623,-1.7159
4218.8,-0.96723,-3.3644
4230.5,-4.3435,-1.487
4242.2,-5.6946,-1.0441
4253.9,-2.5785,-5.0131
4265.6,-2.352,-6.887
4277.3,-2.7522,-3.2217
4289.1,-0.77128,-4.8254
4300.8,0.27584,-2.4617
4312.5,-1.4841,-1.1914
4324.2,-2.9193,-3.3251
4335.9,-1.8849,-2.7505
4347.7,-1.7392,-3.2404
4359.4,-2.357,-1.4008
4371.1,-3.7568,-1.9583
4382.8,-3.4803,-2.2727
4394.5,-3.3998,-2.1195
4406.3,-1.0331,-2.7223
4418,-1.0252,-5.398
4429.7,-1.6182,-5.3626
4441.4,-2.2652,-3.168
4453.1,-5.7974,-2.7788
4464.8,-2.3743,-1.6986
4476.6,0.6265,-3.6725
4488.3,-1.6239,-4.824
4500,-2.4452,-5.8936
4511.7,-0.53127,-7.5972
4523.4,-3.2254,-4.586
4535.2,-3.5003,-1.1781
4546.9,-1.6457,-3.4954
4558.6,-1.349,-3.6616
4570.3,-1.4047,-3.6506
4582,-2.5875,-3.2504
4593.8,-0.82733,-3.0022
4605.5,-3.3489,-5.2774
4617.2,-1.9502,-4.3771
4628.9,-2.3873,-2.573
4640.6,-0.15406,-3.1984
4652.3,-1.8292,-1.751
4664.1,-5.3979,-4.2289
4675.8,-5.6044,-3.7923
4687.5,-3.2497,-2.9442
4699.2,-4.2971,1.5965
4710.9,-3.5474,-0.39914
4722.7,-1.0132,-5.7742
4734.4,-4.569,-3.6877
4746.1,-4.2635,-1.6173
4757.8,-3.4499,-0.92799
4769.5,-5.684,-3.802
4781.3,-8.5207,-3.7691
4793,-5.0551,-4.9456
4804.7,0.35312,-4.7125
4816.4,1.1051,-4.1711
4828.1,-1.9517,-6.9652
4839.8,-3.7373,-1.1833
4851.6,-2.2868,-1.1019
4863.3,-0.60633,-3.723
4875,-2.0392,-5.6239
4886.7,-0.62041,-2.4478
4898.4,-2.2694,-4.8212
4910.2,-2.6266,-1.4025
4921.9,-1.6625,-0.083391
4933.6,-4.3439,-1.304
4945.3,-4.5708,-3.1354
4957,-5.1033,-3.5864
4968.8,-6.6638,-5.3893
4980.5,-5.6062,-2.609
4992.2,-1.7657,-0.63781
5003.9,-1.7484,-3.6078
5015.6,-3.5606,-2.9684
5027.3,-5.1213,-4.0653
5039.1,-4.5082,-2.0623
5050.8,-3.3095,-1.7915
5062.5,-2.575,-5.2002
5074.2,-2.1677,-2.8217
5085.9,-5.2781,-1.5868
5097.7,-6.1287,-0.42664
5109.4,-1.7665,-2.4653
5121.1,-1.3079,-5.2973
5132.8,-5.0712,-2.0949
5144.5,-3.6025,-2.8353
5156.3,-3.8728,-4.6723
5168,-5.4449,-6.3824
5179.7,-4.4736,-7.3758
5191.4,-3.6201,-8.3414
5203.1,-5.9806,-4.407
5214.8,-2.6365,-3.8202
5226.6,-1.1519,-4.3064
5238.3,-4.3686,-3.1204
5250,-4.5771,-3.23
5261.7,-4.8419,-4.751
5273.4,-3.1776,-7.3729
5285.2,-5.2705,-4.8853
5296.9,-2.0947,-2.247
5308.6,-1.0573,-5.2407
5320.3,-3.734,-4.9539
5332,-5.0419,-3.806
5343.8,-5.6005,-5.1411
5355.5,-4.6842,-3.9911
5367.2,-6.7112,-4.1571
5378.9,-4.3175,-4.5788
5390.6,-3.4577,-5.3564
5402.3,-3.1405,-5.295
5414.1,-2.5811,-4.8314
5425.8,-3.472,-5.7934
5437.5,-4.6244,-7.9313
5449.2,-5.1783,-9.1128
5460.9,-6.3854,-7.4953
5472.7,-5.4841,-4.6294
5484.4,-3.6451,-4.6065
5496.1,-3.4667,-7.4527
5507.8,-4.8296,-6.9572
5519.5,-5.6397,-4.3702
5531.3,-5.0749,-4.6403
5543,-5.3867,-6.1386
5554.7,-6.3213,-3.3754
5566.4,-6.9238,-3.0407
5578.1,-7.7873,-4.5653
5589.8,-4.7287,-6.5032
5601.6,-3.1515,-2.3381
5613.3,-2.9262,-3.2273
5625,-2.5728,-8.4046
5636.7,-3.3455,-8.4926
5648.4,-6.3593,-5.6597
5660.2,-6.2777,-3.1934
5671.9,-3.917,-2.3332
5683.6,-4.2586,-2.6281
5695.3,-5.6773,-3.8123
5707,-5.3731,-5.0356
5718.8,-7.4581,-3.1536
5730.5,-9.317,-2.5446
5742.2,-7.6596,-1.9203
5753.9,-5.8457,-3.8533
5765.6,-6.3527,-6.0272
5777.3,-5.5217,-7.2507
5789.1,-3.5129,-6.402
5800.8,-5.3752,-6.5705
5812.5,-7.9177,-6.7612
5824.2,-6.5658,-4.9894
5835.9,-4.3156,-5.4899
5847.7,-5.082,-6.8601
5859.4,-4.2969,-7.3006
5871.1,-5.9753,-7.7037
5882.8,-8.3915,-7.3503
5894.5,-5.6639,-8.6214
5906.3,-5.3072,-7.3325
5918,-7.3235,-7.3234
5929.7,-7.23,-6.8018
5941.4,-4.0682,-8.0575
5953.1,-4.4713,-6.6439
5964.8,-1.1199,-7.2489
5976.6,3.1553,-6.1174
5988.3,-2.1381,-6.4351
6000,-5.3871,-4.7348
6011.7,-6.9195,-3.9977
6023.4,-9.0174,-7.1201
6035.2,-8.5311,-7.9135
6046.9,-7.7444,-7.155
6058.6,-8.6901,-4.8872
6070.3,-8.6546,-8.2685
6082,-10.347,-8.1258
6093.8,-4.7446,-7.6959
6105.5,-3.8727,-6.8353
6117.2,-4.8372,-6.9838
6128.9,-5.8673,-3.9853
6140.6,-4.7397,-3.5069
6152.3,-2.8735,-4.6005
6164.1,-2.274,-6.2391
6175.8,-5.6036,-8.0164
6187.5,-8.4289,-8.0435
6199.2,-8.0374,-6.5385
6210.9,-8.8342,-6.7394
6222.7,-8.4572,-6.8568
6234.4,-7.875,-7.3924
6246.1,-7.855,-6.297
6257.8,-7.9373,-4.1421
6269.5,-6.6569,-3.4979
6281.3,-5.6999,-5.1593
6293,-4.6683,-7.5856
6304.7,-6.1258,-9.488
6316.4,-9.3731,-9.7341
6328.1,-3.9269,-6.491
6339.8,-4.9198,-8.7014
6351.6,-6.1935,-5.6926
6363.3,-7.4065,-5.473
6375,-7.3825,-6.9818
6386.7,-7.0919,-8.4874
6398.4,-4.8941,-6.1023
6410.2,-3.9386,-8.0074
6421.9,-4.5161,-8.4734
6433.6,-5.0219,-4.6443
6445.3,-5.4166,-4.3067
6457,-7.2811,-4.4613
6468.8,-7.1019,-5.8079
6480.5,-4.5767,-6.9528
6492.2,-6.0479,-7.3354
6503.9,-8.8074,-8.1235
6515.6,-4.0841,-7.3309
6527.3,-5.2839,-8.1003
6539.1,-8.6429,-5.3572
6550.8,-5.9792,-4.1062
6562.5,-6.122,-4.9579
6574.2,-5.3254,-6.6294
6585.9,-5.5723,-5.5423
6597.7,-7.6515,-8.8839
6609.4,-6.4323,-6.8843
6621.1,-5.7536,-9.5126
6632.8,-5.9167,-9.9107
6644.5,-7.53,-8.7376
6656.3,-8.5704,-3.2766
6668,-6.8656,-3.6351
6679.7,-6.713,-4.8057
6691.4,-7.1208,-7.0195
6703.1,-8.2765,-5.3342
6714.8,-6.3778,-6.3546
6726.6,-6.0933,-9.2192
6738.3,-5.1674,-7.7995
6750,-4.7377,-6.4528
6761.7,-5.8847,-6.4955
6773.4,-4.7298,-5.6459
6785.2,-4.6612,-8.121
6796.9,-6.0389,-8.6611
6808.6,-7.1819,-7.1725
6820.3,-5.2597,-4.8365
6832,-6.1328,-6.3922
6843.8,-6.5786,-4.8993
6855.5,-3.7385,-4.5058
6867.2,-4.1631,-5.6152
6878.9,-5.3385,-10.256
6890.6,-1.2133,-8.8167
6902.3,-1.6996,-7.4438
6914.1,-6.7671,-5.0074
6925.8,-10.715,-4.4874
6937.5,-2.4969,-6.8349
6949.2,-3.5535,-6.0618
6960.9,-6.0219,-6.0932
6972.7,-3.8122,-6.4213
6984.4,-4.611,-7.9545
6996.1,-8.7628,-7.1823
7007.8,-11.519,-5.5762
7019.5,-9.6868,-8.1782
7031.3,-8.1032,-10.455
7043,-5.8502,-7.7073
7054.7,-8.3642,-5.7031
7066.4,-9.1214,-6.8696
7078.1,-7.3126,-7.711
7089.8,-4.357,-8.0846
7101.6,-4.3076,-9.6236
7113.3,-6.9875,-7.6338
7125,-5.3558,-9.0117
7136.7,-4.7392,-9.5004
7148.4,-9.2664,-9.4154
7160.2,-7.3332,-8.1339
7171.9,-6.3482,-10.009
7183.6,-6.6339,-7.3771
7195.3,-9.176,-8.7317
7207,-7.4557,-5.3053
7218.8,-4.8624,-9.6151
7230.5,-7.0805,-6.7552
7242.2,-7.2981,-6.2849
7253.9,-9.7628,-9.1967
7265.6,-8.6625,-9.2359
7277.3,-8.8205,-6.1608
7289.1,-10.393,-10.656
7300.8,-9.8793,-6.8291
7312.5,-8.7373,-5.923
7324.2,-8.6261,-10.834
7335.9,-10.079,-11.81
7347.7,-7.6764,-7.8401
7359.4,-9.5981,-8.1183
7371.1,-8.9282,-9.9997
7382.8,-6.9489,-10.536
7394.5,-6.6598,-8.6091
7406.3,-6.4242,-7.0462
7418,-5.6517,-8.0357
7429.7,-6.2242,-6.3882
7441.4,-8.6732,-6.9526
7453.1,-8.9465,-7.6313
7464.8,-6.8138,-8.9387
7476.6,-10.354,-7.4862
7488.3,-12.477,-9.1808
7500,-10.339,-11.825
7511.7,-8.0884,-11.022
7523.4,-8.6496,-9.3222
7535.2,-7.8164,-7.0399
7546.9,-7.5325,-4.9722
7558.6,-5.436,-4.9721
7570.3,-6.6666,-7.2349
7582,-8.3716,-8.2634
7593.8,-6.826,-8.9783
7605.5,-7.6057,-8.2346
7617.2,-11.254,-5.3176
7628.9,-12.619,-4.4702
7640.6,-9.8715,-7.1417
7652.3,-9.9401,-9.0248
7664.1,-11.466,-12.48
7675.8,-7.8449,-9.5443
7687.5,-8.1477,-5.2557
7699.2,-6.0292,-6.134
7710.9,-5.0662,-7.9666
7722.7,-7.9724,-7.938
7734.4,-10.222,-9.8752
7746.1,-8.9451,-9.7506
7757.8,-6.7693,-5.9946
7769.5,-8.8703,-7.5867
7781.3,-10.91,-8.5434
7793,-11.698,-8.0817
7804.7,-10.812,-8.8039
7816.4,-9.2688,-7.9037
7828.1,-11.772,-6.8978
7839.8,-8.6949,-8.442
7851.6,-9.6014,-9.2497
7863.3,-7.2442,-10.043
7875,-6.1113,-9.091
7886.7,-8.6222,-6.8384
7898.4,-7.9541,-9.3894
7910.2,-7.6421,-12.549
7921.9,-11.401,-12.423
7933.6,-8.1928,-9.2081
7945.3,-5.4966,-6.799
7957,-6.5081,-6.8297
7968.8,-7.507,-10.44
7980.5,-6.879,-10.711
7992.2,-6.4993,-9.0303
8003.9,-6.221,-7.323
8015.6,-7.9611,-8.5943
8027.3,-5.5457,-10.759
8039.1,-5.7236,-11.272
8050.8,-8.9009,-11.494
8062.5,-7.845,-11.113
8074.2,-9.2066,-10.704
8085.9,-9.7544,-9.7299
8097.7,-10.284,-12.452
8109.4,-8.7252,-10.453
8121.1,-7.4114,-7.6746
8132.8,-9.7625,-10.014
8144.5,-11.23,-9.2753
8156.3,-12.288,-9.9517
8168,-13.838,-10.781
8179.7,-8.8933,-10.961
8191.4,-8.1168,-9.7723
8203.1,-7.6,-7.3817
8214.8,-8.2739,-9.181
8226.6,-9.5056,-11.38
8238.3,-10.448,-9.2269
8250,-9.1446,-10.167
8261.7,-8.5176,-10.416
8273.4,-7.5075,-8.6578
8285.2,-5.9294,-9.7224
8296.9,-6.747,-11.214
8308.6,-9.9736,-9.8834
8320.3,-7.7767,-12.323
8332,-6.9024,-11.452
8343.8,-8.8139,-7.0759
8355.5,-9.5963,-6.5085
8367.2,-7.2579,-6.7284
8378.9,-5.5975,-7.5852
8390.6,-5.2801,-8.4512
8402.3,-9.3398,-9.9306
8414.1,-9.4195,-10.827
8425.8,-9.5848,-8.7846
8437.5,-6.6831,-9.2755
8449.2,-8.7796,-10.743
8460.9,-9.6734,-9.9927
8472.7,-8.9479,-8.3727
8484.4,-8.2247,-12.206
8496.1,-9.08,-11.505
8507.8,-9.9375,-13.159
8519.5,-12.049,-11.789
8531.3,-11.171,-11.41
8543,-10.549,-12.133
8554.7,-7.9463,-10.892
8566.4,-9.9536,-8.3085
8578.1,-12.472,-8.3915
8589.8,-10.631,-8.2428
8601.6,-8.4923,-8.1031
8613.3,-9.6279,-12.532
8625,-8.5175,-10.24
8636.7,-10.144,-7.3926
8648.4,-8.789,-9.2738
8660.2,-9.0473,-9.3338
8671.9,-9.1333,-7.9768
8683.6,-10.268,-7.8192
8695.3,-10.256,-7.4333
8707,-10.035,-9.2847
8718.8,-7.1256,-8.4914
8730.5,-7.8828,-9.3272
8742.2,-9.1799,-8.3527
8753.9,-9.701,-10.317
8765.6,-10.074,-11.696
8777.3,-8.212,-9.6528
8789.1,-8.7966,-8.1579
8800.8,-12.363,-9.8775
8812.5,-10.07,-10.463
8824.2,-11.577,-9.708
8835.9,-12.411,-10.477
8847.7,-10.951,-11.307
8859.4,-10.247,-14.717
8871.1,-11.441,-11.63
8882.8,-10.108,-11.085
8894.5,-8.6488,-11.456
8906.3,-8.9274,-11.206
8918,-7.9145,-10.503
8929.7,-8.1069,-11.254
8941.4,-8.9785,-10.361
8953.1,-11.107,-10.067
8964.8,-10.825,-8.7232
8976.6,-9.5594,-10.729
8988.3,-9.7046,-10.289
9000,-8.9379,-11.393
9011.7,-11.562,-10.693
9023.4,-13.035,-11.421
9035.2,-15.108,-12.264
9046.9,-12.348,-13.015
9058.6,-8.7538,-12.914
9070.3,-8.8367,-11.417
9082,-10.987,-10.151
9093.8,-12.505,-11.197
9105.5,-11.278,-11.663
9117.2,-8.3434,-10.388
9128.9,-9.3223,-12.056
9140.6,-10.533,-9.5213
9152.3,-9.863,-11.762
9164.1,-8.1216,-13.83
9175.8,-8.239,-10.844
9187.5,-9.5263,-8.8749
9199.2,-7.9689,-10.243
9210.9,-9.5604,-11.243
9222.7,-10.011,-14.98
9234.4,-9.1674,-12.852
9246.1,-7.6351,-11.834
9257.8,-12.071,-11.123
9269.5,-10.967,-12.397
9281.3,-8.6426,-12.285
9293,-8.8563,-10.6
9304.7,-10.167,-9.8712
9316.4,-11.455,-10.427
9328.1,-9.8583,-8.4549
9339.8,-7.9381,-11.574
9351.6,-8.4834,-13.531
9363.3,-12.881,-13.398
9375,-12.25,-11.469
9386.7,-12.484,-10.157
9398.4,-9.7365,-10.31
9410.2,-10.724,-12.439
9421.9,-8.7133,-13.414
9433.6,-6.6827,-14.614
9445.3,-10.294,-10.464
9457,-12.085,-9.0356
9468.8,-13.144,-9.2841
9480.5,-8.6177,-9.8885
9492.2,-7.0037,-8.282
9503.9,-8.2691,-11.488
9515.6,-8.7953,-14.521
9527.3,-12.003,-11.404
9539.1,-11.716,-11.087
9550.8,-10.616,-12.543
9562.5,-11.056,-11.249
9574.2,-11.357,-12.439
9585.9,-11.571,-11.344
9597.7,-11.761,-10.098
9609.4,-12.708,-12.406
9621.1,-13.38,-11.882
9632.8,-10.714,-9.6346
9644.5,-11.663,-8.1762
9656.3,-5.9404,-7.2813
9668,-9.9479,-10.148
9679.7,-15.246,-12.992
9691.4,-12.345,-11.237
9703.1,-8.7513,-12.06
9714.8,-8.2598,-12.466
9726.6,-11.873,-12.188
9738.3,-13.205,-11.063
9750,-10.345,-14.226
9761.7,-11.017,-16.766
9773.4,-12.459,-12.092
9785.2,-8.6888,-11.438
9796.9,-7.9273,-10.326
9808.6,-10.001,-10.695
9820.3,-10.69,-13.483
9832,-11.6,-13.123
9843.8,-9.7944,-13.106
9855.5,-8.7248,-13.936
9867.2,-8.2718,-12.025
9878.9,-10.179,-12.69
9890.6,-12.111,-16.194
9902.3,-8.6708,-12.355
9914.1,-9.306,-10.314
9925.8,-12.239,-12.393
9937.5,-11.739,-12.889
9949.2,-10.342,-14.557
9960.9,-8.675,-18.124
9972.7,-10.591,-12.619
9984.4,-11.678,-8.9263
9996.1,-10.874,-9.8768
10008,-9.0875,-10.078
10020,-11.903,-11.151
10031,-12.472,-11.524
10043,-10.294,-11.218
10055,-11.788,-11.641
10066,-13.533,-14.141
10078,-12.519,-18.67
10090,-11.492,-15.845
10102,-10.827,-14.358
10113,-10.029,-14.822
10125,-11.386,-11.676
10137,-10.867,-14.298
10148,-12.825,-10.893
10160,-12.228,-10.099
10172,-12.556,-10.914
10184,-14.027,-12.447
10195,-10.025,-12.983
10207,-7.2286,-13.051
10219,-9.7115,-13.218
10230,-12.478,-11.842
10242,-10.171,-11.696
10254,-9.1362,-13.579
10266,-10.63,-12.709
10277,-11.101,-13.474
10289,-9.2114,-11.398
10301,-11.367,-11.85
10313,-10.308,-9.3254
10324,-11.54,-10.314
10336,-14.669,-10.473
10348,-13.334,-10.348
10359,-10.56,-12.705
10371,-11.291,-17.591
10383,-13.145,-12.92
10395,-10.852,-12.679
10406,-10.047,-12.674
10418,-11.074,-11.11
10430,-9.4109,-11.422
10441,-11.543,-11.261
10453,-10.246,-12.019
10465,-12.606,-11.832
10477,-12.269,-11.782
10488,-10.13,-14.758
10500,-11.404,-13.336
10512,-13.347,-10.634
10523,-11.681,-10.765
10535,-10.625,-13.024
10547,-9.8304,-13.461
10559,-11.263,-13.245
10570,-13.201,-13.4
10582,-13.012,-13.299
10594,-12.955,-14.188
10605,-11.504,-14.737
10617,-11.357,-12.667
10629,-13.429,-9.989
10641,-14.598,-9.5711
10652,-14.109,-11.697
10664,-11.117,-13.185
10676,-9.2212,-14.112
10688,-10.26,-12.256
10699,-12.361,-15.401
10711,-9.9337,-14.117
10723,-13.826,-11.814
10734,-13.303,-14.458
10746,-14.326,-14.585
10758,-14.728,-14.243
10770,-15.547,-14.253
10781,-13.644,-12.61
10793,-11.144,-13.497
10805,-13.201,-14.691
10816,-15.927,-14.76
10828,-13.785,-11.072
10840,-13.638,-12.828
10852,-13.937,-14.847
10863,-14.174,-12.589
10875,-13.445,-15.486
10887,-16.224,-13.657
10898,-12.124,-14.995
10910,-10.841,-15.985
10922,-13.593,-16.404
10934,-16.178,-16.236
10945,-17.395,-13.737
10957,-16.697,-12.563
10969,-13.703,-15.338
10980,-13.558,-15.817
10992,-15.209,-15.425
11004,-14.342,-12.475
11016,-13.865,-13.379
11027,-12.251,-16.37
11039,-8.7816,-16.341
11051,-9.1856,-15.395
11063,-11.526,-16.052
11074,-10.828,-11.836
11086,-13.786,-14.657
11098,-12.806,-13.032
11109,-12.895,-11.793
11121,-11.522,-15.832
11133,-10.908,-11.035
11145,-12.436,-13.927
11156,-13.422,-12.704
11168,-14.453,-15.791
11180,-14.327,-14.982
11191,-15.068,-13.063
11203,-15.479,-14.193
11215,-11.175,-16.173
11227,-9.3287,-15.069
11238,-12.143,-12.767
11250,-10.019,-16.269
11262,-8.5551,-13.847
11273,-11.662,-12.569
11285,-15.249,-13.817
11297,-11.817,-18.276
11309,-10.32,-18.279
11320,-11.983,-13.59
11332,-11.96,-12.242
11344,-12.687,-13.758
11355,-11.761,-14.802
11367,-13.175,-15.336
11379,-11.68,-12.923
11391,-11.097,-13.79
11402,-12.084,-12.53
11414,-11.31,-12.674
11426,-10.859,-14.319
11438,-12.033,-13.453
11449,-11.636,-11.99
11461,-12.255,-10.217
11473,-14.056,-12.715
11484,-13.969,-14.848
11496,-13.002,-15.612
11508,-11.251,-15.106
11520,-11.641,-14.243
11531,-11.761,-16.58
11543,-11.173,-16.595
11555,-12.73,-17.932
11566,-13.358,-14.576
11578,-11.869,-12.373
11590,-11.877,-14.669
11602,-10.258,-10.898
11613,-11.817,-14.477
11625,-11.746,-17.993
11637,-13.543,-16.422
11648,-15.162,-14.93
11660,-10.748,-14.212
11672,-12.424,-13.773
11684,-12.629,-12.274
11695,-12.94,-11.031
11707,-11.661,-12.543
11719,-11.232,-14.553
11730,-12.596,-13.624
11742,-14.199,-12.656
11754,-9.8159,-15.074
11766,-10.777,-15.241
11777,-10.953,-15.413
11789,-11.483,-13.22
11801,-9.5818,-12.757
11813,-13.735,-13.379
11824,-12.153,-14.548
11836,-12.923,-15.743
11848,-15.313,-15.916
11859,-10.922,-18.22
11871,-10.238,-16.891
11883,-9.1216,-14.579
11895,-10.17,-13.326
11906,-12.272,-13.923
11918,-12.932,-12.973
11930,-11.586,-14.059
11941,-11.152,-15.374
11953,-12.448,-13.14
11965,-12.908,-14.567
11977,-14.446,-16.888
11988,-11.219,-17.105
12000,-9.282,-17.172
12012,-10.986,-13.279
12023,-12.712,-12.078
12035,-12.889,-13.754
12047,-11.959,-13.636
12059,-12.946,-14.284
12070,-14.989,-15.906
12082,-13.062,-16.671
12094,-10.745,-15.234
12105,-9.7022,-13.899
12117,-13.045,-12.433
12129,-14.218,-12.684
12141,-12.161,-14.741
12152,-11.366,-16.149
12164,-12.169,-16.952
12176,-14.549,-13.49
12188,-14.143,-13.424
12199,-10.887,-13.36
12211,-14.589,-14.146
12223,-14.738,-16.909
12234,-15.428,-12.944
12246,-16.435,-15.041
12258,-13.511,-16.125
12270,-14.129,-18.268
12281,-12.796,-14.955
12293,-14.473,-14.711
12305,-14.549,-14.912
12316,-12.481,-15.001
12328,-12.946,-13.708
12340,-14.517,-13.173
12352,-14.438,-13.976
12363,-14.354,-13.969
12375,-13.548,-13.572
12387,-12.979,-13.997
12398,-13.674,-14.333
12410,-7.6614,-16.909
12422,-8.3686,-15.944
12434,-11.621,-15.275
12445,-12.955,-11.91
12457,-8.9787,-12.182
12469,-10.626,-16.369
12480,-12.283,-18.171
12492,-14.958,-15.807
12504,-17.811,-15.668
12516,-13.998,-18.579
12527,-13.23,-16.225
12539,-16.289,-12.968
12551,-13.599,-11.317
12563,-12.163,-12.206
12574,-11.77,-13.81
12586,-11.166,-14.189
12598,-10.454,-15.452
12609,-11.253,-17.013
12621,-13.254,-14.892
12633,-13.789,-18.2
12645,-13.206,-18.722
12656,-13.933,-19.095
12668,-14.268,-16.797
12680,-13.645,-14.629
12691,-13.748,-15.539
12703,-11.794,-17.565
12715,-12.171,-16.447
12727,-12.588,-17.886
12738,-12.022,-16.903
12750,-12.154,-19.111
12762,-15.358,-18.346
12773,-11.37,-14.443
12785,-10.184,-13.919
12797,-11.241,-16.825
12809,-13.89,-17.429
12820,-11.815,-16.352
12832,-11.374,-17.178
12844,-15.319,-16.977
12855,-14.15,-16.163
12867,-13.696,-14.617
12879,-14.461,-13.425
12891,-13.844,-14.52
12902,-13.441,-15.073
12914,-14.099,-14.639
12926,-12.943,-17.985
12938,-12.963,-17.092
12949,-13.126,-17.382
12961,-14.87,-18.235
12973,-14.961,-16.215
12984,-17.162,-13.767
12996,-13.874,-16.009
13008,-11.395,-16.067
13020,-11.096,-15.137
13031,-12.018,-12.38
13043,-13.46,-11.636
13055,-14.111,-14.158
13066,-13.566,-18.224
13078,-14.129,-16.663
13090,-15.432,-17.21
13102,-15.241,-17.281
13113,-12.919,-16.651
13125,-11.293,-17.975
13137,-12.136,-16.366
13148,-17.432,-16.442
13160,-16.83,-16.461
13172,-16.959,-17.271
13184,-17.695,-17.19
13195,-11.913,-14.548
13207,-10.934,-16.496
13219,-16.144,-16.005
13230,-14.444,-15.952
13242,-12.808,-16.541
13254,-13.228,-17.753
13266,-15.117,-19.874
13277,-16.665,-16.718
13289,-14.913,-18.819
13301,-15.089,-16.889
13313,-12.191,-15.711
13324,-5.4632,-16.518
13336,-6.1817,-15.791
13348,-13.655,-16.22
13359,-17.011,-18.169
13371,-15.521,-16.996
13383,-12.631,-15.336
13395,-13.226,-14.277
13406,-13.274,-14.726
13418,-13.499,-14.897
13430,-12.804,-17.161
13441,-12.452,-20.81
13453,-16.374,-18.487
13465,-11.813,-17.813
13477,-11.415,-16.323
13488,-11.289,-12.384
13500,-11.828,-13.402
13512,-15.577,-17.373
13523,-13.242,-15.151
13535,-12.949,-14.916
13547,-14.301,-18.135
13559,-15.176,-16.076
13570,-16.962,-13.471
13582,-14.827,-15.751
13594,-13.033,-18.795
13605,-13.155,-14.022
13617,-14.835,-13.56
13629,-13.962,-14.593
13641,-14.792,-17.176
13652,-15.484,-16.191
13664,-11.77,-12.399
13676,-11.813,-14.686
13688,-11.071,-15.722
13699,-13.76,-13.262
13711,-16.839,-14.625
13723,-16.142,-17.778
13734,-15.723,-22.841
13746,-13.897,-18.661
13758,-13.233,-18.297
13770,-12.626,-17.949
13781,-13.708,-17.747
13793,-15.91,-16.462
13805,-14.441,-16.499
13816,-15.657,-19.304
13828,-13.678,-16.858
13840,-13.028,-15.774
13852,-15.656,-16.645
13863,-17.218,-18.073
13875,-15.595,-16.397
13887,-14.338,-13.541
13898,-15.053,-14.044
13910,-14.056,-14.722
13922,-13.14,-16.71
13934,-14.583,-19.096
13945,-12.552,-17.801
13957,-13.911,-16.644
13969,-13.905,-15.75
13980,-16.164,-16.362
13992,-15.864,-15.585
14004,-16.099,-15.395
14016,-18.892,-16.273
14027,-17.084,-14.546
14039,-15.742,-15.61
14051,-13.619,-17.302
14063,-12.527,-19.046
14074,-12.848,-15.426
14086,-15.764,-15.126
14098,-15.331,-17.38
14109,-15.856,-17.011
14121,-15.973,-16.767
14133,-16.724,-19.037
14145,-19.186,-20.043
14156,-16.644,-18.249
14168,-11.956,-16.88
14180,-12.725,-17.737
14191,-13.296,-17.731
14203,-15.544,-17.792
14215,-16.986,-16.403
14227,-19.888,-18.943
14238,-16.845,-17.645
14250,-11.851,-15.161
14262,-12.444,-14.912
14273,-14.686,-14.672
14285,-16.59,-17.084
14297,-19.118,-19.654
14309,-19.163,-19.071
14320,-18.335,-17.691
14332,-17.137,-16.053
14344,-16.236,-18.064
14355,-17.235,-18.59
14367,-16.424,-17.413
14379,-16.845,-18.363
14391,-18.013,-19.059
14402,-16.848,-19.324
14414,-18.917,-18.371
14426,-20.302,-19.224
14438,-18.294,-19.116
14449,-15.973,-19.388
14461,-17.974,-20.285
14473,-18.49,-17.584
14484,-14.557,-18.715
14496,-15.923,-17.754
14508,-17.379,-19.026
14520,-16.63,-14.415
14531,-16.502,-15.7
14543,-16.411,-19.926
14555,-17.056,-14.427
14566,-15.613,-15.545
14578,-17.034,-19.601
14590,-18.125,-19.036
14602,-19.077,-18.488
14613,-18.507,-18.55
14625,-18.808,-18.373
14637,-21.082,-17.953
14648,-17.927,-18.077
14660,-16.599,-20.396
14672,-16.696,-16.372
14684,-15.766,-16.626
14695,-15.823,-19.738
14707,-20.511,-17.767
14719,-17.935,-19.568
14730,-18.613,-15.476
14742,-17.788,-18.767
14754,-15.43,-19.227
14766,-14.909,-15.66
14777,-15.745,-16.186
14789,-16.158,-19.364
14801,-14.634,-19.757
14813,-17.468,-20.612
14824,-20.282,-17.692
14836,-19.527,-15.964
14848,-17.523,-19.691
14859,-15.941,-20.753
14871,-15.479,-18.351
14883,-16.923,-17.347
14895,-18.02,-17.522
14906,-18.377,-18.572
14918,-18.035,-19.898
14930,-17.459,-20.816
14941,-19.389,-20.727
14953,-18.891,-18.773
14965,-17.767,-17.122
14977,-13.917,-18.003
14988,-15.193,-17.978
15000,-16.275,-20.36
15012,-16.32,-19.819
15023,-15.608,-19.662
15035,-15.058,-18.563
15047,-17.787,-18.099
15059,-19.344,-18.717
15070,-17.741,-18.037
15082,-14.341,-17.329
15094,-13.194,-18.707
15105,-13.991,-19.173
15117,-16.296,-15.736
15129,-17.967,-15.746
15141,-18.052,-18.767
15152,-21.168,-19.934
15164,-18.488,-17.318
15176,-17.029,-18.893
15188,-16.99,-17.461
15199,-17.601,-17.968
15211,-21.422,-17.905
15223,-19.367,-16.209
15234,-18.24,-16.015
15246,-17.695,-20.094
15258,-18.241,-20.656
15270,-16.858,-21.878
15281,-18.103,-20.474
15293,-19.906,-19.414
15305,-18.4,-19.822
15316,-17.138,-19.693
15328,-17.949,-18.043
15340,-17.223,-17.248
15352,-17.537,-17.872
15363,-16.533,-18.739
15375,-16.814,-16.772
15387,-19.215,-18.425
15398,-18.602,-19.582
15410,-18.917,-17.118
15422,-21.356,-17.955
15434,-16.541,-19.713
15445,-16.69,-18.044
15457,-19.071,-19.346
15469,-20.104,-21.993
15480,-18.663,-18.161
15492,-18.479,-19.54
15504,-18.628,-20.739
15516,-15.656,-19.969
15527,-16.662,-19.855
15539,-16.813,-18.571
15551,-19.969,-16.655
15563,-19.203,-20.024
15574,-18.796,-19.823
15586,-19.699,-20.674
15598,-18.67,-18.684
15609,-17.64,-17.671
15621,-17.88,-18.347
15633,-19.862,-19.119
15645,-22.428,-19.012
15656,-17.844,-18.715
15668,-18.092,-18.569
15680,-17.32,-15.973
15691,-18.417,-17.577
15703,-21.595,-18.184
15715,-19.254,-19.999
15727,-18.726,-19.238
15738,-19.731,-22.563
15750,-18.768,-18.232
15762,-18.223,-19.726
15773,-15.581,-17.819
15785,-17.758,-18.382
15797,-18.378,-20.672
15809,-18.144,-20.934
15820,-18.698,-19.031
15832,-17.84,-17.939
15844,-17.109,-18.446
15855,-18.329,-19.725
15867,-19.215,-22.439
15879,-18.456,-20.163
15891,-21.516,-18.114
15902,-19.057,-20.218
15914,-18.578,-19.939
15926,-18.926,-19.058
15938,-17.409,-17.306
15949,-17.558,-17.204
15961,-18.453,-18.966
15973,-21.571,-21.254
15984,-21.86,-20.68
15996,-16.753,-16.926
16008,-15.811,-15.556
16020,-15.881,-18.561
16031,-17.559,-17.792
16043,-17.634,-19.65
16055,-17.546,-18.587
16066,-22.355,-18.882
16078,-19.556,-21.57
16090,-15.381,-20.314
16102,-17.297,-19.818
16113,-22.305,-19.89
16125,-18.773,-19.851
16137,-22.612,-20.767
16148,-18.567,-23.283
16160,-17.669,-22.358
16172,-18.434,-20.315
16184,-18.533,-19.081
16195,-21.557,-20.602
16207,-24.02,-19.408
16219,-20.734,-21.896
16230,-19.655,-22.205
16242,-20.264,-18.72
16254,-18.185,-17.803
16266,-18.05,-21.34
16277,-18.542,-20.864
16289,-18.294,-17.192
16301,-17.138,-18.95
16313,-19.853,-19.87
16324,-20.638,-15.862
16336,-19.851,-17.514
16348,-20.332,-21.716
16359,-21.629,-20.49
16371,-21.545,-20.501
16383,-19.94,-22.569
16395,-19.586,-21.767
16406,-22.245,-20.93
16418,-25.44,-21.033
16430,-21.754,-21.857
16441,-20.322,-22.837
16453,-21.687,-21.619
16465,-19.013,-22.179
16477,-18.114,-24.539
16488,-19.158,-20.995
16500,-18.302,-21.601
16512,-20.457,-19.021
16523,-18.634,-19.11
16535,-19.916,-21.178
16547,-22.091,-22.893
16559,-22.767,-21.498
16570,-20.116,-22.368
16582,-19.999,-22.579
16594,-22.276,-20.59
16605,-21.872,-20.331
16617,-22.611,-21.13
16629,-22.262,-23.146
16641,-24.228,-21.468
16652,-22.854,-22.33
16664,-21.946,-22.623
16676,-20.444,-20.547
16688,-23.819,-21.29
16699,-20.705,-19.79
16711,-20.053,-19.342
16723,-19.112,-20.054
16734,-20.127,-23.992
16746,-20.096,-24.018
16758,-15.797,-20.705
16770,-18.93,-21.237
16781,-22.64,-20.541
16793,-19.883,-19.059
16805,-20.017,-20.372
16816,-22.386,-21.853
16828,-25.19,-22.128
16840,-21.232,-23.172
16852,-19.353,-20.612
16863,-19.087,-20.016
16875,-19.89,-23.373
16887,-19.825,-22.783
16898,-21.565,-22.263
16910,-22.023,-23.178
16922,-19.361,-21.018
16934,-20.817,-21.252
16945,-22.079,-23.683
16957,-21.517,-21.284
16969,-19.615,-21.65
16980,-18.814,-20.944
16992,-21.306,-21.316
17004,-20.182,-20.195
17016,-21.154,-26.18
17027,-18.646,-26.685
17039,-16.11,-24.874
17051,-20.615,-22.33
17063,-22.465,-22.216
17074,-21.661,-22.419
17086,-23.96,-23.636
17098,-22.203,-22.631
17109,-21.403,-20.322
17121,-21.158,-20.174
17133,-20.755,-21.624
17145,-20.46,-23.123
17156,-23.968,-22.584
17168,-25.371,-21.685
17180,-23.4,-22.08
17191,-20.817,-21.733
17203,-18.536,-21.736
17215,-21.161,-25.105
17227,-21.93,-20.752
17238,-22.36,-20.496
17250,-20.828,-22.971
17262,-22.228,-24.145
17273,-22.51,-21.443
17285,-22.132,-22.609
17297,-23.993,-21.751
17309,-24.117,-23.778
17320,-22.714,-21.741
17332,-23.381,-23.916
17344,-23.061,-23.642
17355,-23.208,-26.499
17367,-19.611,-23.788
17379,-20.922,-22.878
17391,-25.607,-24.035
17402,-24.241,-24.422
17414,-24.635,-22.111
17426,-23.876,-21.754
17438,-24.108,-21.138
17449,-21.899,-24.726
17461,-18.11,-23.281
17473,-18.983,-23.999
17484,-19.537,-23.347
17496,-19.607,-22.744
17508,-20.261,-23.863
17520,-21.203,-22.538
17531,-21.912,-21.193
17543,-22.202,-22.909
17555,-20.294,-25.535
17566,-21.1,-21.519
17578,-22.632,-20.939
17590,-21.134,-20.651
17602,-22.713,-23.263
17613,-22.716,-21.938
17625,-23.524,-22.46
17637,-23.199,-22.179
17648,-22.478,-22.531
17660,-18.914,-22.054
17672,-19.492,-22.608
17684,-20.403,-21.92
17695,-20.21,-22.893
17707,-18.796,-24.067
17719,-19.338,-24.005
17730,-19.134,-21.981
17742,-20.896,-22.801
17754,-22.875,-19.596
17766,-21.351,-23.318
17777,-21.916,-24.129
17789,-24.901,-20.692
17801,-21.708,-23.138
17813,-21.116,-23.738
17824,-22.894,-21.028
17836,-22.928,-21.488
17848,-24.279,-23.945
17859,-24.371,-22.597
17871,-22.224,-20.729
17883,-24.444,-20.881
17895,-22.873,-21.055
17906,-22.642,-19.32
17918,-22.423,-22.292
17930,-25.136,-25.058
17941,-27.234,-23.755
17953,-23.559,-22.449
17965,-19.501,-21.219
17977,-21.451,-23.119
17988,-23.942,-23.767
18000,-21.802,-20.133
18012,-22.585,-23.231
18023,-22.403,-21.571
18035,-20.686,-21.229
18047,-20.974,-24.964
18059,-22.223,-22.571
18070,-21.429,-20.941
18082,-22.292,-22.851
18094,-26.715,-23.983
18105,-24.761,-22.634
18117,-20.97,-22.999
18129,-22.239,-23.055
18141,-22.831,-21.303
18152,-23.905,-20.207
18164,-23.695,-22.981
18176,-22.804,-24.481
18188,-23.246,-21.692
18199,-22.496,-21.181
18211,-23.066,-22.236
18223,-25.116,-26.825
18234,-26.459,-23.304
18246,-25.803,-23.58
18258,-22.109,-20.893
18270,-23.741,-21.456
18281,-24.616,-24.264
18293,-19.678,-25.94
18305,-19.917,-22.943
18316,-22.08,-21.727
18328,-23.046,-21.075
18340,-21.708,-21.195
18352,-21.584,-20.201
18363,-23.46,-21.775
18375,-23.734,-22.602
18387,-25.479,-20.782
18398,-23.501,-22.078
18410,-21.184,-26.96
18422,-19.279,-24.658
18434,-22.577,-26.684
18445,-23.656,-25.82
18457,-24.376,-25.429
18469,-21.999,-25.927
18480,-23.822,-25.168
18492,-25.146,-23.43
18504,-24.183,-23.59
18516,-20.878,-26.989
18527,-20.906,-26.026
18539,-23.206,-21.741
18551,-24.168,-19.901
18563,-24.934,-24.358
18574,-24.789,-22.883
18586,-21.845,-24.213
18598,-20.485,-24.582
18609,-23.965,-23.285
18621,-26.838,-20.672
18633,-22.13,-22.601
18645,-21.67,-25.024
18656,-20.829,-26.611
18668,-24.51,-25.126
18680,-24.767,-24.558
18691,-24.28,-27.56
18703,-24.545,-25.231
18715,-21.673,-23.929
18727,-22.941,-23.418
18738,-23.933,-22.987
18750,-23.608,-24.467
18762,-21.694,-25.868
18773,-22.601,-25.946
18785,-25.58,-25.366
18797,-25.092,-23.892
18809,-23.384,-23.759
18820,-22.182,-23.266
18832,-21.725,-23.449
18844,-24.077,-23.207
18855,-24.32,-23.688
18867,-22.86,-22.625
18879,-21.338,-22.21
18891,-23.06,-23.362
18902,-24.848,-24.579
18914,-25.151,-25.304
18926,-25.965,-24.582
18938,-25.119,-25.315
18949,-24.633,-27.18
18961,-25.039,-26.026
18973,-23.567,-24.884
18984,-23.344,-25.538
18996,-24.764,-23.09
19008,-26.758,-23.835
19020,-22.922,-24.293
19031,-23.504,-25.036
19043,-25.286,-23.513
19055,-26.548,-24.243
19066,-26.598,-24.825
19078,-27.753,-23.071
19090,-25.103,-21.646
19102,-24.261,-22.003
19113,-24.292,-24.181
19125,-23.991,-26.156
19137,-25.562,-24.528
19148,-26.113,-27.081
19160,-25.775,-25.4
19172,-20.972,-23.953
19184,-19.664,-25.931
19195,-22.031,-24.051
19207,-24.943,-21.344
19219,-26.086,-23.9
19230,-25.329,-23.795
19242,-25.013,-25.919
19254,-25.252,-23.357
19266,-26.17,-23.804
19277,-27.718,-24.149
19289,-23.891,-22.98
19301,-25.938,-26.848
19313,-24.988,-25.687
19324,-23.075,-23.742
19336,-21.548,-23.627
19348,-23.209,-23.357
19359,-22.597,-26.129
19371,-21.983,-24.441
19383,-21.632,-25.601
19395,-22.711,-26.47
19406,-25.176,-22.946
19418,-25.001,-23.021
19430,-26.061,-27.398
19441,-22.904,-26.601
19453,-22.789,-24.077
19465,-26.196,-22.579
19477,-23.744,-23.573
19488,-21.409,-24.462
19500,-22.776,-24.618
19512,-24.815,-27.317
19523,-25.072,-27.275
19535,-22.955,-25.861
19547,-22.667,-23.801
19559,-23.043,-24.271
19570,-25.987,-23.021
19582,-22.987,-24.37
19594,-23.253,-26.985
19605,-25.082,-25.683
19617,-24.875,-25.192
19629,-23.133,-29.105
19641,-24.964,-29.679
19652,-25.724,-27.374
19664,-27.164,-27.175
19676,-23.64,-28.225
19688,-23.725,-28.94
19699,-22.91,-25.354
19711,-23.663,-21.424
19723,-24.91,-22.809
19734,-24.761,-26.401
19746,-24.428,-27.392
19758,-25.047,-26.257
19770,-24.27,-24.587
19781,-22.639,-25.083
19793,-21.047,-24.321
19805,-19.491,-24.882
19816,-23.108,-25.55
19828,-25.239,-26.14
19840,-25.322,-24.857
19852,-24.69,-26.994
19863,-24.259,-26.31
19875,-24.65,-26.73
19887,-25.227,-24.634
19898,-24.085,-25.726
19910,-23.792,-25.939
19922,-25.384,-26.34
19934,-25.151,-25.661
19945,-24.494,-28.504
19957,-24.052,-28.39
19969,-27.591,-25.988
19980,-26.196,-25.552
19992,-23.194,-26.94
20004,-22.993,-28.894
20016,-26.697,-23.936
20027,-25.75,-24.388
20039,-25.391,-25.873
20051,-25.771,-25.518
20063,-24.795,-26.762
20074,-24.463,-23.956
20086,-24.137,-25.877
20098,-24.816,-26.583
20109,-24.489,-26.356
20121,-22.409,-27.571
20133,-24.355,-25.525
20145,-24.78,-25.347
20156,-23.536,-26.572
20168,-23.25,-26.289
20180,-25.455,-26.377
20191,-30.67,-26.874
20203,-29.42,-26.683
20215,-27.965,-26.597
20227,-27.591,-30.205
20238,-25.315,-30.949
20250,-24.611,-27.578
20262,-27.932,-26.523
20273,-26.428,-25.201
20285,-24.029,-27.477
20297,-24.36,-26.634
20309,-25.58,-28.823
20320,-25.298,-24.435
20332,-25.648,-26.15
20344,-26.92,-22.983
20355,-27.401,-24.966
20367,-24.998,-26.508
20379,-21.714,-25.366
20391,-22.373,-24.412
20402,-21.888,-25.94
20414,-23.101,-27.168
20426,-22.759,-26.365
20438,-22.68,-25.88
20449,-24.391,-27.41
20461,-27.668,-25.485
20473,-29.151,-24.638
20484,-28.07,-26.753
20496,-25.555,-27.584
20508,-24.707,-23.778
20520,-26.264,-21.984
20531,-24.907,-23.631
20543,-27.779,-26.306
20555,-27.327,-26.079
20566,-25.989,-24.916
20578,-27.398,-25.392
20590,-23.814,-27.831
20602,-22.635,-28.68
20613,-24.742,-28.936
20625,-27.032,-28.519
20637,-26.564,-26.054
20648,-25.079,-23.99
20660,-26.292,-25.653
20672,-26.389,-24.201
20684,-27.984,-22.33
20695,-23.624,-21.374
20707,-23.688,-24.142
20719,-27.437,-28.19
20730,-25.59,-26.744
20742,-22.923,-25.493
20754,-21.168,-27.904
20766,-23.837,-28.216
20777,-25.148,-27.411
20789,-28.364,-28.375
20801,-26.458,-26.947
20813,-25.061,-28.499
20824,-25.761,-28.423
20836,-29.632,-27.595
20848,-27.55,-27.762
20859,-28.651,-24.961
20871,-25.472,-25.319
20883,-21.784,-27.301
20895,-23.513,-26.826
20906,-26.335,-26.664
20918,-30.209,-24.021
20930,-27.172,-21.84
20941,-22.959,-22.392
20953,-21.951,-25.04
20965,-25.058,-26.67
20977,-27.155,-25.973
20988,-26.686,-26.822
21000,-26.292,-25.402
21012,-27.503,-26.066
21023,-28.005,-25.2
21035,-25.966,-26.481
21047,-26.876,-27.374
21059,-25.783,-27.548
21070,-24.967,-26.132
21082,-24.48,-28.846
21094,-25.091,-26.424
21105,-26.298,-26.523
21117,-26.528,-28.274
21129,-25.177,-31.631
21141,-24.904,-25.587
21152,-25.918,-23.968
21164,-29.256,-26.104
21176,-25.609,-28.157
21188,-22.217,-27.275
21199,-23.044,-27.806
21211,-23.518,-27.427
21223,-26.263,-24.923
21234,-25.777,-27.146
21246,-25.43,-26.553
21258,-26.931,-25.614
21270,-29.109,-24.873
21281,-27.674,-26.094
21293,-27.721,-28.301
21305,-26.949,-29.088
21316,-27.733,-26.314
21328,-28.431,-24.971
21340,-29.603,-25.336
21352,-26.297,-26.649
21363,-27.319,-26.668
21375,-27.078,-23.291
21387,-26.327,-25.29
21398,-29.507,-27.735
21410,-27.868,-28.062
21422,-26.055,-26.516
21434,-26.373,-22.283
21445,-25.516,-24.622
21457,-23.755,-23.403
21469,-23.705,-23.94
21480,-23.648,-25.541
21492,-26.313,-23.528
21504,-26.397,-26.601
21516,-25.154,-26.194
21527,-25.843,-24.75
21539,-26.084,-25.027
21551,-28.808,-29.361
21563,-30.287,-28.661
21574,-27.077,-25.56
21586,-25.989,-24.326
21598,-26.696,-26.891
21609,-25.06,-27.796
21621,-27.22,-27.802
21633,-30.153,-26.402
21645,-28.891,-27.642
21656,-24.637,-26.518
21668,-24.029,-28.933
21680,-26.385,-25.43
21691,-26.006,-23.567
21703,-23.665,-26.637
21715,-23.392,-29.7
21727,-25.532,-25.022
21738,-29.361,-23.012
21750,-26.842,-27.106
21762,-27.412,-27.359
21773,-27.314,-26.835
21785,-25.886,-24.116
21797,-25.597,-24.078
21809,-25.969,-24.873
21820,-29.063,-25.936
21832,-31.517,-28.585
21844,-28.366,-30.013
21855,-27.734,-29.29
21867,-26.299,-28.881
21879,-26.04,-26.523
21891,-27.751,-25.409
21902,-26.942,-28.849
21914,-29.224,-26.938
21926,-25.578,-26.152
21938,-23.376,-27.63
21949,-25.447,-29.607
21961,-28.062,-31.618
21973,-26.368,-28.307
21984,-25.22,-27.204
21996,-27.57,-25.362
22008,-30.785,-24.774
22020,-28.321,-27.074
22031,-28.924,-26.698
22043,-28.751,-26.203
22055,-26.405,-29.247
22066,-25.91,-27.889
22078,-27.651,-31.475
22090,-28.013,-30.196
22102,-25.929,-30.227
22113,-26.504,-32.244
22125,-26.124,-31.165
22137,-26.649,-30.574
22148,-24.499,-30.448
22160,-25.569,-28.721
22172,-28.964,-30.373
22184,-28.071,-28.356
22195,-25.67,-28.377
22207,-28.185,-31.404
22219,-31.248,-29.832
22230,-28.542,-27.197
22242,-25.654,-27.542
22254,-25.731,-28.911
22266,-26.063,-32.429
22277,-26.679,-28.58
22289,-27.523,-26.195
22301,-26.055,-27.194
22313,-25.272,-26.27
22324,-25.259,-25.977
22336,-25.889,-26.6
22348,-26.962,-29.467
22359,-27.736,-29.97
22371,-28.345,-30.977
22383,-26.096,-28.729
22395,-26.207,-25.695
22406,-28.631,-26.457
22418,-27.483,-27.23
22430,-26.259,-27.417
22441,-25.843,-27.958
22453,-25.092,-26.977
22465,-26.953,-28.74
22477,-27.412,-27.291
22488,-29.324,-25.181
22500,-29.588,-27.082
22512,-28.471,-27.237
22523,-28.387,-26.853
22535,-31.315,-27.56
22547,-27.373,-27.856
22559,-27.016,-27.232
22570,-28.302,-25.59
22582,-27.289,-28.667
22594,-25.627,-29.042
22605,-24.762,-27.02
22617,-24.477,-27.724
22629,-25.947,-28.531
22641,-28.96,-28.363
22652,-29.554,-29.826
22664,-27.97,-31.205
22676,-27.752,-32.069
22688,-26.463,-30.174
22699,-23.86,-31.093
22711,-23.979,-29.118
22723,-26.109,-31.715
22734,-27.345,-28.474
22746,-24.275,-26.792
22758,-23.681,-28.315
22770,-27.465,-29.177
22781,-28.622,-28.689
22793,-29.36,-29.027
22805,-29.257,-30.487
22816,-30.641,-29.882
22828,-31.655,-25.673
22840,-27.196,-27.314
22852,-26.1,-27.507
22863,-27.224,-24.908
22875,-25.646,-27.894
22887,-27.464,-29.727
22898,-30.181,-27.712
22910,-29.033,-29.654
22922,-27.538,-27.713
22934,-26.781,-29.853
22945,-26.429,-29.48
22957,-26.659,-28.544
22969,-27.445,-29.45
22980,-25.569,-29.136
22992,-25.763,-26.272
23004,-25.796,-27.06
23016,-24.91,-24.971
23027,-25.98,-25.114
23039,-27.478,-27.503
23051,-29.314,-29.761
23063,-31.412,-31.384
23074,-28.431,-30.001
23086,-30.218,-32.399
23098,-25.468,-31.32
23109,-25.492,-31.388
23121,-28.12,-29.94
23133,-24.484,-29.576
23145,-22.692,-30.491
23156,-25.461,-27.403
23168,-29.225,-26.198
23180,-29.4,-29.238
23191,-31.674,-27.965
23203,-26.955,-28.768
23215,-26.615,-29.543
23227,-27.472,-30.949
23238,-25.927,-29.603
23250,-25.371,-28.096
23262,-29.087,-26.344
23273,-30.807,-25.048
23285,-29.075,-27.94
23297,-29.11,-29.449
23309,-27.404,-29.197
23320,-29.247,-28.655
23332,-29.17,-28.839
23344,-28.673,-25.984
23355,-30.703,-26.498
23367,-31.375,-27.154
23379,-27.583,-28.847
23391,-26.308,-34.2
23402,-28.466,-30.062
23414,-29.392,-28.681
23426,-29.124,-29.449
23438,-29.426,-28.77
23449,-29.583,-24.703
23461,-28.845,-24.225
23473,-29.196,-30.001
23484,-26.252,-30.072
23496,-27.565,-24.072
23508,-28.437,-25.328
23520,-27.004,-27.236
23531,-25.183,-26.673
23543,-26.816,-23.41
23555,-28.879,-25.256
23566,-27.319,-29.521
23578,-25.807,-27.427
23590,-27.181,-28.307
23602,-27.368,-26.63
23613,-25.721,-29.212
23625,-25.937,-28.812
23637,-28.807,-27.61
23648,-30.423,-28.858
23660,-27.078,-29.443
23672,-28.483,-29.51
23684,-29.481,-29.489
23695,-32.71,-29.874
23707,-28.154,-31.259
23719,-26.964,-31.982
23730,-24.65,-30.669
23742,-27.155,-28.758
23754,-28.826,-31.648
23766,-27.225,-34.172
23777,-27.402,-32.432
23789,-24.531,-30.8
23801,-23.17,-26.45
23813,-26.187,-26.92
23824,-27.385,-29.723
23836,-26.377,-30.665
23848,-24.256,-27.27
23859,-27.603,-29.179
23871,-32.818,-31.172
23883,-28.994,-33.833
23895,-27.787,-34.201
23906,-28.71,-31.552
23918,-22.99,-27.667
23930,-22.8,-28.844
23941,-23.817,-30.949
23953,-23.161,-31.583
23965,-14.522,-30.027
23977,-15.306,-27.497
23988,-24.791,-28.896
