FFT,Power Spectrum
Frequency[Hz],Level-L[dB],Level-R[dB]
11.719,-20.845,-23.729
23.438,-0.49015,-2.8766
35.156,-2.0648,-2.2646
46.875,1.728,2.3189
58.594,0.53496,5.1916
70.313,0.35204,4.6074
82.031,3.2101,5.5103
93.75,8.6845,10.19
105.47,11.349,11.087
117.19,13.245,11.152
128.91,9.4921,9.1398
140.63,10.161,8.3252
152.34,8.8998,7.9988
164.06,2.7774,4.215
175.78,4.3389,7.8438
187.5,9.9729,8.6351
199.22,8.5683,9.0964
210.94,8.5672,8.6647
222.66,9.3074,9.4162
234.38,9.7832,8.4241
246.09,8.7373,6.6182
257.81,10.074,7.5736
269.53,7.1309,2.7667
281.25,9.0367,7.4521
292.97,10.789,10.869
304.69,8.4564,9.7162
316.41,5.0022,6.3493
328.13,5.1455,4.9301
339.84,6.0434,6.4835
351.56,5.2253,6.6889
363.28,7.6662,7.6668
375,6.0601,4.6972
386.72,7.5203,2.1935
398.44,6.4296,4.6463
410.16,5.6712,3.4429
421.88,6.4306,3.4185
433.59,6.9834,5.391
445.31,13.929,6.5754
457.03,24.408,4.5944
468.75,21.652,3.4649
480.47,3.9263,6.5313
492.19,4.3459,2.2851
503.91,6.8029,4.4899
515.63,5.344,6.9285
527.34,6.8494,6.1458
539.06,8.0053,3.7967
550.78,5.286,2.8597
562.5,3.6453,6.3814
574.22,4.1831,6.1294
585.94,3.3438,6.7236
597.66,2.4922,9.0406
609.38,6.1368,7.5968
621.09,6.4457,5.0274
632.81,5.7641,5.3011
644.53,6.7045,6.086
656.25,8.2047,5.4379
667.97,6.8607,5.3321
679.69,6.5168,5.08
691.41,4.5987,3.8973
703.13,5.6555,6.0758
714.84,5.1591,5.2772
726.56,5.8188,2.9176
738.28,6.092,4.5884
750,8.7518,6.867
761.72,8.8725,5.972
773.44,7.2831,4.8605
785.16,6.849,4.7287
796.88,8.0453,5.131
808.59,8.0343,5.1945
820.31,6.6824,3.4947
832.03,7.6241,5.7667
843.75,8.952,5.3266
855.47,10.38,6.4114
867.19,7.8042,8.1063
878.91,8.8881,6.4273
890.63,10.356,6.8097
902.34,5.8174,4.9938
914.06,8.201,5.733
925.78,4.8429,4.5954
937.5,6.4127,4.1127
949.22,7.7117,7.1908
960.94,7.8239,7.3653
972.66,6.3945,2.7423
984.38,7.4008,6.0782
996.09,6.4404,6.2228
1007.8,4.7039,4.0097
1019.5,6.8995,2.3428
1031.3,7.8626,5.3179
1043,7.6679,4.7277
1054.7,7.6465,4.4045
1066.4,6.6455,4.4921
1078.1,4.7666,3.0015
1089.8,5.1697,3.199
1101.6,5.4525,6.0924
1113.3,3.6391,6.2668
1125,6.1441,4.1701
1136.7,6.7234,4.7358
1148.4,7.8751,5.0028
1160.2,6.6213,3.4855
1171.9,9.6153,5.2979
1183.6,10.573,6.4165
1195.3,7.6307,4.5448
1207,6.4563,3.166
1218.8,7.3732,2.9345
1230.5,9.0028,8.2031
1242.2,7.053,8.9988
1253.9,5.8036,4.2331
1265.6,6.2896,3.3943
1277.3,6.3003,4.5084
1289.1,3.705,2.2774
1300.8,3.2822,2.867
1312.5,4.2679,3.3576
1324.2,5.3436,2.0137
1335.9,6.8834,1.9922
1347.7,5.9694,5.435
1359.4,2.418,5.4086
1371.1,3.9524,7.4493
1382.8,7.4099,7.1032
1394.5,6.5388,4.2156
1406.3,2.3161,0.028334
1418,2.518,3.2711
1429.7,3.59,3.3794
1441.4,4.8713,1.6961
1453.1,4.8908,0.60802
1464.8,5.8978,0.40167
1476.6,7.7641,2.17
1488.3,7.077,6.0607
1500,5.9767,4.6809
1511.7,5.4942,3.6377
1523.4,4.2999,5.3396
1535.2,5.6057,3.0028
1546.9,5.4891,0.92911
1558.6,5.7385,3.2941
1570.3,5.8555,4.5299
1582,4.5901,4.2036
1593.8,3.1623,5.326
1605.5,4.0578,4.8357
1617.2,4.4985,1.5191
1628.9,1.8964,2.8859
1640.6,3.5225,5.5247
1652.3,3.5174,5.2347
1664.1,-0.57311,4.3465
1675.8,0.29267,3.9789
1687.5,4.0602,3.2336
1699.2,5.551,3.6935
1710.9,1.2879,7.1412
1722.7,5.2499,5.0818
1734.4,6.8366,4.9211
1746.1,5.7143,5.7271
1757.8,4.7962,1.0483
1769.5,4.6351,1.9471
1781.3,5.1692,3.4843
1793,5.7811,5.7677
1804.7,7.5926,6.66
1816.4,7.5533,5.0678
1828.1,6.9419,4.856
1839.8,5.8179,4.6398
1851.6,5.3341,2.6201
1863.3,4.0635,2.207
1875,4.9886,0.70543
1886.7,3.4939,0.56738
1898.4,0.0136,2.0003
1910.2,4.876,6.9339
1921.9,5.9037,8.016
1933.6,3,4.226
1945.3,0.75805,0.76379
1957,2.7955,0.2004
1968.8,4.1489,1.8542
1980.5,3.5593,0.82495
1992.2,2.9999,-0.67616
2003.9,2.4945,1.3188
2015.6,3.0265,0.84834
2027.3,2.5042,0.96735
2039.1,1.2119,-1.4679
2050.8,2.5758,3.0236
2062.5,4.6422,1.8892
2074.2,5.1021,3.2364
2085.9,5.8909,5.8375
2097.7,5.2454,2.7747
2109.4,1.8595,3.6254
2121.1,4.6335,5.1882
2132.8,5.2423,7.8486
2144.5,2.9487,5.1709
2156.3,2.6439,5.576
2168,4.0313,4.4763
2179.7,9.2449,3.3348
2191.4,8.1859,3.593
2203.1,1.7219,2.8492
2214.8,-0.37529,2.1254
2226.6,1.8088,4.4954
2238.3,3.7363,4.3215
2250,1.7948,0.94231
2261.7,0.20241,1.7408
2273.4,-0.83125,1.3223
2285.2,-0.084942,1.1617
2296.9,2.2276,1.3146
2308.6,0.20247,1.5573
2320.3,-1.6884,1.7818
2332,-2.4862,1.6643
2343.8,0.014888,0.86562
2355.5,2.5245,-0.35507
2367.2,-0.74868,2.1471
2378.9,-1.5302,3.0152
2390.6,1.3345,2.8205
2402.3,1.2019,2.4162
2414.1,-0.99325,-0.31719
2425.8,2.0125,-2.4946
2437.5,4.3671,1.5361
2449.2,0.54471,1.1465
2460.9,-0.82769,3.4042
2472.7,0.28754,0.37879
2484.4,0.94881,3.1244
2496.1,0.5141,1.0251
2507.8,-0.4956,2.7771
2519.5,2.2859,3.6142
2531.3,1.6628,0.93756
2543,2.6383,1.4747
2554.7,2.8586,0.0089363
2566.4,1.5335,0.086747
2578.1,3.5495,0.6438
2589.8,1.6994,1.5917
2601.6,0.34977,4.3929
2613.3,0.40107,1.6544
2625,-0.56895,2.2727
2636.7,-2.3953,3.2545
2648.4,-1.8221,-1.5875
2660.2,1.0506,0.5701
2671.9,3.1259,-0.51323
2683.6,1.7518,-0.5725
2695.3,-0.08213,0.63032
2707,0.67809,-1.8843
2718.8,0.26195,2.6193
2730.5,2.6637,1.7909
2742.2,2.5619,-1.6175
2753.9,1.1154,-1.8351
2765.6,-0.083538,2.317
2777.3,-0.68302,3.1153
2789.1,-1.7399,2.7894
2800.8,-3.3342,0.91724
2812.5,-1.538,-0.88278
2824.2,0.45277,-0.13056
2835.9,4.3909,2.3382
2847.7,5.8873,3.2693
2859.4,3.4823,0.19745
2871.1,2.0762,1.6003
2882.8,2.0415,1.7777
2894.5,2.0479,0.55393
2906.3,0.19346,1.3538
2918,0.80655,-1.5229
2929.7,-0.91519,1.0859
2941.4,-1.3029,1.7402
2953.1,0.93896,-0.020874
2964.8,2.185,1.5608
2976.6,-0.53417,3.7278
2988.3,0.34018,1.5302
3000,2.8288,0.95906
3011.7,3.9384,0.73187
3023.4,-3.3388,-0.040915
3035.2,2.0974,0.95164
3046.9,1.2597,1.1523
3058.6,-1.8359,1.838
3070.3,-1.1709,2.7317
3082,0.59356,0.40997
3093.8,3.5339,0.88941
3105.5,2.0891,-0.23186
3117.2,-0.66197,0.66955
3128.9,0.089566,-0.56373
3140.6,1.3367,-0.13742
3152.3,0.050928,-1.4285
3164.1,-2.139,-2.3898
3175.8,-1.1802,-4.2191
3187.5,1.0682,-1.2219
3199.2,0.24214,0.46499
3210.9,-0.066902,0.63413
3222.7,-1.2534,0.2809
3234.4,-1.4029,0.86181
3246.1,0.23155,1.8301
3257.8,0.20017,-0.71016
3269.5,-1.0654,-1.2383
3281.3,0.12164,1.5388
3293,1.4879,2.0666
3304.7,0.47404,-0.53862
3316.4,-1.6538,-0.73202
3328.1,-2.7008,-0.26202
3339.8,-1.6917,0.57575
3351.6,-1.0295,-5.1525
3363.3,0.27558,1.764
3375,1.1913,1.9323
3386.7,0.51845,-0.6003
3398.4,0.79947,-0.051768
3410.2,-0.75898,-0.55516
3421.9,-1.1947,-3.9994
3433.6,-3.8353,-1.6541
3445.3,-0.58954,-1.0267
3457,-1.0231,-2.0978
3468.8,-2.1555,-0.60928
3480.5,-5.1846,-1.7497
3492.2,-2.254,-2.9465
3503.9,-3.0201,-3.8072
3515.6,-4.6404,-0.35069
3527.3,-1.4278,-1.831
3539.1,-0.18917,-2.674
3550.8,-2.6689,-1.1521
3562.5,-3.7802,-1.1667
3574.2,-4.6295,-3.2789
3585.9,-3.0875,-2.1231
3597.7,0.42571,-2.4554
3609.4,0.19651,-1.3207
3621.1,-1.0583,-1.076
3632.8,0.90504,-2.4063
3644.5,0.4271,-0.68786
3656.3,-2.1576,1.1345
3668,-3.736,1.478
3679.7,-4.0701,-4.152
3691.4,-2.3219,-0.09152
3703.1,-1.4075,0.62709
3714.8,0.067564,2.0536
3726.6,0.76581,1.982
3738.3,-1.976,-1.1407
3750,-0.10906,-2.0821
3761.7,1.0798,-1.0327
3773.4,0.44516,-1.5057
3785.2,1.6579,-6.9349
3796.9,-0.0098683,-1.6418
3808.6,-2.8375,-1.8778
3820.3,-3.6032,-5.7994
3832,-0.73387,-1.6363
3843.8,-3.4636,1.5741
3855.5,2.2313,-0.80219
3867.2,0.99023,-0.071344
3878.9,-3.6148,-0.29698
3890.6,-4.9721,-1.2026
3902.3,-3.1522,-0.10972
3914.1,0.40981,-1.1418
3925.8,-1.0132,-2.2484
3937.5,-2.771,-2.3374
3949.2,-2.0253,-1.7669
3960.9,1.4576,-0.78127
3972.7,-0.23867,-3.0487
3984.4,-0.67274,-3.1899
3996.1,-2.2796,-1.7822
4007.8,-1.2692,-1.6543
4019.5,1.7826,-0.74249
4031.3,0.64561,1.6419
4043,-2.3743,-1.6907
4054.7,0.3661,-7.6301
4066.4,-0.15958,-5.6397
4078.1,-1.6712,-0.47003
4089.8,-5.0826,1.4767
4101.6,-5.2175,1.2554
4113.3,-3.3163,-3.9579
4125,-3.7313,-3.7599
4136.7,4.2125,-0.91051
4148.4,2.8913,-1.361
4160.2,-1.4578,-3.6697
4171.9,-3.3262,-4.2003
4183.6,-1.108,-1.129
4195.3,-1.1,0.28951
4207,-1.5293,-0.68411
4218.8,-4.3535,0.77804
4230.5,-4.9417,-1.2996
4242.2,-3.1593,-4.4929
4253.9,-1.1471,-1.9263
4265.6,-0.93659,-4.0805
4277.3,-2.6052,-4.398
4289.1,-3.1061,-3.417
4300.8,-1.4604,-3.6568
4312.5,0.71202,-4.2104
4324.2,0.048991,-2.037
4335.9,-2.409,-0.77448
4347.7,-1.064,-0.85706
4359.4,-2.1849,-1.224
4371.1,-2.8661,-1.9961
4382.8,-0.0055025,-3.2766
4394.5,0.2914,-1.5742
4406.3,-1.3885,-1.0604
4418,-2.8569,-2.403
4429.7,-1.7555,-3.8079
4441.4,-1.5617,-1.6255
4453.1,-0.65494,-1.6056
4464.8,-1.5007,-3.6127
4476.6,-2.6092,-2.3747
4488.3,-2.8753,-2.7527
4500,-4.4612,0.47173
4511.7,-4.3419,-3.3273
4523.4,-2.967,-0.87725
4535.2,-2.4263,-0.72287
4546.9,-2.6897,-3.9564
4558.6,-3.7818,-4.9229
4570.3,-0.10906,-4.1527
4582,-2.6738,-1.076
4593.8,-0.27056,-2.7084
4605.5,-1.1992,-2.8157
4617.2,-3.084,-3.2637
4628.9,-6.9529,-4.1859
4640.6,-4.5815,0.34146
4652.3,-2.6102,-1.6
4664.1,-4.1509,-6.1621
4675.8,-2.3055,-1.8455
4687.5,-1.7731,-0.55
4699.2,-3.3322,-2.8021
4710.9,-3.2596,-2.5738
4722.7,-4.3603,-1.7964
4734.4,-2.6365,-3.1928
4746.1,-0.74277,-3.2246
4757.8,-0.39914,-4.7186
4769.5,-1.2231,-4.9154
4781.3,-2.1656,-5.4028
4793,-5.3503,-4.741
4804.7,-4.6767,-5.9552
4816.4,-6.6313,-5.2213
4828.1,-6.19,-6.7933
4839.8,-2.8167,-6.3788
4851.6,-2.0735,-3.9909
4863.3,-1.4748,-6.9739
4875,-1.6375,-3.0042
4886.7,-3.4813,-1.5668
4898.4,-3.7539,-3.0908
4910.2,-2.5549,-1.0157
4921.9,-0.76459,0.09339
4933.6,-0.90529,-1.6905
4945.3,-2.8246,-2.5642
4957,-2.4793,-3.6057
4968.8,-2.1875,-4.2035
4980.5,-3.3944,-6.2212
4992.2,-4.0445,-2.7079
5003.9,-3.7281,-3.4728
5015.6,-3.2801,-6.6491
5027.3,-5.3588,-7.7069
5039.1,-6.1844,-7.6808
5050.8,-2.9666,-5.9715
5062.5,-3.3955,-2.9728
5074.2,-5.3084,-1.3593
5085.9,-5.6496,-3.739
5097.7,-3.8373,-5.2617
5109.4,-6.2383,-6.3509
5121.1,-7.8923,-6.2401
5132.8,-5.3577,-6.2398
5144.5,-3.7415,-4.7614
5156.3,-5.0854,-7.383
5168,-4.0005,-5.7711
5179.7,-4.2001,-6.3385
5191.4,-4.9047,-3.5861
5203.1,-7.2391,-1.2663
5214.8,-6.2991,-2.1902
5226.6,-4.0611,-4.9943
5238.3,-1.4735,-6.8014
5250,-4.0308,-6.4626
5261.7,-5.8793,-5.7869
5273.4,-3.7758,-5.0699
5285.2,-5.3645,-5.1288
5296.9,-3.4269,-7.1721
5308.6,-3.1979,-7.7344
5320.3,-4.2789,-7.0829
5332,-5.0446,-3.8546
5343.8,-6.5761,-5.5587
5355.5,-7.9628,-5.935
5367.2,-9.1355,-4.8861
5378.9,-6.5947,-4.737
5390.6,-5.6514,-6.5654
5402.3,-3.8111,-2.2694
5414.1,-3.583,-1.3477
5425.8,-5.147,-3.2128
5437.5,-4.8408,-3.0019
5449.2,-0.96799,-4.0124
5460.9,-5.5188,-1.663
5472.7,-2.31,-2.9175
5484.4,-2.558,-5.6734
5496.1,-2.0238,-6.2425
5507.8,-8.1477,-7.8093
5519.5,-6.8809,-6.5477
5531.3,-6.3598,-4.828
5543,-8.4908,-5.4172
5554.7,-5.3416,-6.405
5566.4,-5.6998,-7.719
5578.1,-6.03,-9.9892
5589.8,-4.8584,-8.8425
5601.6,-5.5747,-6.2055
5613.3,-6.4424,-6.3267
5625,-6.9819,-4.801
5636.7,-6.5736,-7.406
5648.4,-6.0127,-5.2467
5660.2,-4.5362,-3.0688
5671.9,-3.4186,-5.1529
5683.6,-4.412,-3.0665
5695.3,-6.0843,-4.4879
5707,-7.1005,-7.6269
5718.8,-7.6121,-5.0579
5730.5,-7.71,-6.2822
5742.2,-10.355,-7.2038
5753.9,-6.1313,-5.3104
5765.6,-6.5899,-3.6215
5777.3,-7.8208,-4.8837
5789.1,-6.6267,-5.7383
5800.8,-5.0883,-6.3279
5812.5,-4.9115,-4.83
5824.2,-3.7869,-4.5096
5835.9,-3.9426,-6.1459
5847.7,-5.2119,-7.494
5859.4,-5.4476,-9.7643
5871.1,-4.3103,-6.1977
5882.8,-5.5645,-6.5705
5894.5,-5.8709,-7.0589
5906.3,-6.8944,-6.4929
5918,-5.9415,-9.0398
5929.7,-4.5644,-8.3047
5941.4,-3.1017,-8.3515
5953.1,-2.67,-9.0054
5964.8,-3.7782,-5.2096
5976.6,-4.5424,-4.502
5988.3,-6.1866,-6.464
6000,-6.9799,-3.7616
6011.7,-7.1993,-4.1677
6023.4,-8.0854,-5.8063
6035.2,-5.184,-4.8049
6046.9,-4.8838,-5.8314
6058.6,-4.915,-6.0319
6070.3,-6.6198,-5.0613
6082,-7.4571,-6.1255
6093.8,-6.0014,-5.3561
6105.5,-7.9968,-4.3802
6117.2,-5.4643,-7.591
6128.9,-5.1988,-7.2036
6140.6,-7.6582,-7.8199
6152.3,-3.348,-9.1964
6164.1,-3.4829,-9.0045
6175.8,-2.5442,-5.194
6187.5,-3.6989,-4.4895
6199.2,-4.6332,-6.4766
6210.9,-9.8372,-5.3439
6222.7,-10.733,-4.4707
6234.4,-10.19,-6.5769
6246.1,-5.3033,-7.1144
6257.8,-3.1282,-6.8201
6269.5,-7.4009,-8.0526
6281.3,-8.0885,-6.3063
6293,-4.0145,-2.4472
6304.7,-3.8092,-2.7678
6316.4,-9.0848,-5.1621
6328.1,-5.0817,-5.6925
6339.8,-4.5458,-4.5879
6351.6,-6.4226,-6.3047
6363.3,-8.9012,-5.5756
6375,-9.8494,-5.7374
6386.7,-4.4841,-4.4598
6398.4,-4.9512,-4.3368
6410.2,-9.1012,-5.6829
6421.9,-6.227,-6.4507
6433.6,-6.1367,-3.1184
6445.3,-4.1077,-2.2659
6457,-6.2865,-5.9645
6468.8,-9.2264,-6.5582
6480.5,-8.9457,-6.9852
6492.2,-6.323,-8.6994
6503.9,-7.2678,-8.3321
6515.6,-10.018,-7.2378
6527.3,-5.0909,-9.0595
6539.1,-7.5918,-10.049
6550.8,-5.319,-8.6003
6562.5,-2.2179,-9.1433
6574.2,-5.3438,-9.7729
6585.9,-5.937,-5.9849
6597.7,-8.0163,-6.19
6609.4,-7.0387,-5.446
6621.1,-5.0911,-5.8984
6632.8,-4.0446,-4.9259
6644.5,-5.7847,-5.2109
6656.3,-7.9915,-5.8332
6668,-8.4845,-5.4529
6679.7,-7.1861,-4.5626
6691.4,-6.5518,-6.148
6703.1,-8.7241,-6.0218
6714.8,-11.387,-5.8028
6726.6,-8.5156,-4.8246
6738.3,-8.2913,-6.0562
6750,-6.3333,-3.8543
6761.7,-4.059,-4.5816
6773.4,-6.0249,-8.0675
6785.2,-6.8216,-11.491
6796.9,-6.0152,-7.04
6808.6,-7.3722,-6.9495
6820.3,-6.9957,-9.1012
6832,-5.0578,-8.3298
6843.8,-6.4036,-7.6818
6855.5,-5.5469,-6.0165
6867.2,-5.7626,-6.5301
6878.9,-3.5794,-5.0134
6890.6,-3.1918,-6.3301
6902.3,-5.6034,-7.2716
6914.1,-10.189,-7.0088
6925.8,-2.4152,-9.0134
6937.5,-2.0019,-10.024
6949.2,-8.6208,-9.4441
6960.9,-6.12,-8.6622
6972.7,-7.7556,-9.2936
6984.4,-5.5669,-8.926
6996.1,-4.2081,-7.3471
7007.8,-4.8831,-5.9543
7019.5,-8.2466,-6.6027
7031.3,-6.6099,-9.3669
7043,-6.4949,-7.8193
7054.7,-4.6927,-10.135
7066.4,-4.228,-8.1352
7078.1,-6.7071,-7.054
7089.8,-8.5817,-8.1181
7101.6,-9.175,-9.984
7113.3,-10.047,-9.8897
7125,-12.331,-10.634
7136.7,-10.082,-8.4258
7148.4,-10.049,-5.7819
7160.2,-7.5976,-6.6499
7171.9,-7.1926,-3.839
7183.6,-5.4576,-3.0552
7195.3,-4.5175,-6.0602
7207,-6.6716,-7.7715
7218.8,-7.4093,-7.3734
7230.5,-7.3571,-7.4836
7242.2,-10.37,-9.145
7253.9,-9.751,-7.5584
7265.6,-7.8729,-6.1056
7277.3,-6.7887,-5.7579
7289.1,-8.9147,-7.2494
7300.8,-7.964,-10.303
7312.5,-6.3076,-10.073
7324.2,-8.2328,-10.845
7335.9,-8.5142,-10.116
7347.7,-6.0131,-9.9343
7359.4,-7.4282,-8.2597
7371.1,-8.1141,-7.6911
7382.8,-7.3644,-10.415
7394.5,-8.5679,-12.946
7406.3,-7.3709,-8.6136
7418,-9.3149,-7.4014
7429.7,-13.211,-6.842
7441.4,-12.214,-8.4208
7453.1,-8.8454,-9.3326
7464.8,-10.23,-9.7685
7476.6,-9.121,-8.7292
7488.3,-11.256,-6.8541
7500,-8.2807,-7.4636
7511.7,-5.8873,-9.7329
7523.4,-6.9323,-8.3053
7535.2,-6.2145,-10.553
7546.9,-8.2449,-9.4913
7558.6,-8.6945,-7.2751
7570.3,-9.5825,-6.8595
7582,-9.6287,-8.7031
7593.8,-10.288,-10.022
7605.5,-9.1606,-7.5038
7617.2,-8.9261,-7.0365
7628.9,-9.7097,-6.5759
7640.6,-8.8931,-5.8821
7652.3,-10.245,-8.7094
7664.1,-8.7359,-5.9629
7675.8,-8.1675,-8.5656
7687.5,-7.555,-9.0267
7699.2,-9.1263,-9.6663
7710.9,-12.456,-9.2008
7722.7,-10.184,-8.9813
7734.4,-11.611,-8.5076
7746.1,-12.183,-9.1038
7757.8,-9.1,-6.8023
7769.5,-10.798,-10.861
7781.3,-9.8655,-11.501
7793,-8.7351,-11.947
7804.7,-9.4257,-12.768
7816.4,-6.308,-7.7143
7828.1,-6.4705,-8.2251
7839.8,-7.5912,-6.3535
7851.6,-12.191,-7.3059
7863.3,-9.3603,-8.962
7875,-8.4331,-11.613
7886.7,-10.179,-12.315
7898.4,-9.7478,-11.473
7910.2,-9.3666,-12.816
7921.9,-9.6014,-10.421
7933.6,-9.9829,-10.478
7945.3,-8.5465,-10.189
7957,-8.6811,-12.288
7968.8,-10.479,-12.424
7980.5,-9.2071,-9.6649
7992.2,-6.3503,-10.265
8003.9,-5.8228,-8.9165
8015.6,-6.8413,-11.698
8027.3,-8.9822,-10.969
8039.1,-9.3278,-12.075
8050.8,-7.7086,-12.397
8062.5,-6.607,-9.273
8074.2,-6.9843,-8.9819
8085.9,-10.05,-10.388
8097.7,-10.581,-9.6354
8109.4,-8.8663,-10.232
8121.1,-8.4244,-9.0647
8132.8,-8.3385,-7.7755
8144.5,-7.9551,-8.7895
8156.3,-12.624,-7.3266
8168,-12.073,-7.8736
8179.7,-10.683,-7.9529
8191.4,-8.6132,-8.5574
8203.1,-8.8484,-8.8028
8214.8,-9.556,-7.6516
8226.6,-10.867,-9.4312
8238.3,-9.8607,-9.1396
8250,-8.2057,-8.3192
8261.7,-8.116,-8.9967
8273.4,-9.1318,-9.0399
8285.2,-9.6911,-10.34
8296.9,-12.534,-11.203
8308.6,-12.711,-9.8881
8320.3,-10.721,-10.133
8332,-12.155,-9.3748
8343.8,-10.927,-7.4288
8355.5,-11.444,-7.0679
8367.2,-10.248,-7.6261
8378.9,-10.521,-7.0944
8390.6,-9.1261,-10.853
8402.3,-8.7369,-11.144
8414.1,-11.896,-10.866
8425.8,-10.02,-9.7608
8437.5,-11.484,-9.8949
8449.2,-10.382,-10.228
8460.9,-8.7748,-9.5779
8472.7,-11.706,-6.8746
8484.4,-13.056,-9.2321
8496.1,-9.7461,-12.398
8507.8,-8.4725,-8.4665
8519.5,-9.2468,-6.9281
8531.3,-6.9443,-10.132
8543,-6.4463,-8.82
8554.7,-8.9978,-10.065
8566.4,-8.5827,-11.487
8578.1,-9.1151,-8.2893
8589.8,-8.9416,-6.9804
8601.6,-8.8093,-6.8567
8613.3,-7.3391,-9.1176
8625,-7.5596,-8.8161
8636.7,-6.5679,-14.319
8648.4,-10.479,-9.4273
8660.2,-8.386,-8.6695
8671.9,-5.6284,-9.6817
8683.6,-7.0542,-10.692
8695.3,-8.6699,-11.305
8707,-11.767,-9.8559
8718.8,-10.796,-7.9635
8730.5,-6.9796,-7.384
8742.2,-6.1564,-9.7017
8753.9,-9.4497,-13.26
8765.6,-12.673,-14.77
8777.3,-11.845,-14.711
8789.1,-11.53,-13.48
8800.8,-11.286,-15.419
8812.5,-10.707,-15.097
8824.2,-9.4214,-13.784
8835.9,-10.542,-11.708
8847.7,-13.486,-9.4571
8859.4,-13.884,-8.9017
8871.1,-10.141,-9.3148
8882.8,-10.124,-11.297
8894.5,-8.9543,-10.053
8906.3,-9.4916,-8.6479
8918,-10.762,-7.2323
8929.7,-8.2699,-10.576
8941.4,-7.7691,-14.036
8953.1,-8.0077,-13.314
8964.8,-9.0395,-12.166
8976.6,-11.312,-12.91
8988.3,-14.361,-13.053
9000,-14.404,-6.547
9011.7,-12.646,-5.1439
9023.4,-8.0512,-9.223
9035.2,-8.3754,-12.262
9046.9,-11.121,-12.623
9058.6,-7.2323,-10.903
9070.3,-8.3365,-11.227
9082,-7.6509,-12.986
9093.8,-5.3752,-10.266
9105.5,-6.1147,-8.7497
9117.2,-9.9388,-12.252
9128.9,-11.77,-12.097
9140.6,-12.271,-11.631
9152.3,-9.9738,-9.0892
9164.1,-11.157,-10.144
9175.8,-9.7493,-11.091
9187.5,-7.6715,-13.052
9199.2,-10.704,-13.016
9210.9,-11.111,-12.242
9222.7,-10.557,-9.8597
9234.4,-10.263,-9.7271
9246.1,-9.8401,-9.8298
9257.8,-9.4509,-11.475
9269.5,-11.711,-9.9533
9281.3,-12.872,-8.531
9293,-13.45,-9.0527
9304.7,-11.522,-11.199
9316.4,-10.007,-13.744
9328.1,-8.8934,-9.8945
9339.8,-9.1617,-11.651
9351.6,-4.8222,-11.794
9363.3,-5.105,-14.544
9375,-7.5401,-9.2793
9386.7,-9.8584,-11.32
9398.4,-8.1733,-12.208
9410.2,-7.1349,-11.377
9421.9,-10.354,-10.791
9433.6,-10.747,-9.2031
9445.3,-9.2928,-10.721
9457,-10.434,-13.254
9468.8,-13.958,-12.91
9480.5,-9.8122,-11.047
9492.2,-8.8558,-11.706
9503.9,-8.11,-11.779
9515.6,-7.7735,-12.043
9527.3,-7.8449,-8.7797
9539.1,-11.451,-10.146
9550.8,-13.217,-9.6286
9562.5,-13.339,-10.242
9574.2,-12.132,-11.314
9585.9,-10.35,-14.68
9597.7,-12.267,-13.538
9609.4,-12.721,-11.705
9621.1,-11.189,-12.303
9632.8,-14.775,-13.266
9644.5,-11.649,-14.815
9656.3,-8.2751,-13.604
9668,-9.4582,-12.297
9679.7,-10.032,-11.857
9691.4,-10.564,-10.231
9703.1,-11.152,-10.147
9714.8,-9.1475,-11.824
9726.6,-8.5745,-10.251
9738.3,-12.944,-9.8634
9750,-12.078,-11.241
9761.7,-14.154,-13.068
9773.4,-10.604,-12.034
9785.2,-8.5443,-12.348
9796.9,-8.5872,-13.773
9808.6,-9.6678,-15.479
9820.3,-8.5582,-13.684
9832,-8.962,-15.024
9843.8,-9.106,-12.381
9855.5,-7.184,-9.8922
9867.2,-8.3022,-9.003
9878.9,-11.435,-10.549
9890.6,-16.008,-11.894
9902.3,-15.615,-12.046
9914.1,-11.527,-12.621
9925.8,-10.712,-12.524
9937.5,-10.816,-12.267
9949.2,-10.716,-10.298
9960.9,-9.6387,-7.5333
9972.7,-8.8564,-7.8702
9984.4,-9.75,-10.884
9996.1,-8.5463,-13.025
10008,-8.83,-14.101
10020,-10.165,-13.474
10031,-11.262,-15.57
10043,-15.182,-15.158
10055,-14.316,-12.199
10066,-12.663,-9.3553
10078,-12.632,-9.6598
10090,-11.853,-11.313
10102,-9.213,-13.308
10113,-8.7509,-9.3171
10125,-12.681,-9.0221
10137,-11.41,-9.1657
10148,-12.911,-12.589
10160,-13.036,-15.132
10172,-12.924,-12.934
10184,-15.034,-12.663
10195,-11.812,-11.577
10207,-11.302,-11.129
10219,-13.367,-14.175
10230,-11.794,-12.115
10242,-9.0429,-13.436
10254,-10.345,-14.306
10266,-11.599,-15.165
10277,-11.657,-13.137
10289,-11.928,-12.378
10301,-12.62,-13.184
10313,-14.443,-13.566
10324,-12.171,-13.445
10336,-13.251,-16.457
10348,-15.457,-12.25
10359,-14.594,-13.209
10371,-10.818,-16.087
10383,-10.618,-13.317
10395,-12.788,-12.258
10406,-13.1,-11.821
10418,-14.944,-9.0488
10430,-11.114,-13.857
10441,-10.189,-12.631
10453,-13.352,-13.425
10465,-14.367,-15.328
10477,-14.514,-14.409
10488,-14.707,-10.689
10500,-14.599,-9.9499
10512,-13.471,-13.156
10523,-10.858,-14.363
10535,-11.347,-13.039
10547,-10.961,-13.84
10559,-9.9229,-14.424
10570,-11.697,-12.358
10582,-12.519,-12.747
10594,-11.876,-13.412
10605,-12.533,-12.805
10617,-11.991,-10.71
10629,-10.303,-15.951
10641,-10.546,-17.156
10652,-12.542,-12.908
10664,-11.292,-10.715
10676,-9.0876,-10.057
10688,-10.946,-13.271
10699,-14.402,-14.19
10711,-10.694,-13.546
10723,-8.3729,-14.399
10734,-9.8267,-14.116
10746,-14.65,-15.012
10758,-13.495,-14.812
10770,-12.535,-16.072
10781,-10.69,-15.788
10793,-12.444,-14.321
10805,-11.948,-13.511
10816,-11.572,-12.485
10828,-12.352,-14.986
10840,-13.05,-13.038
10852,-15.156,-9.9826
10863,-13.034,-10.374
10875,-11.761,-11.788
10887,-12.792,-12.072
10898,-11.712,-11.892
10910,-11.215,-11.752
10922,-11.088,-11.638
10934,-10.767,-13.601
10945,-10.899,-14.225
10957,-11.835,-13.409
10969,-12.497,-13.886
10980,-12.962,-17.046
10992,-14.096,-16.545
11004,-14.831,-13.479
11016,-13.188,-12.67
11027,-12.555,-13.98
11039,-11.537,-11.505
11051,-13.559,-10.695
11063,-12.688,-13.782
11074,-12.345,-13.826
11086,-10.819,-12.123
11098,-12.204,-13.132
11109,-14.221,-14.391
11121,-13.681,-13.914
11133,-12.651,-9.9576
11145,-11.988,-10.386
11156,-12.129,-14.057
11168,-12.044,-12.234
11180,-12.24,-12.333
11191,-10.499,-13.692
11203,-12.231,-15.156
11215,-12.987,-15.342
11227,-13.726,-18.177
11238,-14.701,-19.452
11250,-11.018,-16.504
11262,-11.625,-11.563
11273,-13.354,-10.459
11285,-13.934,-12.806
11297,-13.325,-12.655
11309,-10.903,-12.562
11320,-9.3994,-13.966
11332,-10.761,-11.702
11344,-13.845,-14.76
11355,-12.566,-14.43
11367,-13.251,-12.042
11379,-11.972,-12.565
11391,-10.959,-14.687
11402,-11.18,-14.915
11414,-12.28,-11.874
11426,-12.994,-11.506
11438,-12.239,-12.908
11449,-12.051,-14.172
11461,-13.755,-12.987
11473,-13.295,-12.547
11484,-10.811,-17.384
11496,-9.5616,-11.949
11508,-12.141,-16.033
11520,-11.659,-16.309
11531,-11.528,-17.704
11543,-10.65,-16.193
11555,-12.53,-13.251
11566,-12.37,-12.275
11578,-11.447,-15.283
11590,-11.376,-13.179
11602,-13.726,-14.387
11613,-13.69,-14.524
11625,-11.354,-16.962
11637,-9.8351,-14.686
11648,-10.98,-15.151
11660,-13.138,-14.666
11672,-14.276,-12.223
11684,-12.864,-13.575
11695,-8.8775,-14.46
11707,-8.6465,-16.664
11719,-11.693,-16.594
11730,-14.262,-14.842
11742,-13.748,-14.474
11754,-11.257,-14.867
11766,-13.716,-15.786
11777,-16.908,-16.707
11789,-14.766,-18.482
11801,-15.474,-13.152
11813,-10.819,-17.562
11824,-11.219,-13.282
11836,-11.619,-12.79
11848,-11.265,-17.976
11859,-12.364,-15.3
11871,-13.224,-12.837
11883,-10.791,-13.461
11895,-13.614,-14.304
11906,-15.69,-14.339
11918,-10.203,-12.991
11930,-11.441,-12.536
11941,-13.952,-14.168
11953,-11.585,-15.079
11965,-11.924,-15.858
11977,-11.468,-14.781
11988,-11.389,-13.462
12000,-12.694,-14.781
12012,-11.604,-13.806
12023,-10.791,-16.711
12035,-14.15,-16.373
12047,-15.083,-15.707
12059,-14.236,-16.799
12070,-14.29,-17.14
12082,-13.441,-17.268
12094,-10.228,-14.317
12105,-10.175,-14.461
12117,-12.92,-15.184
12129,-12.452,-13.352
12141,-11.671,-13.804
12152,-11.617,-15.549
12164,-10.968,-12.316
12176,-9.628,-12.355
12188,-12.745,-14.715
12199,-13.562,-14.689
12211,-13.336,-13.016
12223,-11.816,-13.987
12234,-12.461,-16.468
12246,-11.152,-17.614
12258,-12.605,-18.786
12270,-12.325,-19.803
12281,-14.142,-16.301
12293,-15.16,-15.076
12305,-12.677,-15.317
12316,-13.105,-15.368
12328,-13.874,-16.124
12340,-9.0805,-15.28
12352,-8.2976,-15.514
12363,-9.9767,-15.345
12375,-10.892,-12.723
12387,-13.683,-13.262
12398,-16.133,-15.162
12410,-12.375,-18.707
12422,-12.438,-17.391
12434,-14.291,-13.345
12445,-12.503,-17.136
12457,-13.794,-19.065
12469,-13.169,-16.539
12480,-12.341,-17.019
12492,-12.948,-16.32
12504,-13.807,-16.988
12516,-14.567,-15.343
12527,-12.623,-19.251
12539,-11.194,-15.281
12551,-10.534,-17.04
12563,-11.353,-16.988
12574,-15.326,-15.396
12586,-14.151,-11.833
12598,-11.326,-11.809
12609,-15.894,-13.132
12621,-16.062,-13.998
12633,-11.254,-16.573
12645,-9.4539,-12.755
12656,-12.21,-12.619
12668,-13.388,-14.662
12680,-12.612,-14.323
12691,-14.41,-13.219
12703,-12.609,-13.997
12715,-12.534,-15.586
12727,-11.3,-16.024
12738,-10.487,-15.864
12750,-10.784,-15.723
12762,-12.038,-18.248
12773,-14.76,-21.947
12785,-15.423,-18.877
12797,-14.51,-14.449
12809,-12.953,-14.725
12820,-14.335,-14.801
12832,-10.023,-12.943
12844,-14.118,-15.413
12855,-11.498,-14.797
12867,-13.451,-14.296
12879,-14.235,-16.596
12891,-16.156,-16.532
12902,-16.344,-16.725
12914,-14.981,-15.395
12926,-14.566,-14.958
12938,-11.658,-15.131
12949,-13.268,-17.537
12961,-11.613,-19.362
12973,-10.335,-16.042
12984,-10.454,-15.463
12996,-12.385,-17.071
13008,-12.066,-17.527
13020,-10.064,-15.132
13031,-11.653,-13.873
13043,-17.215,-14.715
13055,-14.14,-13.848
13066,-12.369,-16.022
13078,-13.034,-18.936
13090,-13.041,-15.975
13102,-13.477,-16.128
13113,-12.787,-16.785
13125,-12.446,-14.706
13137,-14.111,-16.942
13148,-15.551,-16.571
13160,-12.421,-16.78
13172,-13.478,-15.63
13184,-16.631,-17.622
13195,-13.367,-15.965
13207,-14.061,-14.874
13219,-12.498,-15.223
13230,-13.573,-15.33
13242,-16.823,-17.163
13254,-14.104,-16.235
13266,-14.607,-16.543
13277,-13.824,-14.962
13289,-14.777,-14.614
13301,-13.995,-17.377
13313,-15.906,-18.73
13324,-16.114,-16.236
13336,-11.758,-17.447
13348,-13.189,-17.334
13359,-13.964,-18.016
13371,-16.387,-17.329
13383,-14.988,-16.345
13395,-13.566,-15.572
13406,-13.541,-15.471
13418,-13.98,-17.329
13430,-13.435,-17.414
13441,-12.795,-17.017
13453,-12.717,-15.134
13465,-14.511,-14.879
13477,-15.089,-16.534
13488,-14.86,-17.323
13500,-17.028,-17.096
13512,-14.984,-17.217
13523,-11.415,-15.198
13535,-10.331,-16.303
13547,-16.949,-18.008
13559,-14.464,-15.475
13570,-13.515,-15.549
13582,-13.8,-18.005
13594,-13.732,-18.36
13605,-13.162,-14.954
13617,-12.478,-15.512
13629,-12.792,-15.396
13641,-14.002,-14.808
13652,-15.215,-16.967
13664,-15.375,-19.449
13676,-10.902,-15.637
13688,-9.4657,-16.186
13699,-13.005,-19.03
13711,-16.662,-17.085
13723,-13.163,-15.362
13734,-12.689,-17.843
13746,-13.795,-16.286
13758,-13.26,-16.142
13770,-14.218,-16.389
13781,-14.974,-20.074
13793,-13.056,-18.453
13805,-12.042,-17.911
13816,-13.746,-18.168
13828,-15.111,-16.763
13840,-17.169,-16.483
13852,-15.827,-17.726
13863,-13.579,-19.139
13875,-14.751,-18.175
13887,-12.726,-15.919
13898,-14.663,-18.741
13910,-13.98,-16.329
13922,-16.459,-15.551
13934,-14.918,-16.763
13945,-15.393,-18.714
13957,-15.826,-16.095
13969,-13.867,-16.18
13980,-12.75,-17.185
13992,-13.129,-17.869
14004,-15.475,-14.17
14016,-17.235,-12.903
14027,-15.322,-17.563
14039,-15.613,-16.834
14051,-16.047,-17.738
14063,-18.508,-17.378
14074,-16.637,-16.138
14086,-13.314,-18.986
14098,-15.041,-19.653
14109,-14.831,-19.782
14121,-16.01,-18.111
14133,-17.049,-17.231
14145,-17.322,-15.854
14156,-16.247,-18.394
14168,-15.111,-20.361
14180,-13.777,-18.33
14191,-11.727,-16.538
14203,-14.299,-19.652
14215,-16.585,-19.074
14227,-14.487,-20.297
14238,-18.443,-18.42
14250,-18.755,-15.471
14262,-18.564,-16.935
14273,-16.733,-17.817
14285,-16.792,-16.306
14297,-16.124,-16.772
14309,-17.178,-17.943
14320,-16.066,-16.739
14332,-15.392,-14.867
14344,-16.734,-15.632
14355,-18.676,-17.984
14367,-16.734,-21.915
14379,-14.172,-18.585
14391,-14.902,-16.507
14402,-16.575,-17.8
14414,-16.639,-19.822
14426,-18.711,-17.958
14438,-17.724,-17.64
14449,-17.947,-18.359
14461,-17.595,-17.665
14473,-17.067,-15.522
14484,-18.843,-18.252
14496,-15.673,-17.391
14508,-16.63,-15.85
14520,-19.349,-18.179
14531,-18.058,-18.215
14543,-19.61,-16.964
14555,-18.082,-18.759
14566,-17.801,-21.305
14578,-20.079,-19.674
14590,-15.893,-17.03
14602,-13.382,-16.487
14613,-15.871,-17.51
14625,-16.708,-20.355
14637,-16.875,-20.159
14648,-15.943,-16.267
14660,-16.68,-15.715
14672,-16.084,-15.317
14684,-15.377,-15.29
14695,-16.492,-17.616
14707,-15.066,-18.442
14719,-16.878,-17.325
14730,-16.768,-18.068
14742,-18.899,-19.137
14754,-15.986,-20.237
14766,-18.672,-21.651
14777,-21.517,-17.76
14789,-17.649,-17.247
14801,-19.211,-19.464
14813,-21.272,-18.057
14824,-19.78,-17.193
14836,-18.617,-17.861
14848,-17.929,-17.632
14859,-16.913,-19.05
14871,-16.514,-19.637
14883,-19.452,-19.635
14895,-18.849,-21.765
14906,-16.593,-17.087
14918,-16.996,-16.469
14930,-18.535,-18.415
14941,-17.675,-17.157
14953,-17.874,-18.455
14965,-16.486,-18.824
14977,-17.587,-19.864
14988,-18.673,-17.582
15000,-20.711,-16.936
15012,-21.194,-18.391
15023,-19.129,-18.054
15035,-18.922,-18.8
15047,-17.272,-19.02
15059,-17.31,-17.929
15070,-18.004,-19.457
15082,-17.925,-18.687
15094,-17.818,-19.163
15105,-18.534,-18.947
15117,-16.246,-19.324
15129,-14.891,-17.149
15141,-16.291,-15.963
15152,-19.367,-18.357
15164,-18.211,-21.847
15176,-18.406,-21.155
15188,-18.04,-18.983
15199,-16.956,-18.734
15211,-16.674,-20.29
15223,-19.478,-20.277
15234,-19.919,-19.041
15246,-18.969,-18.595
15258,-16.821,-20.399
15270,-17.892,-18.326
15281,-18.972,-17.259
15293,-17.864,-19.398
15305,-16.518,-18.494
15316,-15.413,-18.718
15328,-18.448,-20.123
15340,-21.748,-19.135
15352,-20.525,-17.237
15363,-17.892,-17.876
15375,-16.077,-21.632
15387,-17.36,-20.701
15398,-18.732,-19.509
15410,-19.628,-19.793
15422,-17.942,-16.32
15434,-17.588,-18.919
15445,-18.651,-19.967
15457,-20.685,-20.005
15469,-19.141,-20.307
15480,-20.471,-21.067
15492,-17.512,-18.626
15504,-16.197,-18.212
15516,-20.809,-16.127
15527,-17.039,-20.014
15539,-16.116,-22.206
15551,-21.26,-20.966
15563,-18.069,-19.296
15574,-16.365,-20.557
15586,-19.06,-20.486
15598,-21.926,-20.973
15609,-17.899,-21.761
15621,-16.961,-21.206
15633,-21.634,-20.339
15645,-22.208,-18.756
15656,-20.249,-18.186
15668,-18.399,-17.496
15680,-18.41,-19.193
15691,-18.761,-18.788
15703,-17.69,-19.483
15715,-19.135,-22.345
15727,-18.805,-23.153
15738,-18.138,-21.171
15750,-18.878,-19.264
15762,-21.306,-20.977
15773,-20.029,-19.479
15785,-17.946,-19.842
15797,-17.455,-18.385
15809,-19.28,-18.016
15820,-18.586,-19.774
15832,-16.684,-19.372
15844,-19.335,-20.104
15855,-17.323,-17.123
15867,-16.457,-17.204
15879,-18.619,-21.473
15891,-21.48,-23.995
15902,-26.43,-21.324
15914,-20.592,-21.553
15926,-20.04,-22.517
15938,-20.516,-25.062
15949,-18.757,-24.649
15961,-22.771,-22.811
15973,-21.065,-23.371
15984,-21.033,-21.262
15996,-17.725,-21.913
16008,-15.854,-22.909
16020,-17.325,-21.555
16031,-20.483,-21.269
16043,-21.473,-20.173
16055,-20.66,-18.402
16066,-18.903,-20.382
16078,-20.53,-23.66
16090,-15.85,-21.034
16102,-14.854,-20.342
16113,-19.922,-19.313
16125,-22.346,-20.518
16137,-19.219,-17.288
16148,-20.92,-15.24
16160,-19.814,-19.696
16172,-18.621,-21.53
16184,-18.459,-19.635
16195,-18.075,-19.006
16207,-16.768,-20.24
16219,-17.939,-22.464
16230,-19.203,-23.123
16242,-17.045,-21.237
16254,-16.542,-16.834
16266,-18.77,-16.493
16277,-19.566,-18.997
16289,-19.853,-20.072
16301,-19.957,-19.796
16313,-20.806,-16.791
16324,-19.754,-16.232
16336,-18.171,-18.709
16348,-19.382,-20.738
16359,-21.543,-22.831
16371,-21.581,-20.92
16383,-20.235,-21.471
16395,-19.408,-23.973
16406,-19.962,-24.869
16418,-18.861,-23.288
16430,-18.283,-20.144
16441,-20.726,-19.589
16453,-22.341,-19.602
16465,-24.816,-19.684
16477,-23.502,-21.838
16488,-22.237,-21.681
16500,-21.448,-18.556
16512,-19.494,-18.321
16523,-20.821,-21.415
16535,-24.642,-21.281
16547,-22.356,-22.164
16559,-21.024,-21.532
16570,-22.163,-21.257
16582,-24.172,-21.955
16594,-21.494,-21.057
16605,-19.648,-20.456
16617,-22.333,-20.474
16629,-23.717,-19.577
16641,-21.559,-20.57
16652,-23.179,-20.455
16664,-22.77,-22.142
16676,-21.721,-21.296
16688,-21.038,-20.815
16699,-20.633,-20.855
16711,-20.151,-21.277
16723,-20.017,-22.775
16734,-19.798,-21.342
16746,-18.613,-22.583
16758,-18.825,-21.661
16770,-19.717,-19.294
16781,-23.025,-20.977
16793,-21.294,-25.72
16805,-20.709,-23.092
16816,-19.607,-23.492
16828,-20.07,-23.965
16840,-23.216,-23.902
16852,-22.01,-22.878
16863,-22.417,-21.601
16875,-22.936,-24.317
16887,-22.283,-23.529
16898,-22.936,-21.949
16910,-23.88,-21.284
16922,-20.842,-19.631
16934,-19.249,-18.691
16945,-18.443,-21.678
16957,-17.912,-24.802
16969,-17.834,-23.935
16980,-21.236,-22.3
16992,-17.167,-22.795
17004,-17.784,-20.596
17016,-20.191,-20.574
17027,-21.737,-22.292
17039,-20.333,-19.579
17051,-19.151,-21.319
17063,-19.163,-21.597
17074,-21.202,-22.587
17086,-22.255,-24.098
17098,-20.168,-21.738
17109,-20.608,-19.08
17121,-20.855,-21.128
17133,-21.908,-20.558
17145,-24.111,-19.995
17156,-23.159,-24.076
17168,-22.967,-21.46
17180,-23.644,-20.832
17191,-23.011,-19.175
17203,-22.793,-20.214
17215,-22.397,-22.011
17227,-22.874,-22.04
17238,-22.745,-21.796
17250,-20.267,-21.94
17262,-20.514,-22.562
17273,-18.318,-21.348
17285,-18.343,-23.873
17297,-22.229,-24.725
17309,-25.334,-22.619
17320,-22.804,-22.678
17332,-19.834,-23.269
17344,-20.227,-23.031
17355,-24.843,-21.358
17367,-23.856,-24.342
17379,-23.565,-23.698
17391,-25.273,-23.5
17402,-21.281,-23.44
17414,-23.594,-22.025
17426,-25.158,-21.525
17438,-22.34,-22.424
17449,-20.413,-20.782
17461,-18.293,-20.068
17473,-19.596,-22.827
17484,-22.484,-22.607
17496,-23.345,-24.094
17508,-20.122,-25.456
17520,-20.84,-24.553
17531,-21.479,-22.164
17543,-21.659,-21.337
17555,-22.785,-21.488
17566,-24.417,-21.146
17578,-22.526,-19.852
17590,-21.098,-20.173
17602,-19.486,-23.048
17613,-21.366,-25.447
17625,-24.187,-25.31
17637,-22.685,-23.712
17648,-21.904,-24.798
17660,-19.917,-25.219
17672,-21.793,-24.17
17684,-24.934,-23.792
17695,-23.677,-23.073
17707,-21.693,-23.162
17719,-20.294,-22.502
17730,-24.593,-21.733
17742,-24.804,-22.166
17754,-20.296,-23.404
17766,-19.675,-23.523
17777,-20.547,-20.638
17789,-26.232,-22.246
17801,-26.749,-21.819
17813,-23.173,-20.861
17824,-19.382,-23.132
17836,-19.246,-23.941
17848,-21.809,-22.099
17859,-24.194,-19.855
17871,-22.869,-21.228
17883,-23.758,-24.128
17895,-23.358,-23.657
17906,-22.754,-24.719
17918,-22.052,-26.944
17930,-18.925,-26.228
17941,-19.625,-25.035
17953,-24.456,-25.072
17965,-23.705,-25.104
17977,-21.136,-26.095
17988,-22.32,-23.167
18000,-23.876,-20.933
18012,-23.264,-22.805
18023,-21.096,-22.681
18035,-22.121,-23.113
18047,-26.951,-24.072
18059,-24.659,-23.21
18070,-25.611,-22.137
18082,-24.32,-21.574
18094,-21.374,-23.73
18105,-21.855,-24.328
18117,-23.43,-23.454
18129,-20.643,-21.059
18141,-20.505,-21.902
18152,-22.1,-23.3
18164,-25.575,-22.833
18176,-24.137,-26.408
18188,-21.807,-23.865
18199,-21.384,-20.765
18211,-24.044,-20.291
18223,-23.357,-21.796
18234,-21.556,-19.967
18246,-22.715,-18.843
18258,-22.891,-22.737
18270,-22.86,-25.269
18281,-23.823,-24.493
18293,-23.568,-24.396
18305,-23.478,-23.46
18316,-23.348,-21.343
18328,-23.649,-22.695
18340,-21.077,-26.049
18352,-23.828,-20.886
18363,-22.301,-21.937
18375,-22.916,-22.974
18387,-22.976,-23.853
18398,-19.209,-21.114
18410,-19.576,-23.979
18422,-21.98,-22.771
18434,-22.374,-19.941
18445,-26.181,-20.631
18457,-25.274,-21.316
18469,-22.921,-22.119
18480,-22.506,-21.834
18492,-24.891,-25.296
18504,-24.415,-25.586
18516,-21.825,-24.027
18527,-20.367,-23.263
18539,-20.071,-27.23
18551,-21.469,-22.009
18563,-24.427,-22.355
18574,-26.02,-23.781
18586,-27.804,-25.125
18598,-24.814,-23.974
18609,-23.023,-23.339
18621,-23.642,-24.246
18633,-21.836,-22.648
18645,-25.138,-21.594
18656,-26.208,-25.008
18668,-23.821,-22.167
18680,-24.864,-21.447
18691,-24.075,-24.118
18703,-23.636,-25.302
18715,-21.766,-28.189
18727,-23.31,-29.144
18738,-25.448,-27.417
18750,-28.174,-25.305
18762,-28.002,-24.238
18773,-23.897,-22.48
18785,-22.669,-21.394
18797,-22.639,-23.115
18809,-25.329,-22.077
18820,-22.036,-19.582
18832,-21.352,-18.842
18844,-20.746,-20.29
18855,-20.031,-23.383
18867,-22.313,-25.071
18879,-25.251,-25.664
18891,-23.906,-27.122
18902,-22.325,-27.539
18914,-23.545,-24.424
18926,-23.238,-25.086
18938,-23.547,-27.365
18949,-25.161,-25.743
18961,-24.5,-22.983
18973,-22.629,-24.717
18984,-21.409,-24.874
18996,-25.216,-24.466
19008,-19.509,-24.21
19020,-20.372,-25.14
19031,-24.272,-25.794
19043,-21.121,-25.159
19055,-23.353,-23.831
19066,-22.585,-24.836
19078,-22.924,-25.456
19090,-25.175,-24.06
19102,-24.99,-24.933
19113,-23.47,-23.66
19125,-22.923,-20.036
19137,-23.956,-22.199
19148,-23.779,-25.813
19160,-22.922,-21.812
19172,-23.658,-21.009
19184,-22.967,-23.329
19195,-24.002,-24.886
19207,-23.59,-24.652
19219,-24.394,-22.769
19230,-20.638,-23.471
19242,-23.962,-25.983
19254,-24.431,-23.936
19266,-24.414,-26.031
19277,-25.139,-26.608
19289,-23.15,-25.972
19301,-23.556,-28.05
19313,-24.498,-24.685
19324,-24.574,-22.313
19336,-22.811,-25.878
19348,-24.675,-25.822
19359,-23.414,-26.213
19371,-23.535,-24.132
19383,-24.256,-23.907
19395,-26.553,-24.256
19406,-26.791,-24.929
19418,-26.472,-25.154
19430,-23.248,-25.863
19441,-26.581,-26.953
19453,-24.041,-26.111
19465,-22.938,-25.789
19477,-25.357,-24.872
19488,-25.357,-23.009
19500,-24.292,-23.866
19512,-24.933,-26.262
19523,-25.811,-26.037
19535,-24.976,-25.593
19547,-25.208,-24.493
19559,-23.18,-25.491
19570,-23.357,-27.828
19582,-23.241,-27.077
19594,-23.379,-25.719
19605,-23.864,-29.151
19617,-22.915,-25.321
19629,-23.042,-24.131
19641,-24.048,-26.637
19652,-21.972,-27.651
19664,-23.914,-26.424
19676,-21.199,-25.885
19688,-21.419,-23.842
19699,-22.081,-22.686
19711,-24.208,-24.432
19723,-27.445,-23.863
19734,-27.631,-23.818
19746,-22.746,-24.11
19758,-22.51,-23.964
19770,-25.22,-25.284
19781,-22.883,-24.699
19793,-24.785,-25.577
19805,-27.606,-26.892
19816,-26.104,-24.392
19828,-23.732,-23.992
19840,-20.939,-25.661
19852,-24.005,-25.61
19863,-24.056,-25.606
19875,-26.19,-23.66
19887,-25.877,-23.032
19898,-25.66,-22.875
19910,-27.356,-23.23
19922,-26.985,-26.431
19934,-25.341,-23.328
19945,-24.569,-24.404
19957,-26.245,-29.854
19969,-25.355,-29.621
19980,-25.005,-27.451
19992,-22.156,-24.223
20004,-23.404,-27.827
20016,-24.144,-28.055
20027,-24.497,-26.967
20039,-26.998,-24.996
20051,-24.672,-25.168
20063,-23.076,-25.554
20074,-22.67,-26.112
20086,-25.688,-25.288
20098,-24.85,-23.003
20109,-21.357,-25.178
20121,-20.036,-28.373
20133,-24.067,-27.153
20145,-24.313,-25.283
20156,-23.824,-23.279
20168,-22.185,-23.606
20180,-20.858,-26.997
20191,-17.412,-26.795
20203,-15.88,-25.979
20215,-16.038,-25.615
20227,-16.283,-25.454
20238,-16.559,-26.111
20250,-17.575,-25.884
20262,-14.339,-26.958
20273,-12.849,-23.431
20285,-15.102,-25.223
20297,-18.597,-27.713
20309,-16.27,-29.923
20320,-15.921,-27.101
20332,-16.156,-25.706
20344,-16.73,-25.444
20355,-15.013,-24.546
20367,-17.611,-26.836
20379,-19.037,-26.973
20391,-22.521,-26.691
20402,-21.428,-24.337
20414,-21.394,-23.671
20426,-22.1,-26.871
20438,-20.895,-26.587
20449,-23.749,-26.975
20461,-24.148,-25.404
20473,-24.217,-23.598
20484,-26.975,-25.063
20496,-25.389,-27.052
20508,-22.842,-26.229
20520,-23.439,-25.084
20531,-23.522,-26.494
20543,-24.812,-24.555
20555,-22.39,-25.167
20566,-21.565,-25.808
20578,-26.168,-24.27
20590,-24.132,-22.757
20602,-23.701,-24.773
20613,-24.106,-27.166
20625,-24.007,-24.133
20637,-24.594,-24.256
20648,-23.621,-26.483
20660,-24.302,-25.056
20672,-23.58,-29.93
20684,-24.989,-27.338
20695,-28.262,-27.818
20707,-26.591,-26.954
20719,-24.418,-26.084
20730,-24.974,-28.101
20742,-26.561,-25.298
20754,-26.24,-26.579
20766,-26.028,-30.206
20777,-26.355,-27.75
20789,-22.53,-23.523
20801,-25.313,-21.756
20813,-24.751,-23.759
20824,-25.872,-26.395
20836,-26.283,-27.094
20848,-24.789,-25.8
20859,-24.611,-27.593
20871,-24.15,-25.877
20883,-24.903,-23.959
20895,-24.877,-23.83
20906,-24.942,-24.612
20918,-28.047,-27.556
20930,-26.378,-28.553
20941,-24.099,-24.167
20953,-26.923,-23.61
20965,-26.513,-23.466
20977,-25.579,-25.726
20988,-26.002,-27.126
21000,-27.253,-25.308
21012,-25.834,-24.986
21023,-24.004,-25.68
21035,-23.803,-26.018
21047,-26.574,-27.128
21059,-26.326,-28.317
21070,-27.067,-27.419
21082,-25.868,-23.918
21094,-25.097,-28.071
21105,-26.881,-28.136
21117,-25.639,-26.652
21129,-25.718,-25.051
21141,-27.976,-27.392
21152,-26.848,-22.504
21164,-26.04,-22.735
21176,-27.097,-23.586
21188,-26.926,-24.634
21199,-24.691,-27.068
21211,-24.216,-26.358
21223,-26.113,-25.973
21234,-27.3,-28.205
21246,-29.712,-26.878
21258,-25.893,-25.66
21270,-24.501,-28.521
21281,-25.685,-27.754
21293,-26.742,-25.167
21305,-25.853,-25.054
21316,-25.143,-27.036
21328,-22.713,-24.962
21340,-25.849,-23.491
21352,-27.537,-25.663
21363,-25.233,-26.303
21375,-26.739,-26.047
21387,-26.648,-25.102
21398,-26.597,-25.589
21410,-29.182,-26.413
21422,-29.148,-27.491
21434,-28.52,-28.157
21445,-29.119,-32.148
21457,-29.225,-28.011
21469,-27.494,-25.339
21480,-27.062,-26.015
21492,-24.699,-28.78
21504,-24.364,-28.427
21516,-25.888,-28.253
21527,-26.854,-28.62
21539,-26.734,-27.326
21551,-26.054,-25.043
21563,-26.39,-25.729
21574,-27.456,-31.188
21586,-26.987,-27.025
21598,-26.023,-25.997
21609,-27.01,-25.35
21621,-27.706,-26.895
21633,-25.573,-28.759
21645,-27.186,-27.282
21656,-24.844,-26.881
21668,-25.051,-26.869
21680,-27.47,-26.237
21691,-29.023,-25.836
21703,-31.655,-27.764
21715,-29.351,-29.298
21727,-28.775,-28.432
21738,-23.206,-26.491
21750,-25.82,-23.597
21762,-27.02,-25.107
21773,-26.018,-27.41
21785,-25.086,-29.458
21797,-29.281,-28.653
21809,-27.7,-29.175
21820,-26.599,-28.54
21832,-22.928,-26.827
21844,-24.926,-26.588
21855,-26.305,-24.671
21867,-26.88,-24.261
21879,-26.784,-24.759
21891,-27.489,-27.038
21902,-26.551,-29.317
21914,-26.419,-28.595
21926,-25.081,-28.239
21938,-23.088,-26.649
21949,-24.591,-25.424
21961,-25.715,-25.14
21973,-29.278,-25.713
21984,-25.739,-24.886
21996,-25.267,-24.886
22008,-26.639,-26.545
22020,-25.881,-27.222
22031,-28.557,-24.115
22043,-26.899,-25.739
22055,-26.457,-26.476
22066,-25.863,-26.567
22078,-26.502,-28.092
22090,-24.295,-29.122
22102,-26.559,-28.207
22113,-29.355,-28.244
22125,-24.641,-27.035
22137,-29.991,-26.451
22148,-25.914,-25.397
22160,-31.229,-24.776
22172,-26.118,-25.867
22184,-24.658,-26.568
22195,-27.698,-26.859
22207,-26.608,-26.35
22219,-29.755,-26.393
22230,-29.391,-25.008
22242,-25.116,-27.041
22254,-24.14,-26.545
22266,-27.071,-25.105
22277,-29.259,-25.653
22289,-28.003,-25.235
22301,-25.177,-26.359
22313,-24.214,-26.294
22324,-26.184,-26.049
22336,-29.891,-27.048
22348,-25.817,-28.238
22359,-23.868,-28.018
22371,-27.974,-27.548
22383,-28.369,-25.343
22395,-25.977,-25.852
22406,-26.172,-25.942
22418,-28.222,-25.687
22430,-26.981,-28.178
22441,-27.936,-29.352
22453,-26.866,-26.068
22465,-27.856,-25.508
22477,-27.514,-26.922
22488,-29.513,-25.952
22500,-30.477,-28.851
22512,-30.153,-28.671
22523,-29.224,-27.383
22535,-26.611,-26.799
22547,-30.66,-26.724
22559,-31.025,-26.177
22570,-31.074,-26.114
22582,-25.163,-26.492
22594,-23.128,-28.025
22605,-26.031,-29.858
22617,-28.169,-29.099
22629,-25.613,-29.841
22641,-26.891,-27.733
22652,-25.84,-28.08
22664,-26.509,-30.068
22676,-28.371,-26.466
22688,-26.307,-30.471
22699,-25.793,-29.23
22711,-26.36,-27.741
22723,-25.288,-25.678
22734,-25.95,-24.911
22746,-27.529,-25.632
22758,-27.953,-26.676
22770,-26.045,-28.815
22781,-24.925,-28.905
22793,-28.302,-31.579
22805,-29.929,-27.716
22816,-28.585,-29.182
22828,-28.689,-30.801
22840,-28.718,-27.789
22852,-26.927,-26.944
22863,-25.96,-28.602
22875,-25.901,-29.824
22887,-28.823,-29.907
22898,-29.036,-27.022
22910,-28.115,-26.506
22922,-28.643,-25.679
22934,-31.942,-24.214
22945,-28.785,-24.051
22957,-28.186,-24.957
22969,-28.809,-25.976
22980,-27.121,-27.474
22992,-27.753,-27.006
23004,-29.044,-26.997
23016,-28.894,-28.385
23027,-26.757,-26.054
23039,-25.344,-25.375
23051,-25.293,-27.9
23063,-25.611,-28.503
23074,-25.774,-29.776
23086,-27.195,-30.669
23098,-26.385,-30.445
23109,-26.277,-29.388
23121,-26.114,-31.716
23133,-27.023,-27.163
23145,-27.621,-29.882
23156,-26.62,-29.647
23168,-29.036,-27.532
23180,-27.6,-28.544
23191,-28.344,-30.637
23203,-31.877,-29.019
23215,-30.494,-26.474
23227,-28.111,-27.927
23238,-22.578,-30.955
23250,-24.616,-31.309
23262,-30.852,-32.167
23273,-27.215,-30.169
23285,-27.585,-29.862
23297,-30.663,-28.715
23309,-29.519,-28.732
23320,-28.275,-28.915
23332,-27.728,-27.442
23344,-27.18,-26.197
23355,-29.904,-25.102
23367,-30.034,-25.198
23379,-26.864,-27.359
23391,-26.101,-31.584
23402,-27.527,-29.45
23414,-28.163,-29.935
23426,-26.981,-29.643
23438,-27.07,-29.443
23449,-28.704,-30.952
23461,-26.742,-28.853
23473,-26.562,-28.886
23484,-27.947,-30.31
23496,-27.462,-31.414
23508,-26.886,-31.685
23520,-28.253,-29.655
23531,-30.368,-31.501
23543,-27.794,-27.191
23555,-26.46,-25.112
23566,-28.712,-27.28
23578,-28.546,-27.355
23590,-29.694,-26.218
23602,-30.543,-27.775
23613,-26.491,-29.806
23625,-26.114,-28.587
23637,-27.497,-28.172
23648,-30.794,-30.15
23660,-25.212,-28.527
23672,-25.978,-30.077
23684,-28.087,-30.367
23695,-29.065,-30.02
23707,-29.481,-32.168
23719,-26.106,-31.583
23730,-26.371,-30.647
23742,-28.277,-32.209
23754,-25.252,-29.732
23766,-28.875,-28.023
23777,-29.207,-29.347
23789,-26.571,-28.358
23801,-27.475,-28.173
23813,-27.311,-31.768
23824,-27.874,-31.26
23836,-28.982,-31.508
23848,-27.933,-28.675
23859,-28.035,-28.343
23871,-29.637,-29.59
23883,-28.483,-28.386
23895,-24.758,-27.301
23906,-25.691,-27.531
23918,-29.204,-27.425
23930,-25.14,-28.115
23941,-16.56,-31.245
23953,-14.7,-32.717
23965,-20.46,-30.166
23977,-26.988,-27.936
23988,-28.211,-31.286
