FFT,Power Spectrum
Frequency[Hz],Level-L[dB],Level-R[dB]
11.719,-21.985,-25.041
23.438,-0.32974,-4.2576
35.156,3.9968,0.27943
46.875,5.7358,4.5061
58.594,4.6159,3.7487
70.313,2.3856,5.3636
82.031,8.5204,6.9476
93.75,14.727,10.834
105.47,13.226,9.9252
117.19,10.019,8.1716
128.91,4.7356,8.0876
140.63,12.062,10.13
152.34,9.9822,6.5903
164.06,2.9184,6.7633
175.78,7.7782,4.2686
187.5,16.466,13.043
199.22,12.968,10.525
210.94,10.03,11.211
222.66,9.7452,9.7215
234.38,10.563,7.905
246.09,9.1728,7.4582
257.81,8.0718,5.9979
269.53,8.4532,8.8484
281.25,7.4619,5.9598
292.97,7.9096,5.4163
304.69,6.1685,5.0246
316.41,5.1336,4.0773
328.13,5.6614,5.1322
339.84,3.4805,6.7443
351.56,2.1962,4.2884
363.28,7.5824,2.9685
375,9.2674,4.7636
386.72,7.2345,5.4725
398.44,4.882,4.7836
410.16,6.2411,2.6289
421.88,8.7464,4.8841
433.59,10.816,3.6586
445.31,31.963,1.8316
457.03,41.8,6.5875
468.75,39.15,7.4458
480.47,19.227,6.8355
492.19,7.0649,6.2769
503.91,2.7343,7.4017
515.63,5.5894,6.6343
527.34,7.0448,4.5307
539.06,5.2405,4.982
550.78,6.065,2.9971
562.5,8.2193,4.146
574.22,6.7548,6.3286
585.94,10.319,6.5734
597.66,6.8621,4.3564
609.38,8.0838,4.8248
621.09,6.0346,7.4283
632.81,7.7999,8.2671
644.53,7.0955,7.8612
656.25,4.1889,6.5366
667.97,6.3927,6.207
679.69,9.512,5.2213
691.41,7.0135,3.9525
703.13,8.0481,4.986
714.84,7.1517,2.4473
726.56,4.77,4.4948
738.28,2.5716,6.0553
750,3.7935,4.2323
761.72,6.152,5.0409
773.44,8.7781,5.9173
785.16,10.838,7.0381
796.88,13.493,9.3682
808.59,13.077,9.1877
820.31,11.498,10.079
832.03,9.9566,7.8987
843.75,7.6758,5.3122
855.47,6.9001,4.6114
867.19,8.7807,4.1605
878.91,10.533,3.8877
890.63,11.368,3.9836
902.34,10.068,7.3216
914.06,9.1403,7.9251
925.78,10.609,6.6465
937.5,12.704,8.3512
949.22,12.191,7.298
960.94,10.437,3.5632
972.66,8.1527,4.2041
984.38,7.1732,5.3794
996.09,4.8274,4.6768
1007.8,4.8996,4.1252
1019.5,7.5655,5.7968
1031.3,7.0954,5.0015
1043,8.6977,6.0256
1054.7,9.5321,5.4428
1066.4,6.945,5.5476
1078.1,7.4451,5.6407
1089.8,8.9607,3.5626
1101.6,8.5811,3.287
1113.3,7.7261,5.5773
1125,7.0676,6.9982
1136.7,8.8142,7.0223
1148.4,7.539,5.1006
1160.2,3.6241,1.4753
1171.9,4.322,4.3808
1183.6,6.837,5.705
1195.3,8.1138,4.8412
1207,9.1678,2.0568
1218.8,6.3998,3.2588
1230.5,7.6349,6.9174
1242.2,7.2203,9.1162
1253.9,5.2445,7.675
1265.6,2.47,3.9414
1277.3,1.7069,2.8173
1289.1,4.324,2.8278
1300.8,5.429,1.2746
1312.5,2.9372,2.8799
1324.2,1.9804,5.6093
1335.9,4.9568,5.6906
1347.7,4.5504,4.1957
1359.4,3.2514,5.7198
1371.1,7.6478,5.1743
1382.8,7.2682,2.9076
1394.5,3.1195,2.0854
1406.3,6.3692,2.3801
1418,7.7488,5.2441
1429.7,7.0223,4.3968
1441.4,6.5089,4.4932
1453.1,7.8867,4.6243
1464.8,8.0693,5.1764
1476.6,8.0223,7.762
1488.3,10.313,6.8526
1500,9.5372,5.093
1511.7,8.1045,2.5361
1523.4,7.9768,4.9693
1535.2,6.6416,3.3038
1546.9,5.8741,1.1482
1558.6,4.5903,4.9192
1570.3,4.4433,1.933
1582,4.927,1.8754
1593.8,4.9798,3.9493
1605.5,5.6812,3.8339
1617.2,7.7911,2.7282
1628.9,6.169,4.9616
1640.6,4.3278,4.4537
1652.3,1.0072,2.0635
1664.1,2.8794,2.6277
1675.8,5.9191,4.8292
1687.5,7.4693,7.1091
1699.2,6.1234,7.9653
1710.9,5.9442,6.6179
1722.7,6.3224,5.8984
1734.4,4.8828,3.7308
1746.1,3.4608,3.6647
1757.8,3.4644,5.167
1769.5,5.1722,7.9683
1781.3,5.1318,6.6675
1793,4.5103,0.13959
1804.7,3.5976,-1.8219
1816.4,4.1275,0.058164
1828.1,3.8296,3.167
1839.8,3.705,3.8645
1851.6,4.9695,4.0208
1863.3,5.8315,2.5572
1875,4.73,5.6818
1886.7,5.3243,5.6441
1898.4,8.2755,3.036
1910.2,7.4569,2.8072
1921.9,2.2521,4.3987
1933.6,0.52454,5.1596
1945.3,0.73676,3.5672
1957,2.1709,1.4138
1968.8,4.9552,1.5255
1980.5,5.7871,2.5224
1992.2,3.4057,4.0811
2003.9,-0.94162,5.5892
2015.6,2.2738,5.4253
2027.3,2.0891,2.5958
2039.1,5.2191,1.8206
2050.8,4.6756,1.7545
2062.5,4.5042,2.7367
2074.2,4.1619,1.649
2085.9,6.3174,2.6547
2097.7,4.5226,3.0909
2109.4,5.9777,3.4832
2121.1,6.2578,4.5629
2132.8,3.6208,5.25
2144.5,1.7436,1.5235
2156.3,3.8926,0.62654
2168,5.5018,3.0673
2179.7,6.174,3.6902
2191.4,5.2159,2.7805
2203.1,3.429,3.9668
2214.8,1.0562,7.0313
2226.6,1.7201,6.8818
2238.3,2.2664,2.3039
2250,0.66948,0.67697
2261.7,3.1261,2.2906
2273.4,1.8586,4.9033
2285.2,2.5863,4.5879
2296.9,2.6732,2.5822
2308.6,0.25615,2.8472
2320.3,0.52545,5.1956
2332,4.6978,1.8208
2343.8,4.4454,0.44218
2355.5,2.1039,0.21348
2367.2,3.8794,1.3685
2378.9,2.3432,1.2749
2390.6,0.066168,1.3429
2402.3,1.8938,0.79186
2414.1,0.76895,1.6791
2425.8,2.2031,2.7608
2437.5,4.0001,3.2288
2449.2,0.7932,0.58541
2460.9,3.262,4.1706
2472.7,2.5991,3.8756
2484.4,2.0325,4.9225
2496.1,1.9786,3.9566
2507.8,-0.34562,-0.58626
2519.5,0.54785,-2.1194
2531.3,-0.24401,0.80401
2543,0.76274,0.24641
2554.7,0.79561,-0.046754
2566.4,-0.38077,3.6313
2578.1,-0.70259,2.5257
2589.8,-1.7889,0.81868
2601.6,2.5117,1.1566
2613.3,1.5579,-0.064736
2625,-1.2725,1.1851
2636.7,-0.71151,2.7053
2648.4,1.1303,4.2614
2660.2,1.6769,3.8329
2671.9,-0.2223,1.4492
2683.6,0.42715,0.99732
2695.3,2.7788,1.7658
2707,2.1041,-1.3881
2718.8,2.2565,-3.2314
2730.5,1.7526,-2.1949
2742.2,2.1066,0.36452
2753.9,0.55527,-1.0395
2765.6,-0.23369,0.61802
2777.3,-0.02016,3.3076
2789.1,2.8306,4.5792
2800.8,4.3474,1.2936
2812.5,2.3715,-1.8725
2824.2,2.9972,-1.8969
2835.9,3.1733,-0.12487
2847.7,1.7816,-2.21
2859.4,0.82953,-1.9007
2871.1,-0.62537,0.73386
2882.8,0.44641,-1.6509
2894.5,-0.18255,0.37611
2906.3,4.0941,-0.73972
2918,4.2561,-2.1001
2929.7,0.81426,3.6011
2941.4,1.9488,2.7518
2953.1,3.7875,0.048372
2964.8,2.662,0.14821
2976.6,1.9464,1.624
2988.3,2.9027,0.97254
3000,1.0629,4.1985
3011.7,1.4189,6.0441
3023.4,0.82819,0.67289
3035.2,-1.5026,-2.199
3046.9,-2.2659,-0.20725
3058.6,-1.0173,-0.040454
3070.3,1.8328,2.1012
3082,1.6321,1.9418
3093.8,1.7427,0.674
3105.5,-0.27137,1.0607
3117.2,-3.2882,-1.315
3128.9,-5.4979,-3.603
3140.6,-2.8611,-3.0321
3152.3,-1.4711,-1.1656
3164.1,-1.8014,-1.098
3175.8,-2.1565,-0.94628
3187.5,0.26138,0.2793
3199.2,0.35501,1.2983
3210.9,-0.37766,-1.0006
3222.7,-1.5264,-0.50778
3234.4,-3.19,1.0514
3246.1,-1.8009,-0.79471
3257.8,1.6118,-0.081825
3269.5,2.2166,1.3173
3281.3,-0.33186,4.0662
3293,0.6437,2.3872
3304.7,0.022072,-0.38345
3316.4,-1.8636,-2.1814
3328.1,-0.71132,-0.076512
3339.8,-0.0096907,-0.53836
3351.6,0.082091,0.81491
3363.3,-1.6515,0.86537
3375,-2.3956,-1.1458
3386.7,-1.1384,-0.51132
3398.4,0.45518,-3.3464
3410.2,3.2756,0.34453
3421.9,1.7235,1.2245
3433.6,0.03241,-0.99211
3445.3,-2.2334,-1.3782
3457,-1.9533,-1.7067
3468.8,-0.84135,-1.8709
3480.5,-0.21749,0.60615
3492.2,-0.059632,-1.8812
3503.9,1.2114,-1.6725
3515.6,0.24139,-0.81084
3527.3,-1.2111,-1.2941
3539.1,-0.083033,-2.7368
3550.8,2.0908,-3.0841
3562.5,0.93564,-2.5516
3574.2,-2.3809,-4.0079
3585.9,-2.5457,-5.1071
3597.7,-2.9978,0.41334
3609.4,-4.4095,1.6246
3621.1,-3.5193,-1.654
3632.8,0.2007,0.55605
3644.5,1.6574,-0.014135
3656.3,-0.25763,-1.428
3668,1.1166,-1.639
3679.7,3.1928,-1.5303
3691.4,0.63887,-1.2998
3703.1,-0.64118,-0.84427
3714.8,-0.34187,-2.1591
3726.6,1.5424,-2.8642
3738.3,1.0008,-0.59134
3750,-0.34696,-0.98673
3761.7,-2.6104,-3.3136
3773.4,-0.93504,-2.6026
3785.2,0.4498,-1.0248
3796.9,0.57716,-0.46232
3808.6,1.1232,-2.6598
3820.3,-1.3028,-1.3054
3832,-0.4896,-2.5728
3843.8,-1.5232,-3.2417
3855.5,-3.8366,-2.7042
3867.2,-3.745,-2.1293
3878.9,-3.1553,-1.7739
3890.6,-1.4271,-1.9672
3902.3,-1.7276,-2.4479
3914.1,-4.0261,-1.7495
3925.8,-3.883,-1.5357
3937.5,-2.5483,-4.2691
3949.2,-2.7056,-2.943
3960.9,-5.3354,-2.3232
3972.7,-3.9538,-3.4474
3984.4,-0.60917,-0.10128
3996.1,0.27041,1.5236
4007.8,0.74788,-1.0092
4019.5,-0.41223,-1.8512
4031.3,-7.2679,-2.364
4043,-5.2431,-4.0312
4054.7,-4.1222,-3.5707
4066.4,-2.4367,-2.9286
4078.1,-3.9777,-3.4797
4089.8,-2.8733,-5.3969
4101.6,-2.5147,-4.9907
4113.3,-5.4914,-3.619
4125,-5.742,-2.9683
4136.7,-1.1254,-4.1321
4148.4,-1.6806,-4.3541
4160.2,-3.0486,-3.0436
4171.9,-4.8091,-1.6892
4183.6,-3.3568,-2.9036
4195.3,0.10684,-3.6187
4207,-0.32644,-2.527
4218.8,-2.5881,-3.0911
4230.5,-3.0944,-2.85
4242.2,-2.6294,-3.061
4253.9,-2.2318,-2.5854
4265.6,-1.4794,-1.4653
4277.3,-2.5021,-0.98121
4289.1,-5.2369,-2.1773
4300.8,-1.056,-3.2265
4312.5,-1.5266,-3.9664
4324.2,-4.9822,-2.5273
4335.9,-4.5915,-2.8829
4347.7,-3.7271,-2.7779
4359.4,-4.4721,-4.3673
4371.1,-3.4784,-2.8785
4382.8,-1.0509,-2.9581
4394.5,-2.1512,-3.4271
4406.3,-3.9582,-3.0359
4418,-1.6438,-5.1618
4429.7,-2.1428,-4.8312
4441.4,-3.1496,-2.2518
4453.1,-3.4261,-3.0979
4464.8,-2.8277,-1.3684
4476.6,-3.1336,-2.2405
4488.3,-3.8357,-3.6944
4500,-2.7506,-4.105
4511.7,-2.0807,-4.2202
4523.4,-4.2426,-0.80021
4535.2,-4.4176,1.2346
4546.9,-2.6663,-2.4478
4558.6,-4.0783,-7.7949
4570.3,-4.0843,-5.5535
4582,-5.4562,-7.2554
4593.8,-4.6825,-5.1849
4605.5,-3.9485,-4.435
4617.2,-3.4888,-4.8662
4628.9,-1.7826,-2.0393
4640.6,-2.4237,-1.2622
4652.3,-5.6766,-5.4457
4664.1,-5.0335,-3.6288
4675.8,-3.5605,-3.5277
4687.5,-2.732,-4.2583
4699.2,-3.2956,-5.2241
4710.9,-4.1604,-4.462
4722.7,-4.5849,-0.37795
4734.4,-2.2742,-1.5546
4746.1,-3.235,-4.0048
4757.8,-3.8987,-5.6335
4769.5,-4.2974,-3.078
4781.3,-4.2298,-0.71807
4793,-2.7957,-0.98138
4804.7,-3.9523,-1.1361
4816.4,-3.6791,-3.0608
4828.1,-6.3981,-7.3035
4839.8,-3.05,-3.3994
4851.6,-2.6283,-1.8438
4863.3,-4.083,-0.99241
4875,-2.9499,-4.6823
4886.7,-2.7627,-4.1429
4898.4,-0.93662,-3.5105
4910.2,-1.6287,-2.0276
4921.9,-2.1859,-2.2935
4933.6,-1.5367,-3.9124
4945.3,-3.143,-4.0797
4957,-2.592,-3.5261
4968.8,-2.8274,-2.8746
4980.5,-4.9062,-3.3715
4992.2,-5.9525,-5.1337
5003.9,-3.0788,-3.8785
5015.6,-1.6838,-1.4921
5027.3,-0.45488,-1.711
5039.1,-0.54974,-1.7739
5050.8,-1.1679,-4.2069
5062.5,-1.583,-5.0584
5074.2,-2.8098,-4.6243
5085.9,-2.7571,-3.9395
5097.7,-4.0654,-2.3403
5109.4,-4.2788,-2.6911
5121.1,-5.527,-3.1713
5132.8,-6.4239,-3.8006
5144.5,-6.494,-2.8351
5156.3,-7.2801,-1.0199
5168,-7.3752,-2.4437
5179.7,-5.8788,-1.9877
5191.4,-4.9538,-2.106
5203.1,-5.8995,-4.434
5214.8,-5.5415,-4.0742
5226.6,-4.0808,-1.7321
5238.3,-4.7366,-2.1857
5250,-7.2546,-3.1397
5261.7,-4.0368,-3.0208
5273.4,-1.7785,-3.1123
5285.2,-1.8095,-2.324
5296.9,-5.0001,-1.3043
5308.6,-4.5727,-6.214
5320.3,-7.1168,-5.9708
5332,-6.0529,-2.6618
5343.8,-3.7047,-3.0294
5355.5,-4.5213,-5.6865
5367.2,-2.4062,-2.0152
5378.9,-4.8252,-2.4058
5390.6,-4.0742,-5.2028
5402.3,-2.8173,-5.9711
5414.1,-1.9281,-5.4039
5425.8,-3.441,-3.6792
5437.5,-6.3185,-5.9889
5449.2,-7.0807,-6.0773
5460.9,-7.1341,-3.7683
5472.7,-5.452,-4.7687
5484.4,-3.6845,-2.2439
5496.1,-2.3533,-3.7429
5507.8,-1.7371,-4.5937
5519.5,-3.1101,-5.2577
5531.3,-5.5187,-4.5691
5543,-5.5608,-4.3924
5554.7,-6.4589,-5.2864
5566.4,-6.3152,-5.5166
5578.1,-4.885,-5.7196
5589.8,-4.5583,-3.9204
5601.6,-6.5347,-4.469
5613.3,-6.3557,-3.8889
5625,-4.7439,-7.3779
5636.7,-5.9978,-5.8882
5648.4,-7.1655,-7.3674
5660.2,-6.8078,-9.4284
5671.9,-6.5797,-5.4979
5683.6,-4.0103,-3.2162
5695.3,-1.1262,-6.0565
5707,-3.6951,-6.7181
5718.8,-7.3185,-6.1455
5730.5,-7.3387,-7.3507
5742.2,-9.5239,-4.8866
5753.9,-7.6208,-7.4894
5765.6,-6.9389,-6.6485
5777.3,-6.7418,-5.8244
5789.1,-4.578,-4.208
5800.8,-4.8936,-3.2657
5812.5,-4.38,-1.8658
5824.2,-7.0534,-3.5498
5835.9,-9.0076,-4.9765
5847.7,-6.2242,-3.8589
5859.4,-5.0818,-3.4131
5871.1,-4.6852,-3.4784
5882.8,-4.3907,-5.7805
5894.5,-5.5828,-3.2904
5906.3,-5.3967,-4.8474
5918,-2.8301,-6.25
5929.7,-5.034,-6.1233
5941.4,-6.5844,-4.4158
5953.1,-6.4646,-4.213
5964.8,-6.3972,-4.4661
5976.6,-3.5213,-4.3294
5988.3,-2.2547,-6.1653
6000,-5.3428,-8.5606
6011.7,-6.073,-7.3312
6023.4,-5.8962,-7.2332
6035.2,-8.058,-3.9733
6046.9,-9.1772,-5.5495
6058.6,-7.1051,-3.4403
6070.3,-2.0486,-2.8597
6082,-2.3966,-7.0871
6093.8,-2.8237,-4.3357
6105.5,-5.2248,-4.186
6117.2,-6.9373,-7.5604
6128.9,-6.5125,-4.4647
6140.6,-5.1318,-8.775
6152.3,-4.5156,-5.7225
6164.1,-8.1408,-6.6199
6175.8,-5.4716,-8.0573
6187.5,-4.4483,-3.633
6199.2,-9.4202,-5.4108
6210.9,-7.7641,-7.4956
6222.7,-8.1819,-4.7679
6234.4,-10.001,-5.1234
6246.1,-9.4267,-4.8798
6257.8,-10.296,-6.1999
6269.5,-10.434,-4.5055
6281.3,-6.1406,-4.0615
6293,-3.99,-7.5096
6304.7,-3.1836,-5.191
6316.4,-5.8734,-6.7683
6328.1,-7.6024,-8.0926
6339.8,-4.6358,-5.905
6351.6,-4.1948,-6.4417
6363.3,-4.1777,-8.5283
6375,-5.2206,-7.8289
6386.7,-7.024,-6.7826
6398.4,-4.2238,-7.1328
6410.2,-6.4057,-2.8253
6421.9,-5.2923,-4.44
6433.6,-2.5215,-6.8651
6445.3,-4.8606,-7.9017
6457,-7.3909,-5.7243
6468.8,-6.1868,-4.4195
6480.5,-5.0854,-4.8176
6492.2,-7.3253,-7.7636
6503.9,-9.2461,-9.1701
6515.6,-6.283,-6.7466
6527.3,-5.8697,-7.0714
6539.1,-6.5484,-8.9293
6550.8,-5.3486,-9.4305
6562.5,-4.7947,-8.6402
6574.2,-6.3441,-8.2824
6585.9,-6.8846,-9.4258
6597.7,-3.6323,-9.1672
6609.4,-4.5578,-12.879
6621.1,-5.3986,-8.8014
6632.8,-6.2911,-5.1682
6644.5,-5.8927,-8.2116
6656.3,-5.1988,-6.0665
6668,-7.1543,-5.115
6679.7,-7.9007,-3.6193
6691.4,-9.4271,-2.8929
6703.1,-8.2691,-5.3985
6714.8,-6.5999,-6.9013
6726.6,-4.3408,-7.1154
6738.3,-6.4583,-8.3221
6750,-6.5569,-5.1035
6761.7,-7.3987,-5.3005
6773.4,-8.5076,-6.8634
6785.2,-4.8818,-6.6509
6796.9,-3.8596,-8.1676
6808.6,-6.4271,-7.5637
6820.3,-6.2112,-6.7304
6832,-4.9874,-6.9241
6843.8,-6.0753,-9.0552
6855.5,-7.5693,-5.5724
6867.2,-4.9455,-7.07
6878.9,-5.2775,-8.8374
6890.6,-6.4176,-10.581
6902.3,-6.0763,-11.37
6914.1,-8.4451,-10.911
6925.8,-7.5301,-7.6225
6937.5,-8.9492,-8.2325
6949.2,-9.3715,-7.2836
6960.9,-11.409,-5.4961
6972.7,-12.332,-5.6668
6984.4,-10.116,-7.2398
6996.1,-8.071,-6.09
7007.8,-7.3882,-6.3914
7019.5,-6.9026,-9.5103
7031.3,-9.0005,-7.945
7043,-8.8095,-8.0218
7054.7,-5.6576,-4.3202
7066.4,-6.2192,-2.8835
7078.1,-6.2659,-7.9924
7089.8,-3.3311,-10.374
7101.6,-6.8468,-8.3467
7113.3,-6.9831,-7.3531
7125,-7.8172,-9.7382
7136.7,-6.4867,-10.566
7148.4,-4.8549,-10.122
7160.2,-6.7781,-8.8703
7171.9,-5.4386,-9.1036
7183.6,-7.2914,-7.5836
7195.3,-5.4118,-8.8539
7207,-8.155,-7.7637
7218.8,-6.5157,-9.1988
7230.5,-7.3633,-9.2178
7242.2,-5.3163,-8.1676
7253.9,-3.7123,-7.8471
7265.6,-4.5583,-9.5008
7277.3,-8.1778,-7.8984
7289.1,-11.143,-6.3404
7300.8,-10.658,-8.2533
7312.5,-9.1997,-8.0557
7324.2,-7.9447,-8.2251
7335.9,-6.8195,-7.0582
7347.7,-7.6191,-9.9036
7359.4,-7.8598,-9.7629
7371.1,-7.0438,-11.955
7382.8,-7.2762,-7.6698
7394.5,-7.6754,-5.9559
7406.3,-7.7389,-8.6143
7418,-7.2444,-10.692
7429.7,-6.8237,-9.3367
7441.4,-6.8009,-8.1109
7453.1,-5.9661,-5.6979
7464.8,-12.011,-6.3712
7476.6,-8.3386,-10.034
7488.3,-6.1506,-9.2317
7500,-8.8514,-6.8621
7511.7,-10.338,-6.2829
7523.4,-9.3397,-6.7347
7535.2,-7.6048,-8.4763
7546.9,-8.6756,-7.9711
7558.6,-9.2911,-7.8082
7570.3,-11.433,-8.7503
7582,-9.9212,-9.7538
7593.8,-8.9598,-8.107
7605.5,-10.172,-5.8339
7617.2,-8.4864,-5.9278
7628.9,-9.7819,-7.3689
7640.6,-8.696,-8.0239
7652.3,-9.3268,-7.3396
7664.1,-6.7645,-7.6899
7675.8,-5.5359,-8.9823
7687.5,-7.1786,-8.879
7699.2,-6.243,-6.519
7710.9,-6.3653,-9.1054
7722.7,-6.587,-10.704
7734.4,-8.8903,-9.414
7746.1,-11.455,-8.5708
7757.8,-9.9443,-8.5727
7769.5,-9.0617,-9.3923
7781.3,-10.324,-9.6217
7793,-10.423,-12.125
7804.7,-7.9273,-12.822
7816.4,-6.3126,-9.5872
7828.1,-7.0291,-7.2171
7839.8,-7.5988,-9.3716
7851.6,-11.318,-11.53
7863.3,-7.8717,-9.8986
7875,-9.8308,-8.1555
7886.7,-9.5693,-9.1591
7898.4,-8.6734,-10.818
7910.2,-10.976,-10.379
7921.9,-8.9343,-8.3658
7933.6,-9.4094,-11.262
7945.3,-8.5286,-15.662
7957,-8.3673,-13.124
7968.8,-8.1619,-11.34
7980.5,-8.6427,-8.5367
7992.2,-6.5616,-7.9998
8003.9,-7.1783,-10.686
8015.6,-6.4395,-12.652
8027.3,-8.023,-8.0503
8039.1,-7.6248,-5.2132
8050.8,-7.6529,-8.3115
8062.5,-10.246,-11.586
8074.2,-8.7541,-10.677
8085.9,-6.2111,-11.051
8097.7,-6.1389,-12.593
8109.4,-7.076,-8.9032
8121.1,-10.363,-8.5859
8132.8,-9.1811,-7.5853
8144.5,-6.9508,-6.1205
8156.3,-9.8076,-9.0659
8168,-12.695,-10.25
8179.7,-10.671,-8.3404
8191.4,-6.492,-9.0079
8203.1,-7.0164,-9.4679
8214.8,-11.63,-8.6558
8226.6,-9.2406,-9.2591
8238.3,-8.7381,-9.3377
8250,-11.72,-9.4499
8261.7,-12.299,-10.68
8273.4,-9.3427,-12.799
8285.2,-8.9077,-9.2744
8296.9,-9.4331,-8.7171
8308.6,-10.363,-9.2459
8320.3,-14.303,-10.628
8332,-8.5587,-8.6471
8343.8,-10.162,-8.2931
8355.5,-9.4677,-8.3537
8367.2,-8.5963,-8.9248
8378.9,-9.8262,-9.5892
8390.6,-9.4972,-12.261
8402.3,-9.3532,-10.504
8414.1,-12.059,-11.198
8425.8,-11.249,-8.7989
8437.5,-12.461,-6.4173
8449.2,-12.051,-8.9692
8460.9,-10.406,-10.859
8472.7,-9.5111,-9.8279
8484.4,-7.9692,-9.2757
8496.1,-9.1871,-7.5625
8507.8,-12.012,-8.4394
8519.5,-10.768,-8.4845
8531.3,-10.374,-9.2395
8543,-8.7686,-6.0801
8554.7,-6.9655,-5.2563
8566.4,-7.2523,-5.7749
8578.1,-8.7644,-7.6454
8589.8,-10.314,-11.071
8601.6,-9.9805,-10.17
8613.3,-11.268,-9.791
8625,-14.467,-13.225
8636.7,-10.056,-10.91
8648.4,-7.9406,-9.6852
8660.2,-11.789,-10.505
8671.9,-10.099,-10.842
8683.6,-11.06,-8.3983
8695.3,-10.664,-8.9058
8707,-6.7059,-10.374
8718.8,-5.628,-10.567
8730.5,-6.4602,-10.916
8742.2,-8.0046,-9.1549
8753.9,-9.0004,-8.8643
8765.6,-5.1215,-10.759
8777.3,-6.4268,-10.786
8789.1,-7.7445,-11.674
8800.8,-5.7477,-12.142
8812.5,-8.3746,-13.089
8824.2,-9.4807,-11.89
8835.9,-8.9061,-10.245
8847.7,-11.262,-9.0515
8859.4,-8.4336,-8.5857
8871.1,-11.559,-13.053
8882.8,-7.2476,-15.008
8894.5,-8.842,-8.9719
8906.3,-9.1508,-7.0635
8918,-11.434,-11.975
8929.7,-13.753,-7.7914
8941.4,-11.172,-11.603
8953.1,-10.708,-10.662
8964.8,-12.066,-9.7224
8976.6,-12.985,-9.1508
8988.3,-10.176,-8.5824
9000,-10.186,-7.4609
9011.7,-9.6326,-7.4505
9023.4,-9.5152,-8.1326
9035.2,-13.48,-9.765
9046.9,-10.003,-11.063
9058.6,-10.672,-10.19
9070.3,-10.963,-9.1152
9082,-13.798,-8.8803
9093.8,-11.031,-13.279
9105.5,-8.8633,-12.343
9117.2,-8.1767,-14.206
9128.9,-11.248,-13.14
9140.6,-12.905,-12.243
9152.3,-10.072,-8.8231
9164.1,-8.5598,-12.561
9175.8,-11.151,-11.467
9187.5,-11.741,-9.6392
9199.2,-9.201,-10.387
9210.9,-10.166,-12.73
9222.7,-9.6111,-10.489
9234.4,-7.8327,-11.411
9246.1,-7.9967,-10.651
9257.8,-11.944,-12.155
9269.5,-11.545,-13.125
9281.3,-14.071,-12.477
9293,-11.398,-11.26
9304.7,-10.135,-9.4989
9316.4,-9.0876,-9.4759
9328.1,-11.659,-10.254
9339.8,-12.308,-7.8309
9351.6,-11.506,-8.7357
9363.3,-12.271,-8.7783
9375,-10.449,-8.5723
9386.7,-10.876,-8.8209
9398.4,-11.251,-9.7999
9410.2,-9.7556,-11.362
9421.9,-9.3323,-14.788
9433.6,-10.075,-11.961
9445.3,-8.852,-8.5725
9457,-10.667,-10.007
9468.8,-12.494,-12.518
9480.5,-8.3688,-13.696
9492.2,-9.8608,-14.474
9503.9,-12.241,-11.854
9515.6,-13.559,-9.5095
9527.3,-14.686,-10.722
9539.1,-12.965,-13.971
9550.8,-10.399,-13.973
9562.5,-11.299,-10.241
9574.2,-11.547,-9.906
9585.9,-9.3974,-14.32
9597.7,-9.0511,-14.04
9609.4,-11.097,-10.319
9621.1,-11.076,-13.298
9632.8,-9.1449,-12.384
9644.5,-11.782,-10.304
9656.3,-12.23,-10.273
9668,-11.719,-8.8736
9679.7,-7.3418,-8.5328
9691.4,-10.258,-9.2217
9703.1,-12.304,-10.308
9714.8,-12.068,-11.3
9726.6,-15.649,-13.243
9738.3,-13.76,-12.191
9750,-13.116,-11.363
9761.7,-10.537,-12.093
9773.4,-7.8654,-13.879
9785.2,-10.652,-12.183
9796.9,-12.116,-8.4072
9808.6,-12.009,-8.0992
9820.3,-12.333,-9.818
9832,-12.447,-10.155
9843.8,-12.931,-9.9314
9855.5,-13.468,-11.156
9867.2,-11.79,-14.039
9878.9,-10.103,-14.474
9890.6,-9.118,-14.394
9902.3,-10.537,-13.541
9914.1,-10.292,-15.111
9925.8,-13.62,-11.869
9937.5,-12.173,-12.826
9949.2,-13.696,-14.864
9960.9,-9.599,-12.124
9972.7,-9.2666,-11.465
9984.4,-11.755,-12.747
9996.1,-13.801,-13.641
10008,-13.723,-14.224
10020,-13.912,-14.223
10031,-12.811,-15.543
10043,-10.927,-12.533
10055,-12.304,-9.9542
10066,-11.957,-11.372
10078,-11.992,-9.8072
10090,-12.192,-11.59
10102,-14.453,-14.292
10113,-14.559,-12.923
10125,-12.939,-11.078
10137,-14.159,-11.505
10148,-14.655,-10.932
10160,-11.296,-13.235
10172,-11.808,-10.652
10184,-8.9804,-10.971
10195,-11.295,-10.973
10207,-11.583,-12.805
10219,-12.201,-15.482
10230,-12.106,-13.413
10242,-10.2,-13.741
10254,-14.377,-14.343
10266,-12.187,-13.777
10277,-9.882,-13.48
10289,-11.449,-15.596
10301,-11.869,-16.717
10313,-12.319,-13.502
10324,-13.085,-12.261
10336,-10.767,-10.679
10348,-11.216,-11.87
10359,-9.9629,-13.216
10371,-10.534,-13.287
10383,-13.641,-14.169
10395,-10.652,-11.118
10406,-10.338,-13.821
10418,-12.392,-14.289
10430,-13.068,-15.859
10441,-10.449,-14.266
10453,-8.3737,-13.015
10465,-9.3151,-13.523
10477,-14.863,-14.855
10488,-15.139,-13.704
10500,-12.213,-13
10512,-11.03,-11.796
10523,-9.8498,-11.903
10535,-7.5498,-13.108
10547,-11.48,-18.183
10559,-16.092,-14.247
10570,-12.178,-13.918
10582,-11.451,-16.406
10594,-11.509,-13.903
10605,-9.4893,-13.031
10617,-12.577,-14.219
10629,-11.061,-12.583
10641,-10.12,-10.935
10652,-10.666,-11.757
10664,-11.88,-13.765
10676,-13.98,-10.763
10688,-11.041,-11.457
10699,-12.135,-13.231
10711,-11.222,-14.867
10723,-10.813,-14.448
10734,-12.505,-12.125
10746,-11.222,-11.392
10758,-12.141,-11.768
10770,-14.021,-13.171
10781,-14.094,-12.799
10793,-16.618,-13.09
10805,-14.815,-12.715
10816,-13.195,-11.783
10828,-10.779,-12.843
10840,-12.79,-11.448
10852,-16.977,-11.308
10863,-14.145,-13.661
10875,-12.039,-13.491
10887,-11.864,-12.351
10898,-8.9764,-12.537
10910,-8.8241,-13.538
10922,-11.881,-14.89
10934,-10.936,-15.107
10945,-11.234,-12.535
10957,-11.668,-11.866
10969,-12.247,-14.556
10980,-14.645,-15.087
10992,-13.243,-14.149
11004,-12.437,-16.027
11016,-10.291,-14.004
11027,-12.13,-13.651
11039,-11.523,-14.468
11051,-10.21,-14.928
11063,-12.84,-11.237
11074,-13.408,-11.075
11086,-13.084,-15.093
11098,-14.212,-14.87
11109,-17.813,-12.825
11121,-11.437,-13.755
11133,-10.512,-16.449
11145,-13.793,-12.73
11156,-12.984,-12.719
11168,-8.4106,-14.991
11180,-10.044,-13.363
11191,-12.666,-13.061
11203,-9.7108,-14.099
11215,-11.536,-14.234
11227,-11.798,-16.081
11238,-10.545,-11.427
11250,-15.372,-11.352
11262,-13.576,-15.508
11273,-11.767,-15.032
11285,-13.844,-15.402
11297,-10.556,-15.465
11309,-11.212,-16.819
11320,-14.887,-19.558
11332,-13.381,-14.299
11344,-12.238,-12.864
11355,-11.53,-16.317
11367,-13.145,-17.19
11379,-11.61,-17.307
11391,-11.694,-17.029
11402,-14.727,-14.18
11414,-13.064,-14.192
11426,-14.759,-13.951
11438,-13.881,-13.484
11449,-12.668,-12.121
11461,-12.514,-14.5
11473,-13.34,-13.013
11484,-14.315,-12.425
11496,-13.365,-14.67
11508,-10.384,-15.044
11520,-11.072,-12.576
11531,-12.935,-11.958
11543,-12.062,-13.077
11555,-10.71,-13.711
11566,-9.4227,-13.968
11578,-11.274,-12.071
11590,-15.042,-13.101
11602,-15.601,-13.928
11613,-14.721,-14.313
11625,-12.003,-12.821
11637,-11.108,-11.677
11648,-10.766,-12.475
11660,-10.018,-15.952
11672,-13.838,-15.688
11684,-13.079,-13.599
11695,-13.696,-14.437
11707,-15.018,-14.135
11719,-14.346,-13.444
11730,-15.55,-17.496
11742,-15.221,-16.796
11754,-15.017,-12.905
11766,-13.997,-11.846
11777,-17.482,-13.823
11789,-12.291,-15.874
11801,-10.239,-18.156
11813,-10.466,-16.249
11824,-12.355,-16.495
11836,-15.492,-15.626
11848,-16.721,-15.554
11859,-11.894,-17.412
11871,-16.174,-17.893
11883,-13.307,-15.977
11895,-12.281,-16.23
11906,-12.237,-14.282
11918,-13.491,-15.647
11930,-14.438,-17.268
11941,-12.506,-13.152
11953,-14.306,-12.549
11965,-12.635,-16.782
11977,-13.448,-15.737
11988,-10.424,-14.105
12000,-10.341,-15.167
12012,-13.119,-19.948
12023,-16.323,-17.606
12035,-13.764,-15.43
12047,-10.613,-14.444
12059,-11.139,-12.904
12070,-13.167,-13.595
12082,-11.296,-11.954
12094,-14.216,-13.443
12105,-14.577,-17.468
12117,-11.76,-16.539
12129,-13.112,-14.721
12141,-13.978,-15.215
12152,-13.166,-12.773
12164,-11.612,-11.429
12176,-12.103,-14.636
12188,-12.197,-16.844
12199,-11.526,-17.258
12211,-13.573,-13.933
12223,-12.998,-13.56
12234,-13.038,-15.864
12246,-12.767,-18.161
12258,-11.251,-15.591
12270,-9.9181,-12.441
12281,-12.7,-12.525
12293,-14.988,-15.65
12305,-12.751,-21.456
12316,-13.783,-16.488
12328,-11.636,-15.376
12340,-10.682,-14.331
12352,-10.934,-13.284
12363,-13.214,-13.201
12375,-12.78,-13.294
12387,-11.85,-14.04
12398,-12.59,-14.799
12410,-11.317,-16.406
12422,-9.8356,-14.518
12434,-9.8185,-15.129
12445,-10.624,-19.256
12457,-9.5253,-18.6
12469,-11,-16.477
12480,-12.637,-15.12
12492,-13.463,-12.696
12504,-14.18,-13.878
12516,-14.275,-17.456
12527,-13.957,-15.928
12539,-12.751,-14.702
12551,-10.95,-14.255
12563,-12.309,-16.392
12574,-14.564,-20.455
12586,-12.446,-19.201
12598,-11.749,-16.138
12609,-13.895,-15.698
12621,-12.223,-17.356
12633,-18.056,-15.388
12645,-15.019,-15.055
12656,-13.652,-16.678
12668,-13.61,-15.414
12680,-11.068,-14.055
12691,-13.572,-17.408
12703,-16.403,-16.342
12715,-13.834,-15.252
12727,-13.767,-15.899
12738,-14.943,-17.909
12750,-12.197,-15.066
12762,-11.244,-15.885
12773,-13.793,-13.409
12785,-14.087,-14.505
12797,-12.715,-15.906
12809,-14.359,-14.698
12820,-11.921,-15.178
12832,-11.112,-15.727
12844,-9.8383,-16.1
12855,-11.912,-15.225
12867,-9.5644,-12.162
12879,-10.449,-12.516
12891,-13.351,-16.829
12902,-14.27,-16.323
12914,-15.324,-16.843
12926,-14.259,-17.041
12938,-13.488,-17.966
12949,-11.718,-17.13
12961,-11.5,-15.091
12973,-14.7,-14.614
12984,-13.06,-15.892
12996,-10.653,-18.22
13008,-11.686,-16.87
13020,-13.721,-17.341
13031,-14.021,-17.039
13043,-16.278,-17.019
13055,-16.401,-18.151
13066,-14.097,-18.043
13078,-15.32,-19.964
13090,-13.664,-18.812
13102,-15.361,-16.51
13113,-15.772,-17.92
13125,-11.788,-16.594
13137,-10.321,-15.57
13148,-12.088,-16.164
13160,-12.185,-16.305
13172,-15.29,-15.406
13184,-15.329,-13.217
13195,-13.8,-14.488
13207,-15.886,-13.567
13219,-16.465,-12.81
13230,-16.038,-13.701
13242,-15.214,-15.821
13254,-12.872,-17.356
13266,-13.86,-15.158
13277,-13.906,-13.048
13289,-12.169,-15.082
13301,-15.645,-18.95
13313,-14.841,-19.406
13324,-13.077,-18.247
13336,-12.944,-16.345
13348,-14.877,-16.664
13359,-15.149,-18.395
13371,-13.26,-17.628
13383,-12.521,-17.647
13395,-14.101,-17.208
13406,-12.569,-18.514
13418,-12.947,-18.796
13430,-14.54,-16.934
13441,-14.98,-17.746
13453,-16.68,-14.768
13465,-18.089,-13.296
13477,-13.885,-15.325
13488,-13.022,-15.501
13500,-14.621,-15.745
13512,-12.638,-17.572
13523,-13.057,-16.762
13535,-14.509,-15.839
13547,-14.569,-16.666
13559,-15.848,-16.076
13570,-15.389,-16.792
13582,-14.983,-16.312
13594,-14.428,-12.994
13605,-12.227,-13.714
13617,-12.665,-17.637
13629,-17.651,-16.955
13641,-18.03,-16.654
13652,-15.067,-16.545
13664,-13.243,-18.634
13676,-14.053,-18.632
13688,-15.521,-18.913
13699,-14.654,-18.958
13711,-16.304,-17.739
13723,-18.502,-17.575
13734,-14.292,-15.585
13746,-12.604,-15.986
13758,-15.953,-15.902
13770,-17.096,-15.631
13781,-16.479,-18.182
13793,-11.809,-15.388
13805,-10.533,-16.22
13816,-13.54,-19.349
13828,-15.511,-18.963
13840,-14.192,-19.216
13852,-16.691,-21.436
13863,-14.488,-18.898
13875,-14.576,-21.702
13887,-15.267,-17.559
13898,-16.28,-17.201
13910,-16.752,-16.01
13922,-15.156,-16.222
13934,-15.752,-18.213
13945,-17.217,-20.734
13957,-14.302,-17.882
13969,-14.346,-14.046
13980,-15.288,-15.017
13992,-16.505,-20.562
14004,-13.932,-16.422
14016,-17.583,-17.361
14027,-14.061,-16.589
14039,-14.807,-13.819
14051,-15.905,-16.759
14063,-15.413,-18.939
14074,-16.977,-17.063
14086,-18.863,-15.913
14098,-17.403,-15.54
14109,-14.534,-18.108
14121,-15.097,-16.863
14133,-14.028,-16.122
14145,-14.896,-19.299
14156,-12.206,-16.886
14168,-12.72,-16.429
14180,-14.869,-17.362
14191,-16.482,-20.742
14203,-20.377,-16.227
14215,-19.388,-14.709
14227,-17.159,-15.83
14238,-17.993,-19.423
14250,-17.319,-19.631
14262,-15.785,-15.977
14273,-14.933,-16.333
14285,-18.209,-18.654
14297,-15.267,-17.479
14309,-17.02,-15.828
14320,-14.246,-17.857
14332,-15.337,-18.907
14344,-16.617,-18.42
14355,-17.807,-16.059
14367,-17.705,-17.147
14379,-16.497,-19.395
14391,-17.484,-20.605
14402,-13.547,-21.714
14414,-15.176,-16.685
14426,-17.499,-16.315
14438,-16.776,-18.195
14449,-17.251,-20.402
14461,-19.262,-17.913
14473,-16.071,-19.12
14484,-14.292,-15.7
14496,-16.804,-16.143
14508,-14.657,-18.195
14520,-15.956,-17.636
14531,-19.066,-18.126
14543,-19.576,-18.733
14555,-17.862,-18.735
14566,-16.023,-15.495
14578,-17.408,-15.939
14590,-19.76,-18.559
14602,-18.561,-17.409
14613,-17.524,-18.311
14625,-15.031,-17.383
14637,-15.156,-16.189
14648,-15.924,-17.203
14660,-17.292,-17.688
14672,-19.236,-19.557
14684,-16.968,-19.098
14695,-16.646,-16.412
14707,-17.74,-17.057
14719,-17.971,-18.341
14730,-15.928,-18.31
14742,-14.442,-17.017
14754,-17.33,-19.176
14766,-17.329,-19.215
14777,-17.764,-16.467
14789,-18.821,-16.85
14801,-19.028,-15.985
14813,-18.945,-16.184
14824,-18.09,-17.595
14836,-17.97,-16.908
14848,-19.788,-16.783
14859,-17.005,-18.22
14871,-20.554,-18.146
14883,-19.916,-18.867
14895,-19.418,-19.516
14906,-20.491,-20.184
14918,-20.057,-17.988
14930,-19.29,-20.59
14941,-18.058,-22.148
14953,-16.134,-19.707
14965,-16.817,-15.346
14977,-18.337,-15.256
14988,-19.529,-18.132
15000,-19.451,-17.361
15012,-20.545,-16.885
15023,-18.488,-18.102
15035,-16.037,-17.844
15047,-16.379,-19.212
15059,-19.21,-16.225
15070,-16.488,-17.169
15082,-13.339,-19.207
15094,-14.406,-19.793
15105,-15.223,-19.051
15117,-18.752,-16.905
15129,-20.649,-19.293
15141,-19.539,-19.777
15152,-19.992,-19.16
15164,-21.473,-20.698
15176,-21.162,-19.833
15188,-18.78,-18.195
15199,-17.063,-17.884
15211,-17.829,-19.763
15223,-15.142,-18.831
15234,-15.917,-18.239
15246,-20.984,-16.023
15258,-17.861,-16.026
15270,-17.213,-17.395
15281,-16.97,-13.89
15293,-17.338,-17.652
15305,-18.632,-21.149
15316,-20.955,-22.839
15328,-16.583,-21.359
15340,-18.754,-20.562
15352,-20.08,-19.418
15363,-20.541,-18.321
15375,-19.149,-19.658
15387,-19.905,-17.949
15398,-18.054,-19.43
15410,-17.118,-20.399
15422,-16.235,-17.596
15434,-14.549,-17.047
15445,-17.891,-18.499
15457,-19.901,-17.744
15469,-16.55,-17.604
15480,-15.974,-17.26
15492,-16.761,-19.735
15504,-15.811,-19.791
15516,-14.471,-19.304
15527,-15.566,-20.764
15539,-20.029,-18.015
15551,-18.251,-17.476
15563,-16.395,-15.575
15574,-16.107,-17.532
15586,-14.476,-19.499
15598,-17.271,-19.543
15609,-20.308,-19.875
15621,-22.115,-22.015
15633,-21.739,-23.073
15645,-18.119,-20.664
15656,-18.152,-19.241
15668,-19.246,-19.331
15680,-15.91,-20.06
15691,-14.038,-21.779
15703,-17.988,-20.669
15715,-16.822,-18.08
15727,-18.372,-19.278
15738,-18.874,-18.79
15750,-18.575,-17.25
15762,-20.109,-17.588
15773,-21.591,-20.953
15785,-20.343,-23.362
15797,-17.026,-18.172
15809,-17.326,-16.406
15820,-19.887,-20.17
15832,-22.667,-22.974
15844,-22.154,-21.82
15855,-19.978,-21.49
15867,-19.369,-22.616
15879,-18.167,-21.506
15891,-16.718,-21.844
15902,-16.401,-21.399
15914,-18.956,-19.964
15926,-19.012,-22.065
15938,-18.702,-22.966
15949,-17.941,-21.888
15961,-19.969,-19.971
15973,-21.309,-19.964
15984,-19.66,-18.124
15996,-13.931,-17.212
16008,-17.07,-18.216
16020,-18.86,-21.525
16031,-16.137,-19.972
16043,-17.504,-19.696
16055,-22.403,-20.676
16066,-23.131,-20.066
16078,-19.727,-16.505
16090,-18.572,-17.16
16102,-20.138,-21.096
16113,-19.653,-20.163
16125,-19.32,-22.366
16137,-21.197,-20.626
16148,-23.135,-20.551
16160,-20.055,-22.691
16172,-19.638,-23.171
16184,-22.013,-23.581
16195,-18.887,-20.906
16207,-17.648,-19.241
16219,-19.498,-19.347
16230,-18.171,-19.462
16242,-17.015,-20.232
16254,-17.075,-20.27
16266,-19.256,-21.064
16277,-22.715,-21.573
16289,-19.146,-21.017
16301,-20.697,-22.632
16313,-21.722,-23.476
16324,-20.271,-22.499
16336,-18.741,-18.942
16348,-21.513,-19.288
16359,-22.989,-21.093
16371,-21.094,-23.325
16383,-21.544,-20.649
16395,-21.282,-21.06
16406,-20.898,-21.825
16418,-20.551,-22.012
16430,-21.721,-20.602
16441,-21.273,-21.154
16453,-21.102,-23.687
16465,-19.539,-21.585
16477,-21.206,-19.84
16488,-19.904,-19.822
16500,-19.225,-18.865
16512,-19.716,-18.61
16523,-18.737,-19.466
16535,-18.54,-20.14
16547,-21.061,-19.26
16559,-23.599,-22.47
16570,-21.508,-24.341
16582,-19.578,-24.125
16594,-19.249,-22.26
16605,-21.414,-21.812
16617,-21.467,-20.458
16629,-20.296,-19.37
16641,-18.242,-21.319
16652,-15.351,-21.929
16664,-17.306,-20.724
16676,-19.804,-19.776
16688,-21.46,-20.068
16699,-21.747,-18.787
16711,-22.965,-22.155
16723,-22.211,-21.591
16734,-22.556,-22.333
16746,-20.597,-19.892
16758,-21.602,-19.824
16770,-26.199,-22.469
16781,-19.514,-19.308
16793,-18.65,-20.002
16805,-22.034,-21.056
16816,-21.919,-20.442
16828,-21.198,-21.763
16840,-18.938,-19.018
16852,-18.691,-19.773
16863,-21.061,-21.14
16875,-21.156,-23.132
16887,-22.208,-20.113
16898,-22.114,-18.193
16910,-22.752,-21.597
16922,-22.473,-22.447
16934,-19.581,-21.566
16945,-23.886,-20.925
16957,-22.256,-20.951
16969,-23.288,-23.474
16980,-19.827,-22.953
16992,-18.002,-24.591
17004,-20.42,-27.181
17016,-24.247,-22.791
17027,-24.369,-22.185
17039,-21.084,-20.484
17051,-20.549,-20.272
17063,-24.123,-21.753
17074,-22.101,-21.066
17086,-22.707,-19.553
17098,-22.733,-19.638
17109,-20.092,-21.979
17121,-23.138,-23.999
17133,-23.9,-21.916
17145,-24.058,-22.761
17156,-23.904,-25.068
17168,-23.261,-21.069
17180,-21.918,-18.851
17191,-22.697,-20.361
17203,-19.736,-21.027
17215,-18.991,-22.737
17227,-19.335,-23.965
17238,-20.503,-23.54
17250,-21.905,-24.479
17262,-20.571,-24.119
17273,-21.709,-22.021
17285,-21.357,-21.666
17297,-21.381,-22.593
17309,-20.334,-19.922
17320,-21.525,-19.55
17332,-21.564,-21.391
17344,-22.228,-20.91
17355,-20.567,-22.495
17367,-22.6,-21.699
17379,-25.759,-22.436
17391,-26.282,-24.705
17402,-25.061,-22.928
17414,-23.126,-21.982
17426,-24.605,-21.981
17438,-25.065,-24.068
17449,-22.749,-23.995
17461,-19.884,-26.866
17473,-20.031,-23.05
17484,-18.887,-21.925
17496,-21.733,-24.826
17508,-21.486,-21.253
17520,-21.891,-21.553
17531,-23.453,-24.828
17543,-21.589,-24.951
17555,-22.933,-25.299
17566,-25.706,-22.033
17578,-24.051,-24.694
17590,-23.333,-23.436
17602,-22.328,-21.623
17613,-23.208,-20.48
17625,-25.2,-23.333
17637,-21.784,-19.316
17648,-18.797,-22.76
17660,-20.359,-22.686
17672,-24.399,-20.053
17684,-21.303,-22.062
17695,-21.906,-20.552
17707,-19.684,-19.071
17719,-22.246,-21.725
17730,-21.294,-21.622
17742,-22.466,-23.727
17754,-20.219,-27.225
17766,-22.002,-21.672
17777,-22.84,-22.232
17789,-23.381,-24.537
17801,-24,-22.611
17813,-21.112,-22.687
17824,-21.832,-21.097
17836,-22.413,-20.951
17848,-23.534,-21.043
17859,-22.536,-22.66
17871,-20.821,-25.552
17883,-19.69,-23.836
17895,-21.821,-22.151
17906,-25.599,-22.695
17918,-25.301,-23.043
17930,-23.466,-24.185
17941,-24.615,-21.632
17953,-24.817,-23.24
17965,-21.75,-22.625
17977,-22.14,-20.595
17988,-19.359,-24.101
18000,-17.962,-22.939
18012,-19.655,-25.427
18023,-20.583,-21.919
18035,-23.9,-20.393
18047,-23.85,-21.774
18059,-21.103,-26.482
18070,-22.874,-24.28
18082,-27.08,-22.488
18094,-24.089,-21.234
18105,-21.763,-21.417
18117,-20.551,-23.824
18129,-22.427,-21.631
18141,-22.529,-22.804
18152,-22.188,-23.404
18164,-22.659,-24.945
18176,-22.556,-24.607
18188,-25.366,-22.241
18199,-22.077,-21.569
18211,-21.023,-24.854
18223,-20.303,-24.563
18234,-20.56,-22.621
18246,-22.328,-22.771
18258,-21.664,-26.262
18270,-22.203,-24.134
18281,-20.757,-24.526
18293,-23.291,-25.945
18305,-24.516,-26.917
18316,-23.411,-24.799
18328,-23.595,-24.67
18340,-24.617,-26.066
18352,-22.52,-26.442
18363,-20.725,-25.35
18375,-22.827,-27.164
18387,-24.033,-25.088
18398,-24.336,-28.596
18410,-22.439,-23.36
18422,-20.765,-22.015
18434,-22.734,-22.848
18445,-23.769,-20.457
18457,-24.805,-23.989
18469,-22.115,-24.974
18480,-19.567,-24.547
18492,-21.01,-21.272
18504,-22.641,-22.904
18516,-24.272,-23.052
18527,-22.809,-27.935
18539,-21.889,-26.86
18551,-25.216,-26.276
18563,-22.486,-22.495
18574,-20.062,-21.16
18586,-20.101,-21.774
18598,-24.246,-23.874
18609,-25.953,-27.061
18621,-26.132,-28.303
18633,-25.004,-24.386
18645,-26.259,-22.12
18656,-26.944,-25.257
18668,-25.558,-25.067
18680,-24.247,-26.077
18691,-24.219,-27.376
18703,-23.085,-25.963
18715,-22.334,-25.864
18727,-23.715,-22.48
18738,-20.789,-20.378
18750,-21.137,-22.138
18762,-23.157,-25.545
18773,-22.235,-25.013
18785,-25.031,-23.588
18797,-21.029,-21.797
18809,-23.009,-22.758
18820,-24.646,-27.265
18832,-22.975,-23.719
18844,-21.491,-22.394
18855,-22.314,-24.099
18867,-25.18,-26.394
18879,-24.84,-24.823
18891,-23.115,-24.529
18902,-22.739,-24.628
18914,-21.256,-25.318
18926,-19.095,-26.811
18938,-21.086,-25.647
18949,-24.891,-27.433
18961,-24.322,-26.886
18973,-23.574,-24.433
18984,-26.244,-25.303
18996,-22.146,-24.923
19008,-21.627,-24.639
19020,-23.734,-26.236
19031,-25.4,-22.376
19043,-23.923,-21.251
19055,-24.252,-21.936
19066,-22.989,-24.202
19078,-24.307,-24.713
19090,-24.125,-22.167
19102,-22.322,-21.215
19113,-25.505,-22.04
19125,-21.306,-24.004
19137,-20.757,-27.774
19148,-22.327,-26.489
19160,-24.634,-23.866
19172,-23.625,-24.631
19184,-23.935,-25.652
19195,-24.102,-28.239
19207,-23.384,-27.813
19219,-24.335,-23.852
19230,-24.899,-21.163
19242,-23.21,-21.07
19254,-25.089,-22.232
19266,-25.577,-25.77
19277,-22.269,-27.191
19289,-21.456,-26.436
19301,-24.786,-24.064
19313,-25.531,-24.297
19324,-22.661,-27.315
19336,-24.216,-28.524
19348,-24.26,-25.544
19359,-24.917,-25.044
19371,-22.144,-24.432
19383,-23.527,-25.483
19395,-25.776,-27.677
19406,-23.728,-30.562
19418,-23.936,-28.892
19430,-24.205,-23.377
19441,-23.417,-22.471
19453,-24.205,-25.436
19465,-21.953,-25.099
19477,-25.067,-23.559
19488,-27.437,-20.773
19500,-27.756,-22.051
19512,-26.688,-25.378
19523,-25.356,-24.563
19535,-24.386,-21.585
19547,-25.468,-25.557
19559,-25.661,-28.666
19570,-26.564,-29.787
19582,-23.105,-28.374
19594,-22.029,-26.591
19605,-23.042,-25.961
19617,-22.738,-24.995
19629,-23.544,-24.52
19641,-25.034,-27
19652,-24.813,-27.377
19664,-24.591,-25.04
19676,-25.391,-24.486
19688,-23.147,-26.663
19699,-21.43,-26.769
19711,-22.207,-23.665
19723,-24.02,-25.074
19734,-23.383,-27.837
19746,-25.793,-27.539
19758,-25.875,-25.185
19770,-23.881,-25.143
19781,-26.004,-25.278
19793,-27.783,-24.451
19805,-25.253,-23.213
19816,-25.504,-21.559
19828,-23.375,-20.214
19840,-22.229,-21.676
19852,-23.306,-26.117
19863,-22.791,-28.813
19875,-22.264,-28.181
19887,-24.232,-26.012
19898,-27.298,-25.818
19910,-25.671,-28.438
19922,-22.801,-25.838
19934,-23.532,-23.754
19945,-25.702,-24.762
19957,-27.419,-25.216
19969,-26.342,-27.281
19980,-25.375,-26.323
19992,-24.818,-25.807
20004,-26.462,-23.645
20016,-25.612,-25.12
20027,-25.007,-26.056
20039,-24.541,-28.318
20051,-22.264,-24.679
20063,-25.251,-23.749
20074,-23.324,-24.882
20086,-20.641,-25.875
20098,-25.004,-24.334
20109,-22.912,-24.387
20121,-22.871,-25.88
20133,-25.549,-25.435
20145,-25.1,-22.655
20156,-26.11,-24.24
20168,-24.37,-28.981
20180,-24.129,-27.592
20191,-23.069,-26.906
20203,-23.502,-25.188
20215,-24.859,-25.076
20227,-22.639,-27.119
20238,-22.183,-25.938
20250,-27.861,-26.368
20262,-26.547,-26.191
20273,-24.288,-29.216
20285,-25.182,-26.798
20297,-24.273,-31.776
20309,-22.874,-30.534
20320,-24.544,-27.294
20332,-24.965,-25.167
20344,-25.378,-26.426
20355,-25.326,-28.705
20367,-25.797,-28.404
20379,-23.823,-27.04
20391,-22.59,-27.349
20402,-22.693,-24.726
20414,-22.841,-26.814
20426,-22.091,-27.45
20438,-24.619,-27.029
20449,-27.995,-28.417
20461,-24.364,-26.104
20473,-24.397,-23.55
20484,-23.952,-23.368
20496,-24.596,-27.814
20508,-24.073,-26.302
20520,-23,-30.901
20531,-23.641,-27.196
20543,-24.658,-24.799
20555,-23.914,-26.539
20566,-24.337,-28.301
20578,-27.416,-27.888
20590,-30.338,-28.382
20602,-26.104,-27.909
20613,-27.022,-25.32
20625,-29.398,-24.426
20637,-26.892,-24.774
20648,-25.144,-25.132
20660,-23.516,-26.812
20672,-27.162,-27.433
20684,-25.586,-25.332
20695,-23.334,-26.095
20707,-23.279,-26.075
20719,-23.546,-25.887
20730,-27.887,-25.905
20742,-27.992,-28.773
20754,-23.675,-24.507
20766,-25.15,-24.923
20777,-25.959,-27.008
20789,-27.392,-26.225
20801,-29.115,-23.888
20813,-26.161,-27.165
20824,-26.59,-28.043
20836,-27.204,-27.218
20848,-28.303,-26.299
20859,-27.28,-26.166
20871,-24.906,-24.849
20883,-26.975,-25.757
20895,-28.31,-26.095
20906,-27.137,-23.694
20918,-28.111,-25.437
20930,-27.05,-25.995
20941,-26.212,-24.746
20953,-25.067,-26.294
20965,-28.132,-26.454
20977,-27.194,-28.198
20988,-25.024,-24.694
21000,-25.865,-23.304
21012,-28.453,-23.263
21023,-28.01,-25.086
21035,-26.095,-27.12
21047,-30.587,-28.297
21059,-28.373,-27.413
21070,-23.255,-25.337
21082,-24.281,-25.645
21094,-27.719,-26.458
21105,-23.828,-25.451
21117,-23.701,-28.026
21129,-25.286,-28.66
21141,-26.692,-29.116
21152,-24.994,-28.09
21164,-24.877,-27.185
21176,-25.133,-26.987
21188,-24.576,-27.732
21199,-24.548,-26.762
21211,-24.558,-26.202
21223,-23.319,-23.161
21234,-24.336,-23.904
21246,-28.292,-25.885
21258,-27.594,-26.202
21270,-27.832,-23.836
21281,-29.832,-24.467
21293,-28.439,-28.979
21305,-28.511,-26.198
21316,-28.002,-27.015
21328,-27.66,-26.726
21340,-26.68,-25.458
21352,-27.554,-25.465
21363,-27.812,-25.567
21375,-26.184,-27.319
21387,-25.442,-25.288
21398,-28.383,-25.369
21410,-26.514,-29.233
21422,-24.804,-24.13
21434,-24.414,-24.998
21445,-27.547,-28.565
21457,-23.783,-26.743
21469,-22.039,-25.861
21480,-25.58,-26.2
21492,-26.6,-24.183
21504,-26.04,-23.371
21516,-26.285,-25.547
21527,-23.563,-30.423
21539,-24.207,-30.049
21551,-25.498,-27.356
21563,-26.094,-27.515
21574,-27.024,-28.737
21586,-27.93,-25.738
21598,-25.252,-26.021
21609,-24.527,-26.157
21621,-23.971,-26.922
21633,-24.554,-25.898
21645,-26.177,-25.539
21656,-27.064,-25.734
21668,-28.126,-26.94
21680,-26.144,-28.323
21691,-24.838,-27.851
21703,-25.323,-29.451
21715,-30.644,-24.113
21727,-27.425,-25.649
21738,-26.167,-27.851
21750,-26.138,-28.542
21762,-26.936,-28.324
21773,-27.48,-27.853
21785,-26.926,-29.168
21797,-26.404,-29.938
21809,-27.453,-28.177
21820,-27.445,-26.957
21832,-25.034,-24.216
21844,-26.458,-24.833
21855,-27.318,-26.787
21867,-29.942,-25.617
21879,-28.619,-28.405
21891,-25.816,-29.838
21902,-23.243,-31.878
21914,-26.914,-28.829
21926,-26.415,-26.812
21938,-24.895,-28.038
21949,-23.621,-28.927
21961,-25.073,-28.049
21973,-26.203,-29.438
21984,-26.024,-27.646
21996,-25.707,-22.721
22008,-26.235,-23.003
22020,-29.356,-25.539
22031,-25.708,-27.993
22043,-25.322,-27.076
22055,-27.509,-27.179
22066,-27.166,-24.308
22078,-25.686,-24.851
22090,-28.064,-27.673
22102,-28.292,-28.668
22113,-28.069,-26.732
22125,-23.624,-27.567
22137,-22.846,-27.06
22148,-24.153,-27.958
22160,-26.842,-27.442
22172,-28.307,-25.38
22184,-28.443,-25.816
22195,-26.978,-28.375
22207,-25.65,-28.665
22219,-23.446,-28.167
22230,-25.169,-27.039
22242,-28.475,-27.545
22254,-31.154,-27.899
22266,-29.757,-28.229
22277,-26.644,-25.53
22289,-26.551,-25.024
22301,-28.788,-29.709
22313,-28.004,-30.338
22324,-25.982,-26.616
22336,-24.887,-27.848
22348,-26.405,-30.538
22359,-29.312,-31.277
22371,-28.88,-29.139
22383,-29.348,-27.385
22395,-26.961,-25.892
22406,-24.157,-26.55
22418,-26.144,-27.243
22430,-27.115,-31.688
22441,-28.697,-29.925
22453,-27.344,-26.845
22465,-29.037,-26.383
22477,-31.084,-25.468
22488,-29.225,-26.24
22500,-28.189,-28.746
22512,-27.329,-27.614
22523,-27.005,-26.952
22535,-25.92,-27.137
22547,-26.154,-27.638
22559,-27.245,-27.738
22570,-27.322,-27.892
22582,-26.427,-26.668
22594,-27.412,-25.285
22605,-26.612,-24.855
22617,-30.16,-25.342
22629,-27.699,-27.413
22641,-28.488,-28.745
22652,-28.59,-27.301
22664,-31.35,-25.41
22676,-25.204,-26.018
22688,-29.527,-27.952
22699,-27.041,-28.799
22711,-28.62,-28.8
22723,-27.091,-28.599
22734,-28.775,-25.69
22746,-30.776,-27.47
22758,-29.987,-30.174
22770,-30.129,-30.774
22781,-27.017,-30.459
22793,-28.284,-27.453
22805,-34.724,-30.037
22816,-30.114,-28.046
22828,-29.834,-27.443
22840,-28.475,-29.196
22852,-27.389,-25.549
22863,-25.821,-25.448
22875,-26.947,-27.382
22887,-27.792,-26.317
22898,-27.898,-26.443
22910,-26.277,-27.828
22922,-24.656,-27.812
22934,-26.191,-29.535
22945,-27.733,-30.774
22957,-26.626,-27.978
22969,-25.278,-25.806
22980,-31.135,-29.294
22992,-26.9,-27.544
23004,-23.772,-25.089
23016,-26.458,-27.86
23027,-31.873,-27.497
23039,-27.757,-28.063
23051,-27.385,-29.29
23063,-28.226,-30.889
23074,-29.258,-30.625
23086,-28.405,-28.946
23098,-29.648,-29.242
23109,-28.464,-27.364
23121,-25.437,-27.93
23133,-25.123,-29.49
23145,-28.572,-24.183
23156,-32.132,-26.653
23168,-29.11,-27.947
23180,-27.343,-27.063
23191,-26.13,-26.168
23203,-27.923,-25.285
23215,-29.659,-28.408
23227,-27.406,-30.703
23238,-27.732,-30.588
23250,-29.017,-31.609
23262,-27.905,-28.471
23273,-28.395,-28.794
23285,-28.654,-28.737
23297,-27.323,-29.207
23309,-26.543,-31.325
23320,-27.942,-29.678
23332,-27.346,-30.078
23344,-27.847,-29.474
23355,-27.771,-26.393
23367,-30.285,-26.228
23379,-27.681,-26.43
23391,-27.823,-30.159
23402,-30.439,-28.438
23414,-29.96,-27.178
23426,-27.889,-27.417
23438,-30.362,-29.051
23449,-26.886,-29.961
23461,-25.769,-28.933
23473,-29.597,-27.984
23484,-27.441,-29.93
23496,-28.678,-29.383
23508,-28.854,-28.998
23520,-26.924,-28.2
23531,-27.43,-29.429
23543,-26.784,-29.098
23555,-24.874,-28.796
23566,-26.122,-29.631
23578,-25.477,-30.767
23590,-25.752,-30.348
23602,-27.676,-30.871
23613,-31.624,-31.663
23625,-29.205,-30.111
23637,-26.425,-27.247
23648,-26.641,-26.378
23660,-28.377,-26.542
23672,-28.988,-28.01
23684,-29.739,-29.044
23695,-30.392,-28.013
23707,-29.004,-26.525
23719,-26.541,-23.322
23730,-26.991,-24.695
23742,-29.304,-31.393
23754,-29.166,-28.192
23766,-29.714,-27.274
23777,-27.41,-29.862
23789,-28.203,-27.081
23801,-28.444,-28.793
23813,-25.752,-30.805
23824,-25.928,-27.642
23836,-28.08,-28.375
23848,-29.527,-28.089
23859,-29.899,-27.244
23871,-28.438,-28.868
23883,-29.365,-31.384
23895,-28.863,-31.802
23906,-28.284,-31.086
23918,-27.195,-32.608
23930,-17.47,-29.419
23941,-13.276,-28.097
23953,-19.011,-30.217
23965,-28.776,-30.535
23977,-26.177,-26.648
23988,-22.936,-27.914
